SpectraSuite Data File
++++++++++++++++++++++++++++++++++++
Date: Mon Aug 26 10:25:51 PDT 2019
User: corrico
Dark Spectrum Present: No
Reference Spectrum Present: No
Number of Sampled Component Spectra: 1
Spectrometers: USB2+H06089
Integration Time (usec): 10000 (USB2+H06089)
Spectra Averaged: 2 (USB2+H06089)
Boxcar Smoothing: 2 (USB2+H06089)
Correct for Electrical Dark: No (USB2+H06089)
Strobe/Lamp Enabled: No (USB2+H06089)
Correct for Detector Non-linearity: No (USB2+H06089)
Correct for Stray Light: No (USB2+H06089)
Number of Pixels in Processed Spectrum: 2048
>>>>>Begin Processed Spectral Data<<<<<
339.70	1038.03
340.07	1038.03
340.45	996.83
340.82	976.24
341.19	948.39
341.57	918.19
341.94	902.98
342.31	901.81
342.69	891.51
343.06	895.02
343.43	905.32
343.81	903.91
344.18	911.40
344.55	918.43
344.93	928.26
345.30	924.75
345.67	935.75
346.04	947.21
346.42	957.05
346.79	962.90
347.16	973.90
347.54	973.66
347.91	983.49
348.28	993.32
348.65	995.20
349.03	1001.28
349.40	1018.60
349.77	1021.41
350.14	1028.67
350.52	1036.86
350.89	1045.99
351.26	1045.28
351.63	1049.96
352.01	1049.96
352.38	1049.03
352.75	1046.69
353.12	1053.01
353.50	1050.67
353.87	1052.77
354.24	1066.82
354.61	1077.82
354.98	1073.14
355.36	1075.48
355.73	1076.41
356.10	1070.56
356.47	1068.69
356.84	1073.37
357.22	1089.75
357.59	1094.67
357.96	1084.60
358.33	1082.73
358.70	1090.69
359.08	1076.88
359.45	1072.67
359.82	1081.80
360.19	1074.07
360.56	1069.86
360.94	1070.33
361.31	1075.24
361.68	1075.24
362.05	1083.90
362.42	1075.94
362.79	1067.52
363.16	1066.82
363.54	1066.82
363.91	1057.92
364.28	1067.75
364.65	1072.90
365.02	1066.35
365.39	1063.31
365.76	1070.80
366.14	1060.96
366.51	1062.37
366.88	1070.33
367.25	1072.67
367.62	1073.14
367.99	1077.58
368.36	1082.50
368.73	1082.03
369.10	1082.73
369.48	1086.48
369.85	1077.82
370.22	1076.41
370.59	1069.62
370.96	1059.79
371.33	1050.43
371.70	1053.01
372.07	1049.26
372.44	1047.16
372.81	1048.09
373.18	1053.01
373.55	1065.18
373.93	1053.71
374.30	1061.67
374.67	1066.82
375.04	1068.92
375.41	1057.45
375.78	1069.86
376.15	1064.48
376.52	1070.56
376.89	1066.58
377.26	1065.41
377.63	1065.18
378.00	1063.31
378.37	1057.69
378.74	1067.05
379.11	1073.14
379.48	1067.52
379.85	1075.71
380.22	1085.07
380.59	1068.45
380.96	1062.60
381.33	1065.18
381.70	1052.30
382.07	1042.47
382.44	1045.28
382.81	1049.03
383.18	1053.94
383.55	1057.22
383.92	1059.33
384.29	1057.92
384.66	1059.79
385.03	1050.20
385.40	1052.54
385.77	1060.73
386.14	1063.77
386.51	1062.14
386.88	1073.14
387.25	1076.18
387.62	1066.58
387.99	1063.31
388.36	1067.75
388.73	1067.52
389.10	1076.41
389.46	1081.33
389.83	1087.88
390.20	1076.88
390.57	1074.54
390.94	1059.09
391.31	1054.88
391.68	1064.94
392.05	1078.28
392.42	1079.46
392.79	1078.99
393.16	1080.63
393.53	1078.28
393.89	1074.54
394.26	1078.99
394.63	1082.26
395.00	1079.92
395.37	1071.73
395.74	1070.56
396.11	1064.94
396.48	1067.28
396.84	1056.28
397.21	1058.16
397.58	1057.92
397.95	1060.03
398.32	1058.39
398.69	1070.80
399.06	1076.41
399.42	1075.01
399.79	1076.18
400.16	1081.80
400.53	1085.31
400.90	1087.88
401.27	1097.71
401.64	1094.67
402.00	1101.46
402.37	1101.69
402.74	1088.58
403.11	1082.73
403.48	1074.07
403.84	1069.62
404.21	1073.37
404.58	1082.26
404.95	1072.67
405.32	1071.50
405.68	1063.54
406.05	1049.96
406.42	1043.41
406.79	1050.67
407.16	1056.28
407.52	1054.65
407.89	1059.56
408.26	1053.48
408.63	1047.39
408.99	1041.30
409.36	1044.11
409.73	1045.99
410.10	1056.28
410.47	1062.14
410.83	1065.18
411.20	1060.03
411.57	1059.33
411.94	1053.94
412.30	1059.09
412.67	1064.24
413.04	1078.28
413.40	1082.50
413.77	1089.99
414.14	1097.95
414.51	1096.31
414.87	1091.16
415.24	1081.56
415.61	1078.28
415.97	1071.97
416.34	1075.24
416.71	1079.46
417.08	1085.07
417.44	1086.24
417.81	1078.28
418.18	1084.37
418.54	1078.28
418.91	1093.26
419.28	1094.90
419.64	1103.33
420.01	1097.01
420.38	1089.05
420.74	1075.71
421.11	1077.11
421.48	1067.99
421.84	1072.90
422.21	1078.75
422.58	1083.43
422.94	1081.09
423.31	1085.07
423.68	1084.84
424.04	1094.20
424.41	1092.80
424.77	1094.67
425.14	1095.60
425.51	1092.33
425.87	1089.05
426.24	1090.69
426.61	1083.67
426.97	1086.94
427.34	1078.05
427.70	1078.52
428.07	1073.60
428.44	1079.22
428.80	1081.09
429.17	1093.26
429.53	1087.65
429.90	1086.48
430.27	1080.39
430.63	1076.65
431.00	1077.11
431.36	1070.56
431.73	1076.65
432.09	1080.39
432.46	1083.43
432.83	1088.58
433.19	1101.22
433.56	1088.58
433.92	1090.69
434.29	1094.90
434.65	1090.22
435.02	1082.73
435.38	1092.33
435.75	1092.09
436.11	1086.01
436.48	1077.82
436.84	1079.46
437.21	1082.97
437.57	1071.97
437.94	1053.01
438.30	1050.20
438.67	1061.90
439.03	1051.13
439.40	1056.52
439.76	1068.22
440.13	1076.18
440.49	1061.67
440.86	1069.39
441.22	1078.28
441.59	1082.97
441.95	1082.03
442.32	1085.54
442.68	1079.22
443.05	1070.80
443.41	1066.58
443.78	1066.35
444.14	1064.24
444.51	1062.37
444.87	1061.43
445.24	1074.31
445.60	1067.99
445.96	1072.67
446.33	1081.09
446.69	1090.46
447.06	1078.99
447.42	1093.50
447.79	1095.60
448.15	1093.03
448.51	1089.52
448.88	1091.16
449.24	1081.33
449.61	1074.77
449.97	1076.18
450.33	1066.58
450.70	1067.75
451.06	1075.94
451.43	1081.80
451.79	1079.46
452.15	1092.56
452.52	1079.92
452.88	1073.14
453.24	1070.56
453.61	1075.24
453.97	1082.03
454.34	1094.20
454.70	1096.31
455.06	1088.12
455.43	1085.07
455.79	1071.50
456.15	1076.41
456.52	1075.71
456.88	1078.52
457.24	1086.01
457.61	1080.63
457.97	1071.03
458.33	1072.20
458.70	1083.67
459.06	1075.71
459.42	1083.67
459.79	1089.52
460.15	1083.90
460.51	1071.97
460.88	1067.52
461.24	1069.86
461.60	1069.86
461.96	1077.11
462.33	1076.88
462.69	1081.09
463.05	1078.52
463.42	1074.07
463.78	1075.71
464.14	1073.84
464.50	1075.24
464.87	1067.52
465.23	1075.01
465.59	1070.33
465.95	1078.75
466.32	1075.71
466.68	1083.20
467.04	1078.75
467.40	1073.14
467.77	1063.31
468.13	1059.79
468.49	1049.26
468.85	1049.50
469.22	1053.24
469.58	1064.71
469.94	1065.41
470.30	1067.05
470.66	1068.22
471.03	1068.45
471.39	1070.09
471.75	1068.22
472.11	1082.73
472.47	1082.50
472.84	1082.50
473.20	1077.35
473.56	1092.09
473.92	1086.48
474.28	1081.80
474.65	1085.54
475.01	1091.16
475.37	1083.20
475.73	1087.88
476.09	1094.90
476.45	1094.90
476.81	1092.80
477.18	1096.78
477.54	1098.41
477.90	1100.99
478.26	1098.41
478.62	1093.73
478.98	1094.20
479.34	1091.16
479.71	1089.29
480.07	1083.67
480.43	1088.12
480.79	1080.63
481.15	1083.67
481.51	1080.63
481.87	1088.35
482.23	1083.90
482.59	1089.99
482.96	1083.43
483.32	1083.20
483.68	1080.16
484.04	1084.14
484.40	1090.46
484.76	1094.67
485.12	1090.92
485.48	1090.92
485.84	1086.94
486.20	1077.58
486.56	1079.69
486.92	1082.73
487.28	1083.67
487.64	1078.52
488.00	1078.52
488.37	1069.39
488.73	1072.20
489.09	1073.14
489.45	1080.39
489.81	1086.71
490.17	1081.80
490.53	1083.20
490.89	1085.54
491.25	1092.80
491.61	1093.03
491.97	1104.03
492.33	1103.56
492.69	1103.33
493.05	1095.84
493.41	1089.29
493.77	1092.33
494.13	1092.56
494.49	1082.26
494.85	1083.90
495.21	1078.52
495.57	1075.24
495.93	1074.77
496.29	1085.54
496.64	1086.71
497.00	1094.67
497.36	1097.95
497.72	1086.48
498.08	1089.05
498.44	1085.54
498.80	1087.18
499.16	1082.50
499.52	1093.50
499.88	1090.22
500.24	1085.54
500.60	1082.73
500.96	1080.16
501.32	1073.14
501.68	1067.28
502.03	1074.07
502.39	1071.50
502.75	1070.56
503.11	1079.69
503.47	1081.33
503.83	1078.28
504.19	1075.71
504.55	1075.24
504.91	1069.62
505.26	1074.54
505.62	1077.11
505.98	1087.18
506.34	1089.29
506.70	1081.09
507.06	1084.60
507.42	1081.80
507.78	1078.52
508.13	1081.33
508.49	1090.46
508.85	1086.01
509.21	1098.18
509.57	1099.58
509.93	1100.75
510.28	1105.90
510.64	1106.61
511.00	1094.43
511.36	1099.82
511.72	1101.22
512.07	1102.16
512.43	1104.97
512.79	1108.24
513.15	1097.01
513.51	1091.86
513.86	1084.84
514.22	1077.11
514.58	1073.60
514.94	1085.77
515.30	1096.78
515.65	1096.54
516.01	1099.35
516.37	1105.67
516.73	1089.29
517.08	1081.09
517.44	1085.54
517.80	1086.71
518.16	1089.29
518.51	1097.71
518.87	1098.18
519.23	1106.84
519.59	1107.78
519.94	1101.22
520.30	1103.80
520.66	1100.75
521.01	1090.92
521.37	1094.67
521.73	1103.33
522.09	1098.65
522.44	1099.35
522.80	1087.88
523.16	1078.75
523.51	1070.80
523.87	1075.94
524.23	1078.52
524.58	1093.73
524.94	1103.56
525.30	1108.48
525.65	1109.41
526.01	1115.73
526.37	1117.14
526.72	1114.56
527.08	1111.99
527.44	1097.95
527.79	1089.99
528.15	1083.43
528.51	1070.56
528.86	1052.30
529.22	1049.96
529.58	1045.05
529.93	1039.90
530.29	1050.20
530.65	1067.05
531.00	1074.31
531.36	1086.01
531.71	1094.20
532.07	1101.69
532.43	1108.24
532.78	1103.80
533.14	1090.92
533.49	1089.29
533.85	1083.20
534.21	1077.82
534.56	1083.90
534.92	1090.69
535.27	1099.58
535.63	1100.52
535.98	1097.24
536.34	1101.22
536.69	1099.35
537.05	1095.14
537.41	1088.35
537.76	1088.58
538.12	1084.84
538.47	1074.54
538.83	1074.07
539.18	1065.88
539.54	1064.01
539.89	1061.90
540.25	1078.28
540.60	1071.73
540.96	1083.67
541.31	1093.73
541.67	1097.71
542.02	1094.20
542.38	1097.71
542.73	1098.18
543.09	1092.09
543.44	1093.50
543.80	1097.24
544.15	1092.80
544.51	1092.33
544.86	1089.29
545.22	1095.14
545.57	1089.05
545.93	1091.39
546.28	1084.14
546.64	1084.60
546.99	1066.82
547.35	1076.65
547.70	1071.50
548.05	1080.39
548.41	1074.31
548.76	1089.29
549.12	1077.35
549.47	1083.20
549.83	1078.05
550.18	1090.22
550.53	1094.67
550.89	1097.01
551.24	1093.26
551.60	1104.97
551.95	1099.58
552.30	1093.03
552.66	1100.05
553.01	1104.26
553.37	1103.33
553.72	1105.90
554.07	1101.92
554.43	1090.92
554.78	1090.46
555.13	1082.73
555.49	1082.26
555.84	1089.52
556.19	1089.05
556.55	1089.99
556.90	1087.41
557.26	1081.80
557.61	1083.90
557.96	1089.29
558.32	1092.09
558.67	1097.95
559.02	1105.44
559.37	1094.20
559.73	1093.97
560.08	1096.78
560.43	1099.82
560.79	1098.41
561.14	1104.97
561.49	1111.29
561.85	1104.50
562.20	1097.95
562.55	1108.48
562.90	1099.35
563.26	1097.95
563.61	1099.58
563.96	1093.73
564.32	1080.86
564.67	1087.88
565.02	1080.86
565.37	1078.28
565.73	1087.18
566.08	1076.65
566.43	1078.28
566.78	1083.67
567.14	1093.97
567.49	1092.56
567.84	1107.31
568.19	1102.86
568.54	1099.58
568.90	1093.03
569.25	1093.73
569.60	1087.65
569.95	1085.07
570.31	1087.88
570.66	1077.58
571.01	1068.69
571.36	1076.18
571.71	1076.88
572.06	1074.77
572.42	1086.94
572.77	1091.63
573.12	1090.22
573.47	1089.52
573.82	1084.14
574.18	1070.80
574.53	1065.41
574.88	1065.41
575.23	1068.69
575.58	1073.37
575.93	1074.77
576.28	1086.71
576.64	1082.50
576.99	1074.54
577.34	1080.86
577.69	1092.33
578.04	1086.71
578.39	1091.86
578.74	1091.39
579.09	1082.73
579.44	1072.90
579.80	1065.88
580.15	1054.88
580.50	1058.62
580.85	1064.94
581.20	1075.48
581.55	1078.52
581.90	1080.39
582.25	1080.63
582.60	1080.63
582.95	1071.03
583.30	1082.73
583.65	1088.82
584.00	1087.88
584.35	1085.31
584.71	1089.75
585.06	1082.73
585.41	1079.92
585.76	1082.73
586.11	1069.62
586.46	1065.41
586.81	1073.14
587.16	1078.99
587.51	1090.22
587.86	1102.16
588.21	1116.20
588.56	1103.80
588.91	1102.63
589.26	1090.92
589.61	1086.01
589.96	1068.92
590.31	1074.31
590.66	1065.88
591.01	1073.14
591.36	1071.50
591.71	1082.26
592.06	1082.97
592.41	1089.52
592.76	1088.82
593.10	1091.39
593.45	1088.82
593.80	1086.48
594.15	1086.24
594.50	1086.94
594.85	1086.71
595.20	1091.86
595.55	1091.16
595.90	1081.56
596.25	1079.46
596.60	1078.99
596.95	1066.82
597.30	1061.67
597.64	1119.01
597.99	1112.69
598.34	1117.14
598.69	1123.93
599.04	1129.54
599.39	1075.71
599.74	1083.90
600.09	1087.65
600.44	1085.77
600.78	1088.12
601.13	1090.22
601.48	1087.41
601.83	1072.20
602.18	1068.92
602.53	1066.11
602.88	1063.77
603.22	1065.65
603.57	1072.20
603.92	1072.67
604.27	1071.03
604.62	1083.90
604.97	1088.12
605.31	1091.16
605.66	1092.80
606.01	1094.20
606.36	1079.46
606.71	1066.82
607.05	1064.48
607.40	1068.92
607.75	1071.03
608.10	1085.07
608.44	1091.16
608.79	1093.50
609.14	1091.63
609.49	1088.58
609.84	1079.92
610.18	1079.92
610.53	1086.94
610.88	1097.01
611.23	1098.18
611.57	1098.88
611.92	1099.82
612.27	1089.52
612.62	1083.90
612.96	1083.90
613.31	1087.65
613.66	1093.50
614.00	1090.46
614.35	1087.65
614.70	1090.22
615.05	1085.07
615.39	1076.41
615.74	1082.73
616.09	1081.09
616.43	1079.92
616.78	1082.97
617.13	1080.63
617.47	1081.80
617.82	1076.41
618.17	1081.80
618.51	1082.03
618.86	1078.99
619.21	1079.22
619.55	1086.71
619.90	1076.88
620.25	1067.28
620.59	1067.28
620.94	1064.01
621.29	1058.16
621.63	1062.84
621.98	1069.86
622.32	1071.03
622.67	1071.03
623.02	1066.58
623.36	1063.07
623.71	1068.22
624.05	1080.16
624.40	1089.75
624.75	1097.01
625.09	1093.03
625.44	1079.92
625.78	1069.86
626.13	1064.48
626.48	1064.94
626.82	1074.77
627.17	1088.12
627.51	1092.33
627.86	1089.05
628.20	1085.31
628.55	1086.24
628.89	1079.46
629.24	1071.50
629.58	1074.54
629.93	1088.82
630.28	1087.41
630.62	1089.29
630.97	1093.50
631.31	1093.03
631.66	1094.20
632.00	1093.73
632.35	1100.99
632.69	1112.46
633.04	1112.22
633.38	1098.41
633.73	1093.03
634.07	1089.05
634.42	1079.46
634.76	1083.43
635.11	1089.75
635.45	1099.58
635.79	1091.16
636.14	1088.35
636.48	1083.90
636.83	1078.52
637.17	1071.50
637.52	1071.73
637.86	1078.75
638.21	1077.35
638.55	1068.92
638.89	1063.77
639.24	1068.92
639.58	1068.69
639.93	1065.65
640.27	1066.35
640.61	1073.14
640.96	1073.37
641.30	1064.71
641.65	1068.69
641.99	1081.80
642.33	1083.90
642.68	1082.73
643.02	1086.94
643.37	1094.90
643.71	1095.14
644.05	1085.54
644.40	1085.31
644.74	1081.33
645.08	1072.90
645.43	1067.99
645.77	1071.73
646.11	1073.37
646.46	1087.18
646.80	1098.65
647.14	1100.05
647.49	1097.95
647.83	1095.37
648.17	1094.20
648.52	1079.22
648.86	1083.20
649.20	1092.33
649.55	1092.33
649.89	1089.75
650.23	1093.26
650.57	1089.52
650.92	1087.41
651.26	1086.71
651.60	1086.01
651.95	1086.24
652.29	1088.35
652.63	1093.73
652.97	1096.07
653.32	1093.03
653.66	1097.95
654.00	1091.86
654.34	1082.73
654.69	1087.41
655.03	1094.43
655.37	1095.37
655.71	1092.80
656.05	1101.92
656.40	1101.69
656.74	1091.39
657.08	1082.50
657.42	1093.03
657.76	1084.60
658.11	1079.69
658.45	1080.39
658.79	1081.56
659.13	1078.52
659.47	1080.63
659.82	1081.09
660.16	1085.54
660.50	1098.41
660.84	1091.16
661.18	1083.67
661.52	1082.26
661.87	1074.54
662.21	1063.54
662.55	1070.56
662.89	1076.88
663.23	1071.03
663.57	1081.56
663.91	1088.35
664.25	1091.16
664.60	1094.67
664.94	1094.43
665.28	1084.14
665.62	1076.41
665.96	1065.41
666.30	1060.73
666.64	1061.43
666.98	1067.28
667.32	1063.54
667.66	1067.05
668.01	1068.22
668.35	1080.39
668.69	1079.46
669.03	1087.18
669.37	1094.43
669.71	1092.09
670.05	1093.73
670.39	1089.75
670.73	1084.14
671.07	1078.75
671.41	1080.63
671.75	1071.26
672.09	1072.43
672.43	1084.60
672.77	1079.46
673.11	1079.69
673.45	1086.94
673.79	1097.95
674.13	1091.86
674.47	1101.69
674.81	1096.54
675.15	1089.75
675.49	1086.24
675.83	1076.18
676.17	1062.84
676.51	1062.84
676.85	1069.16
677.19	1057.45
677.53	1057.69
677.87	1058.62
678.21	1062.84
678.55	1059.33
678.89	1069.86
679.23	1081.80
679.57	1086.24
679.90	1080.16
680.24	1077.11
680.58	1080.16
680.92	1073.37
681.26	1078.75
681.60	1090.69
681.94	1084.84
682.28	1077.82
682.62	1078.52
682.96	1075.01
683.29	1067.52
683.63	1074.31
683.97	1069.39
684.31	1076.41
684.65	1075.94
684.99	1075.48
685.33	1068.92
685.67	1075.24
686.00	1067.99
686.34	1068.92
686.68	1067.05
687.02	1086.48
687.36	1090.46
687.70	1087.65
688.03	1083.43
688.37	1083.67
688.71	1074.77
689.05	1063.54
689.39	1061.67
689.72	1075.01
690.06	1086.48
690.40	1081.56
690.74	1093.73
691.08	1102.63
691.41	1099.35
691.75	1092.09
692.09	1094.90
692.43	1089.29
692.76	1082.26
693.10	1072.20
693.44	1075.94
693.78	1074.54
694.11	1070.09
694.45	1067.99
694.79	1065.65
695.13	1066.58
695.46	1073.14
695.80	1077.82
696.14	1078.05
696.48	1084.37
696.81	1083.20
697.15	1085.07
697.49	1088.35
697.82	1098.41
698.16	1103.56
698.50	1101.69
698.83	1098.88
699.17	1097.01
699.51	1093.03
699.84	1093.03
700.18	1097.48
700.52	1097.95
700.85	1090.69
701.19	1091.39
701.53	1096.07
701.86	1091.39
702.20	1098.41
702.54	1102.39
702.87	1105.90
703.21	1100.75
703.55	1099.82
703.88	1086.71
704.22	1088.35
704.55	1085.07
704.89	1083.90
705.23	1087.65
705.56	1092.80
705.90	1089.52
706.23	1097.48
706.57	1093.26
706.91	1094.67
707.24	1089.05
707.58	1094.20
707.91	1081.56
708.25	1085.54
708.58	1094.67
708.92	1098.88
709.26	1093.50
709.59	1089.75
709.93	1088.12
710.26	1068.92
710.60	1071.97
710.93	1074.31
711.27	1090.92
711.60	1082.03
711.94	1086.71
712.27	1070.56
712.61	1075.24
712.94	1066.11
713.28	1076.41
713.61	1071.73
713.95	1080.63
714.28	1071.03
714.62	1064.48
714.95	1067.28
715.29	1071.26
715.62	1069.16
715.96	1074.07
716.29	1081.56
716.63	1075.24
716.96	1091.39
717.29	1098.41
717.63	1097.48
717.96	1106.84
718.30	1106.84
718.63	1095.60
718.97	1091.39
719.30	1087.88
719.63	1080.39
719.97	1082.50
720.30	1079.69
720.64	1090.46
720.97	1095.37
721.30	1088.58
721.64	1083.67
721.97	1091.63
722.31	1073.60
722.64	1074.31
722.97	1077.82
723.31	1086.94
723.64	1080.86
723.97	1093.97
724.31	1098.65
724.64	1105.20
724.98	1104.03
725.31	1099.58
725.64	1094.67
725.98	1084.84
726.31	1079.22
726.64	1079.22
726.97	1081.80
727.31	1075.71
727.64	1077.11
727.97	1079.22
728.31	1078.28
728.64	1074.54
728.97	1083.43
729.31	1081.33
729.64	1092.33
729.97	1094.67
730.30	1100.75
730.64	1097.01
730.97	1100.29
731.30	1088.12
731.63	1081.09
731.97	1077.82
732.30	1079.22
732.63	1079.46
732.96	1069.16
733.30	1075.24
733.63	1071.73
733.96	1074.07
734.29	1078.52
734.63	1092.80
734.96	1089.75
735.29	1094.67
735.62	1095.14
735.95	1098.18
736.29	1091.16
736.62	1085.07
736.95	1083.20
737.28	1077.11
737.61	1076.18
737.94	1074.07
738.28	1074.54
738.61	1077.35
738.94	1077.11
739.27	1078.52
739.60	1078.28
739.93	1080.86
740.27	1071.03
740.60	1073.14
740.93	1063.77
741.26	1071.26
741.59	1078.99
741.92	1077.82
742.25	1082.97
742.58	1083.43
742.91	1085.07
743.25	1077.58
743.58	1084.84
743.91	1083.67
744.24	1087.18
744.57	1087.65
744.90	1088.58
745.23	1093.50
745.56	1092.80
745.89	1094.90
746.22	1097.24
746.55	1106.84
746.88	1108.71
747.21	1102.86
747.54	1109.18
747.87	1105.90
748.20	1090.92
748.53	1082.73
748.87	1083.43
749.20	1076.18
749.53	1075.01
749.86	1075.71
750.19	1072.90
750.52	1077.82
750.85	1078.99
751.18	1079.92
751.51	1093.03
751.84	1099.58
752.16	1097.48
752.49	1086.94
752.82	1082.97
753.15	1077.82
753.48	1087.41
753.81	1088.35
754.14	1104.26
754.47	1100.29
754.80	1092.09
755.13	1081.33
755.46	1086.24
755.79	1075.94
756.12	1076.65
756.45	1088.58
756.78	1081.09
757.11	1075.94
757.43	1069.86
757.76	1075.24
758.09	1075.48
758.42	1077.58
758.75	1072.67
759.08	1078.05
759.41	1082.26
759.74	1082.97
760.07	1089.52
760.39	1102.63
760.72	1110.12
761.05	1101.92
761.38	1093.73
761.71	1089.75
762.04	1078.05
762.36	1075.01
762.69	1081.56
763.02	1085.77
763.35	1088.35
763.68	1087.18
764.01	1083.20
764.33	1074.54
764.66	1070.80
764.99	1076.88
765.32	1077.35
765.65	1071.73
765.97	1076.41
766.30	1074.54
