SpectraSuite Data File
++++++++++++++++++++++++++++++++++++
Date: Mon Aug 26 10:25:54 PDT 2019
User: corrico
Dark Spectrum Present: No
Reference Spectrum Present: No
Number of Sampled Component Spectra: 1
Spectrometers: USB2+H06089
Integration Time (usec): 10000 (USB2+H06089)
Spectra Averaged: 2 (USB2+H06089)
Boxcar Smoothing: 2 (USB2+H06089)
Correct for Electrical Dark: No (USB2+H06089)
Strobe/Lamp Enabled: No (USB2+H06089)
Correct for Detector Non-linearity: No (USB2+H06089)
Correct for Stray Light: No (USB2+H06089)
Number of Pixels in Processed Spectrum: 2048
>>>>>Begin Processed Spectral Data<<<<<
339.70	1040.37
340.07	1040.37
340.45	1009.71
340.82	985.13
341.19	965.00
341.57	941.60
341.94	934.11
342.31	915.85
342.69	908.13
343.06	902.28
343.43	892.91
343.81	888.70
344.18	902.28
344.55	912.11
344.93	907.66
345.30	921.47
345.67	927.32
346.04	928.26
346.42	927.79
346.79	946.04
347.16	943.24
347.54	952.60
347.91	965.71
348.28	978.81
348.65	978.34
349.03	987.00
349.40	984.90
349.77	991.22
350.14	991.22
350.52	1003.86
350.89	1029.84
351.26	1045.28
351.63	1048.09
352.01	1063.54
352.38	1070.56
352.75	1061.67
353.12	1074.54
353.50	1085.07
353.87	1078.99
354.24	1077.11
354.61	1087.41
354.98	1082.50
355.36	1090.22
355.73	1100.99
356.10	1098.88
356.47	1081.56
356.84	1080.63
357.22	1074.77
357.59	1076.88
357.96	1078.05
358.33	1089.29
358.70	1085.54
359.08	1070.56
359.45	1062.60
359.82	1069.16
360.19	1060.26
360.56	1068.45
360.94	1077.11
361.31	1086.24
361.68	1072.20
362.05	1078.52
362.42	1076.41
362.79	1073.84
363.16	1066.35
363.54	1076.88
363.91	1083.43
364.28	1081.09
364.65	1082.97
365.02	1081.33
365.39	1074.07
365.76	1064.24
366.14	1057.92
366.51	1057.22
366.88	1061.43
367.25	1063.31
367.62	1065.18
367.99	1068.22
368.36	1066.35
368.73	1056.75
369.10	1059.56
369.48	1057.22
369.85	1056.99
370.22	1061.90
370.59	1058.39
370.96	1065.65
371.33	1075.01
371.70	1077.11
372.07	1074.54
372.44	1071.73
372.81	1067.28
373.18	1060.03
373.55	1056.75
373.93	1056.05
374.30	1070.56
374.67	1065.18
375.04	1064.94
375.41	1063.77
375.78	1062.37
376.15	1058.86
376.52	1065.65
376.89	1068.45
377.26	1081.09
377.63	1072.90
378.00	1074.07
378.37	1078.28
378.74	1086.48
379.11	1080.86
379.48	1084.84
379.85	1077.58
380.22	1069.16
380.59	1065.41
380.96	1060.26
381.33	1065.18
381.70	1075.71
382.07	1077.11
382.44	1078.52
382.81	1078.05
383.18	1081.56
383.55	1081.56
383.92	1086.01
384.29	1078.99
384.66	1072.20
385.03	1065.88
385.40	1068.22
385.77	1072.43
386.14	1072.67
386.51	1074.31
386.88	1073.37
387.25	1071.03
387.62	1070.56
387.99	1075.24
388.36	1085.31
388.73	1091.16
389.10	1094.67
389.46	1077.11
389.83	1081.56
390.20	1077.58
390.57	1079.22
390.94	1077.35
391.31	1086.01
391.68	1076.18
392.05	1077.82
392.42	1077.11
392.79	1069.39
393.16	1064.48
393.53	1060.03
393.89	1059.56
394.26	1061.90
394.63	1061.43
395.00	1063.31
395.37	1064.01
395.74	1058.39
396.11	1046.45
396.48	1045.75
396.84	1049.96
397.21	1060.73
397.58	1067.75
397.95	1071.03
398.32	1070.80
398.69	1068.92
399.06	1057.92
399.42	1064.01
399.79	1064.94
400.16	1065.88
400.53	1068.69
400.90	1078.28
401.27	1059.79
401.64	1065.41
402.00	1063.54
402.37	1058.16
402.74	1049.96
403.11	1064.94
403.48	1060.03
403.84	1075.48
404.21	1081.56
404.58	1095.14
404.95	1095.14
405.32	1096.54
405.68	1098.65
406.05	1102.39
406.42	1089.52
406.79	1086.01
407.16	1096.31
407.52	1088.58
407.89	1086.24
408.26	1091.63
408.63	1079.92
408.99	1079.69
409.36	1077.35
409.73	1067.75
410.10	1063.54
410.47	1076.18
410.83	1064.24
411.20	1067.75
411.57	1073.84
411.94	1076.18
412.30	1074.54
412.67	1084.37
413.04	1078.05
413.40	1076.41
413.77	1075.48
414.14	1074.54
414.51	1069.39
414.87	1074.31
415.24	1076.65
415.61	1077.35
415.97	1080.63
416.34	1085.31
416.71	1078.99
417.08	1089.99
417.44	1095.37
417.81	1085.31
418.18	1085.31
418.54	1085.77
418.91	1070.80
419.28	1066.35
419.64	1074.77
420.01	1071.26
420.38	1074.07
420.74	1075.24
421.11	1071.97
421.48	1062.84
421.84	1055.58
422.21	1057.22
422.58	1065.65
422.94	1071.26
423.31	1079.22
423.68	1080.39
424.04	1086.24
424.41	1083.20
424.77	1083.20
425.14	1083.67
425.51	1091.86
425.87	1094.43
426.24	1089.75
426.61	1097.01
426.97	1093.50
427.34	1091.39
427.70	1083.90
428.07	1089.99
428.44	1084.60
428.80	1088.12
429.17	1082.50
429.53	1080.16
429.90	1074.07
430.27	1074.31
430.63	1076.88
431.00	1080.63
431.36	1085.77
431.73	1091.63
432.09	1086.71
432.46	1085.31
432.83	1088.58
433.19	1082.97
433.56	1079.69
433.92	1081.80
434.29	1082.73
434.65	1083.90
435.02	1080.63
435.38	1075.94
435.75	1073.14
436.11	1065.41
436.48	1055.58
436.84	1060.50
437.21	1053.01
437.57	1055.82
437.94	1059.79
438.30	1068.69
438.67	1068.45
439.03	1080.86
439.40	1082.03
439.76	1084.60
440.13	1078.05
440.49	1086.48
440.86	1095.37
441.22	1091.63
441.59	1092.56
441.95	1089.52
442.32	1085.31
442.68	1084.37
443.05	1087.18
443.41	1083.43
443.78	1082.50
444.14	1073.37
444.51	1069.16
444.87	1070.56
445.24	1072.43
445.60	1081.09
445.96	1087.41
446.33	1078.99
446.69	1066.82
447.06	1062.37
447.42	1071.26
447.79	1071.97
448.15	1071.73
448.51	1074.54
448.88	1078.28
449.24	1063.31
449.61	1056.99
449.97	1056.05
450.33	1065.41
450.70	1065.88
451.06	1068.69
451.43	1069.62
451.79	1064.94
452.15	1061.20
452.52	1059.09
452.88	1056.28
453.24	1049.73
453.61	1057.92
453.97	1059.56
454.34	1061.43
454.70	1056.28
455.06	1074.07
455.43	1077.11
455.79	1065.65
456.15	1067.52
456.52	1072.20
456.88	1064.01
457.24	1059.56
457.61	1060.50
457.97	1059.09
458.33	1067.52
458.70	1065.65
459.06	1067.99
459.42	1079.46
459.79	1081.09
460.15	1074.77
460.51	1078.75
460.88	1087.41
461.24	1081.80
461.60	1073.60
461.96	1076.18
462.33	1075.94
462.69	1071.26
463.05	1075.01
463.42	1091.39
463.78	1100.75
464.14	1101.69
464.50	1106.84
464.87	1097.48
465.23	1091.86
465.59	1085.77
465.95	1081.80
466.32	1078.05
466.68	1093.97
467.04	1083.90
467.40	1084.84
467.77	1078.52
468.13	1067.28
468.49	1063.54
468.85	1066.82
469.22	1064.01
469.58	1070.56
469.94	1078.28
470.30	1075.94
470.66	1085.07
471.03	1087.41
471.39	1090.46
471.75	1101.46
472.11	1102.39
472.47	1097.48
472.84	1096.78
473.20	1082.26
473.56	1073.14
473.92	1065.88
474.28	1066.11
474.65	1064.24
475.01	1077.11
475.37	1076.88
475.73	1075.94
476.09	1077.35
476.45	1077.35
476.81	1073.60
477.18	1066.82
477.54	1076.41
477.90	1075.01
478.26	1079.22
478.62	1085.54
478.98	1091.16
479.34	1091.63
479.71	1094.90
480.07	1086.01
480.43	1084.60
480.79	1086.71
481.15	1086.24
481.51	1091.39
481.87	1093.26
482.23	1098.88
482.59	1097.71
482.96	1089.75
483.32	1079.46
483.68	1083.43
484.04	1078.75
484.40	1076.18
484.76	1085.31
485.12	1085.31
485.48	1082.73
485.84	1089.99
486.20	1090.46
486.56	1078.28
486.92	1086.71
487.28	1085.07
487.64	1074.54
488.00	1073.84
488.37	1079.92
488.73	1069.39
489.09	1075.24
489.45	1077.11
489.81	1071.50
490.17	1065.65
490.53	1063.54
490.89	1066.58
491.25	1074.07
491.61	1080.63
491.97	1082.26
492.33	1093.73
492.69	1086.71
493.05	1076.18
493.41	1077.58
493.77	1078.05
494.13	1073.84
494.49	1079.69
494.85	1082.03
495.21	1086.94
495.57	1096.07
495.93	1099.12
496.29	1093.03
496.64	1092.09
497.00	1089.29
497.36	1082.50
497.72	1072.20
498.08	1068.69
498.44	1067.75
498.80	1060.96
499.16	1071.73
499.52	1077.35
499.88	1086.71
500.24	1096.07
500.60	1097.71
500.96	1105.44
501.32	1106.37
501.68	1102.16
502.03	1085.31
502.39	1091.86
502.75	1090.46
503.11	1082.26
503.47	1083.43
503.83	1083.43
504.19	1075.01
504.55	1057.22
504.91	1059.56
505.26	1068.69
505.62	1081.09
505.98	1093.03
506.34	1094.67
506.70	1096.07
507.06	1095.84
507.42	1096.54
507.78	1092.33
508.13	1100.99
508.49	1109.18
508.85	1098.41
509.21	1097.01
509.57	1095.14
509.93	1082.03
510.28	1073.84
510.64	1069.16
511.00	1059.56
511.36	1060.03
511.72	1068.92
512.07	1071.26
512.43	1076.18
512.79	1093.73
513.15	1099.35
513.51	1090.69
513.86	1095.37
514.22	1097.71
514.58	1083.67
514.94	1078.75
515.30	1085.54
515.65	1088.82
516.01	1083.90
516.37	1094.90
516.73	1087.88
517.08	1093.73
517.44	1093.97
517.80	1097.48
518.16	1093.97
518.51	1106.61
518.87	1104.73
519.23	1090.69
519.59	1093.03
519.94	1091.63
520.30	1084.37
520.66	1080.86
521.01	1082.26
521.37	1082.73
521.73	1092.09
522.09	1101.46
522.44	1103.09
522.80	1106.61
523.16	1106.84
523.51	1095.37
523.87	1088.12
524.23	1088.82
524.58	1096.78
524.94	1092.56
525.30	1098.18
525.65	1101.46
526.01	1108.24
526.37	1103.80
526.72	1110.82
527.08	1115.27
527.44	1114.33
527.79	1113.39
528.15	1109.88
528.51	1108.71
528.86	1107.31
529.22	1105.20
529.58	1099.35
529.93	1108.48
530.29	1099.12
530.65	1089.99
531.00	1081.80
531.36	1081.33
531.71	1083.43
532.07	1091.86
532.43	1095.60
532.78	1106.61
533.14	1098.65
533.49	1091.39
533.85	1093.73
534.21	1082.73
534.56	1080.39
534.92	1089.75
535.27	1080.39
535.63	1073.14
535.98	1076.18
536.34	1073.14
536.69	1063.07
537.05	1077.35
537.41	1086.24
537.76	1085.07
538.12	1089.75
538.47	1111.99
538.83	1114.56
539.18	1107.31
539.54	1111.29
539.89	1108.24
540.25	1110.82
540.60	1101.46
540.96	1104.73
541.31	1109.88
541.67	1109.41
542.02	1089.75
542.38	1093.26
542.73	1092.33
543.09	1099.12
543.44	1111.52
543.80	1113.39
544.15	1118.78
544.51	1113.16
544.86	1109.41
545.22	1098.88
545.57	1104.50
545.93	1097.24
546.28	1104.03
546.64	1111.05
546.99	1112.69
547.35	1098.88
547.70	1097.01
548.05	1095.84
548.41	1082.73
548.76	1086.48
549.12	1103.80
549.47	1102.86
549.83	1104.03
550.18	1105.44
550.53	1091.16
550.89	1091.16
551.24	1093.26
551.60	1090.46
551.95	1094.43
552.30	1091.63
552.66	1082.26
553.01	1078.99
553.37	1083.20
553.72	1078.28
554.07	1085.77
554.43	1079.69
554.78	1083.43
555.13	1077.82
555.49	1077.82
555.84	1080.63
556.19	1097.01
556.55	1099.82
556.90	1089.99
557.26	1076.65
557.61	1074.54
557.96	1068.22
558.32	1066.35
558.67	1088.82
559.02	1104.73
559.37	1102.63
559.73	1105.44
560.08	1095.60
560.43	1081.33
560.79	1069.62
561.14	1072.67
561.49	1063.07
561.85	1062.37
562.20	1064.24
562.55	1070.09
562.90	1073.14
563.26	1081.09
563.61	1087.65
563.96	1079.92
564.32	1086.48
564.67	1074.54
565.02	1069.39
565.37	1070.09
565.73	1076.88
566.08	1068.45
566.43	1073.14
566.78	1071.03
567.14	1079.92
567.49	1087.88
567.84	1094.90
568.19	1097.95
568.54	1101.69
568.90	1092.33
569.25	1087.65
569.60	1086.24
569.95	1076.41
570.31	1069.39
570.66	1070.56
571.01	1059.09
571.36	1055.82
571.71	1065.41
572.06	1077.35
572.42	1077.35
572.77	1078.99
573.12	1086.94
573.47	1088.35
573.82	1081.33
574.18	1085.77
574.53	1086.24
574.88	1085.07
575.23	1078.75
575.58	1074.54
575.93	1067.75
576.28	1082.03
576.64	1079.92
576.99	1086.94
577.34	1101.22
577.69	1110.35
578.04	1093.97
578.39	1094.90
578.74	1094.20
579.09	1084.84
579.44	1083.43
579.80	1094.43
580.15	1090.46
580.50	1090.69
580.85	1093.03
581.20	1082.03
581.55	1078.75
581.90	1079.46
582.25	1081.56
582.60	1087.65
582.95	1089.99
583.30	1092.80
583.65	1092.33
584.00	1099.12
584.35	1087.88
584.71	1086.48
585.06	1085.77
585.41	1086.94
585.76	1078.52
586.11	1089.29
586.46	1102.16
586.81	1100.05
587.16	1103.56
587.51	1099.35
587.86	1096.78
588.21	1091.39
588.56	1086.01
588.91	1076.65
589.26	1079.46
589.61	1078.52
589.96	1065.41
590.31	1066.58
590.66	1072.90
591.01	1069.39
591.36	1072.67
591.71	1084.84
592.06	1083.20
592.41	1082.26
592.76	1085.07
593.10	1075.48
593.45	1074.31
593.80	1084.60
594.15	1075.01
594.50	1082.97
594.85	1094.90
595.20	1104.50
595.55	1096.54
595.90	1104.97
596.25	1101.92
596.60	1097.01
596.95	1088.82
597.30	1094.90
597.64	1147.10
597.99	1142.42
598.34	1143.12
598.69	1143.82
599.04	1144.29
599.39	1104.50
599.74	1103.09
600.09	1086.71
600.44	1083.20
600.78	1080.39
601.13	1067.75
601.48	1067.52
601.83	1084.84
602.18	1090.92
602.53	1089.52
602.88	1093.50
603.22	1090.22
603.57	1085.31
603.92	1082.73
604.27	1084.14
604.62	1080.16
604.97	1078.52
605.31	1068.92
605.66	1067.75
606.01	1068.45
606.36	1062.14
606.71	1061.90
607.05	1074.31
607.40	1074.07
607.75	1074.77
608.10	1084.37
608.44	1092.33
608.79	1092.80
609.14	1091.39
609.49	1089.99
609.84	1099.12
610.18	1104.03
610.53	1099.12
610.88	1106.14
611.23	1107.54
611.57	1095.37
611.92	1094.20
612.27	1094.43
612.62	1092.33
612.96	1092.80
613.31	1094.20
613.66	1084.60
614.00	1084.84
614.35	1084.84
614.70	1086.71
615.05	1086.71
615.39	1090.69
615.74	1086.94
616.09	1070.09
616.43	1061.20
616.78	1061.67
617.13	1058.39
617.47	1062.37
617.82	1074.54
618.17	1085.31
618.51	1073.84
618.86	1075.48
619.21	1071.03
619.55	1080.39
619.90	1072.67
620.25	1084.37
620.59	1094.43
620.94	1105.20
621.29	1101.92
621.63	1113.16
621.98	1102.86
622.32	1087.88
622.67	1072.43
623.02	1073.37
623.36	1059.56
623.71	1072.67
624.05	1076.88
624.40	1085.07
624.75	1078.05
625.09	1088.82
625.44	1084.84
625.78	1092.09
626.13	1095.14
626.48	1100.75
626.82	1099.35
627.17	1093.73
627.51	1083.43
627.86	1082.97
628.20	1075.48
628.55	1080.86
628.89	1090.46
629.24	1104.50
629.58	1106.61
629.93	1101.69
630.28	1089.99
630.62	1080.39
630.97	1071.26
631.31	1065.41
631.66	1074.07
632.00	1077.35
632.35	1081.56
632.69	1085.54
633.04	1092.33
633.38	1091.63
633.73	1093.97
634.07	1091.86
634.42	1086.01
634.76	1073.60
635.11	1082.03
635.45	1073.84
635.79	1088.12
636.14	1092.33
636.48	1099.12
636.83	1088.35
637.17	1088.58
637.52	1084.14
637.86	1083.20
638.21	1084.84
638.55	1088.12
638.89	1097.95
639.24	1098.41
639.58	1099.12
639.93	1095.37
640.27	1101.92
640.61	1098.18
640.96	1099.12
641.30	1101.69
641.65	1099.82
641.99	1092.56
642.33	1089.29
642.68	1081.33
643.02	1085.07
643.37	1089.99
643.71	1084.37
644.05	1089.29
644.40	1089.99
644.74	1088.58
645.08	1085.31
645.43	1087.18
645.77	1068.69
646.11	1064.94
646.46	1058.16
646.80	1062.14
647.14	1063.77
647.49	1075.01
647.83	1071.50
648.17	1071.26
648.52	1072.20
648.86	1071.26
649.20	1077.11
649.55	1085.77
649.89	1090.92
650.23	1091.16
650.57	1097.48
650.92	1091.63
651.26	1091.63
651.60	1086.94
651.95	1092.33
652.29	1080.86
652.63	1085.31
652.97	1082.73
653.32	1083.67
653.66	1078.75
654.00	1078.75
654.34	1080.39
654.69	1083.90
655.03	1086.01
655.37	1085.54
655.71	1087.41
656.05	1084.60
656.40	1078.99
656.74	1075.01
657.08	1062.14
657.42	1068.45
657.76	1075.48
658.11	1079.22
658.45	1073.84
658.79	1082.50
659.13	1084.60
659.47	1071.26
659.82	1073.84
660.16	1075.24
660.50	1077.35
660.84	1073.37
661.18	1082.26
661.52	1075.01
661.87	1080.39
662.21	1079.69
662.55	1080.39
662.89	1076.18
663.23	1080.86
663.57	1073.14
663.91	1071.97
664.25	1071.50
664.60	1079.22
664.94	1078.28
665.28	1085.07
665.62	1093.73
665.96	1091.86
666.30	1079.22
666.64	1074.31
666.98	1070.09
667.32	1063.07
667.66	1064.01
668.01	1077.58
668.35	1084.84
668.69	1093.26
669.03	1095.60
669.37	1096.31
669.71	1101.46
670.05	1097.71
670.39	1090.22
670.73	1087.88
671.07	1088.58
671.41	1075.01
671.75	1076.88
672.09	1074.07
672.43	1075.48
672.77	1071.73
673.11	1080.16
673.45	1079.46
673.79	1089.29
674.13	1082.97
674.47	1089.52
674.81	1083.20
675.15	1081.56
675.49	1083.43
675.83	1086.94
676.17	1083.67
676.51	1077.58
676.85	1082.97
677.19	1078.05
677.53	1080.39
677.87	1081.09
678.21	1088.35
678.55	1085.54
678.89	1076.41
679.23	1078.75
679.57	1084.14
679.90	1082.03
680.24	1085.54
680.58	1090.69
680.92	1093.03
681.26	1085.54
681.60	1078.99
681.94	1076.65
682.28	1082.03
682.62	1077.82
682.96	1073.60
683.29	1076.65
683.63	1080.86
683.97	1078.28
684.31	1071.03
684.65	1074.31
684.99	1075.24
685.33	1067.28
685.67	1073.14
686.00	1077.35
686.34	1077.58
686.68	1086.01
687.02	1090.69
687.36	1079.22
687.70	1082.50
688.03	1082.73
688.37	1079.92
688.71	1075.71
689.05	1071.97
689.39	1066.11
689.72	1064.94
690.06	1067.28
690.40	1061.90
690.74	1074.31
691.08	1074.07
691.41	1077.58
691.75	1074.54
692.09	1070.33
692.43	1070.33
692.76	1082.50
693.10	1070.80
693.44	1077.58
693.78	1092.80
694.11	1093.73
694.45	1082.97
694.79	1096.54
695.13	1088.58
695.46	1080.63
695.80	1076.88
696.14	1086.71
696.48	1086.94
696.81	1082.26
697.15	1080.86
697.49	1076.65
697.82	1071.26
698.16	1066.58
698.50	1070.56
698.83	1069.39
699.17	1074.31
699.51	1076.18
699.84	1070.33
700.18	1067.52
700.52	1075.24
700.85	1078.52
701.19	1075.48
701.53	1089.05
701.86	1089.52
702.20	1085.31
702.54	1088.35
702.87	1087.41
703.21	1084.60
703.55	1082.50
703.88	1087.18
704.22	1081.56
704.55	1085.77
704.89	1090.92
705.23	1098.18
705.56	1098.41
705.90	1101.22
706.23	1098.41
706.57	1094.43
706.91	1083.67
707.24	1084.84
707.58	1083.20
707.91	1087.41
708.25	1091.16
708.58	1099.35
708.92	1089.05
709.26	1085.77
709.59	1088.35
709.93	1085.31
710.26	1076.41
710.60	1092.80
710.93	1102.39
711.27	1091.16
711.60	1091.16
711.94	1098.41
712.27	1075.01
712.61	1069.86
712.94	1069.62
713.28	1066.11
713.61	1062.60
713.95	1086.24
714.28	1082.03
714.62	1083.20
714.95	1082.73
715.29	1080.86
715.62	1070.80
715.96	1069.16
716.29	1071.50
716.63	1069.39
716.96	1071.97
717.29	1071.50
717.63	1077.58
717.96	1070.80
718.30	1071.26
718.63	1077.58
718.97	1071.26
719.30	1069.86
719.63	1060.96
719.97	1055.35
720.30	1045.75
720.64	1059.09
720.97	1060.26
721.30	1074.54
721.64	1077.82
721.97	1088.58
722.31	1082.50
722.64	1077.35
722.97	1074.54
723.31	1073.60
723.64	1067.28
723.97	1065.65
724.31	1070.56
724.64	1070.80
724.98	1086.94
725.31	1089.99
725.64	1089.75
725.98	1090.92
726.31	1105.67
726.64	1096.78
726.97	1104.03
727.31	1094.43
727.64	1087.88
727.97	1077.35
728.31	1067.99
728.64	1060.96
728.97	1067.28
729.31	1064.94
729.64	1079.22
729.97	1080.86
730.30	1076.41
730.64	1078.28
730.97	1077.82
731.30	1059.33
731.63	1066.11
731.97	1083.43
732.30	1089.75
732.63	1096.78
732.96	1102.63
733.30	1108.01
733.63	1086.94
733.96	1082.97
734.29	1081.80
734.63	1082.03
734.96	1069.86
735.29	1067.99
735.62	1073.84
735.95	1072.90
736.29	1070.80
736.62	1075.24
736.95	1093.97
737.28	1093.26
737.61	1091.86
737.94	1087.88
738.28	1082.26
738.61	1076.88
738.94	1070.80
739.27	1064.24
739.60	1067.99
739.93	1070.09
740.27	1076.41
740.60	1077.11
740.93	1090.46
741.26	1096.07
741.59	1100.29
741.92	1084.60
742.25	1094.20
742.58	1093.03
742.91	1080.39
743.25	1081.56
743.58	1084.84
743.91	1070.56
744.24	1062.37
744.57	1070.09
744.90	1068.45
745.23	1063.54
745.56	1065.65
745.89	1071.50
746.22	1075.71
746.55	1072.20
746.88	1083.67
747.21	1082.03
747.54	1076.41
747.87	1075.48
748.20	1076.65
748.53	1065.18
748.87	1062.60
749.20	1056.75
749.53	1044.35
749.86	1042.94
750.19	1046.69
750.52	1057.45
750.85	1073.60
751.18	1079.22
751.51	1081.33
751.84	1084.60
752.16	1088.12
752.49	1086.24
752.82	1091.63
753.15	1093.50
753.48	1092.09
753.81	1087.88
754.14	1082.26
754.47	1077.11
754.80	1072.90
755.13	1079.22
755.46	1076.88
755.79	1082.26
756.12	1085.77
756.45	1090.46
756.78	1087.65
757.11	1093.03
757.43	1088.35
757.76	1092.80
758.09	1094.90
758.42	1096.54
758.75	1089.52
759.08	1081.80
759.41	1076.18
759.74	1075.71
760.07	1068.92
760.39	1067.05
760.72	1081.09
761.05	1083.20
761.38	1088.12
761.71	1095.84
762.04	1095.84
762.36	1084.37
762.69	1083.43
763.02	1083.20
763.35	1083.90
763.68	1092.09
764.01	1105.90
764.33	1101.22
764.66	1090.46
764.99	1085.77
765.32	1091.86
765.65	1086.24
765.97	1082.26
766.30	1092.80
