SpectraSuite Data File
++++++++++++++++++++++++++++++++++++
Date: Mon Aug 26 10:25:50 PDT 2019
User: corrico
Dark Spectrum Present: No
Reference Spectrum Present: No
Number of Sampled Component Spectra: 1
Spectrometers: USB2+H06089
Integration Time (usec): 10000 (USB2+H06089)
Spectra Averaged: 2 (USB2+H06089)
Boxcar Smoothing: 2 (USB2+H06089)
Correct for Electrical Dark: No (USB2+H06089)
Strobe/Lamp Enabled: No (USB2+H06089)
Correct for Detector Non-linearity: No (USB2+H06089)
Correct for Stray Light: No (USB2+H06089)
Number of Pixels in Processed Spectrum: 2048
>>>>>Begin Processed Spectral Data<<<<<
339.70	993.56
340.07	993.56
340.45	971.79
340.82	953.77
341.19	939.26
341.57	928.49
341.94	911.87
342.31	909.77
342.69	906.02
343.06	902.51
343.43	902.98
343.81	904.15
344.18	913.04
344.55	916.09
344.93	918.43
345.30	913.51
345.67	926.38
346.04	929.89
346.42	942.30
346.79	952.83
347.16	957.51
347.54	954.24
347.91	964.77
348.28	968.51
348.65	975.77
349.03	989.34
349.40	1017.43
349.77	1023.52
350.14	1041.54
350.52	1052.77
350.89	1064.71
351.26	1059.56
351.63	1056.05
352.01	1053.94
352.38	1050.67
352.75	1049.73
353.12	1054.41
353.50	1061.90
353.87	1058.16
354.24	1060.73
354.61	1066.35
354.98	1059.33
355.36	1064.24
355.73	1072.43
356.10	1081.80
356.47	1082.50
356.84	1092.09
357.22	1082.03
357.59	1070.09
357.96	1066.58
358.33	1059.56
358.70	1058.16
359.08	1067.05
359.45	1077.58
359.82	1082.73
360.19	1086.24
360.56	1083.67
360.94	1083.90
361.31	1083.43
361.68	1080.39
362.05	1081.33
362.42	1082.03
362.79	1075.01
363.16	1080.39
363.54	1087.18
363.91	1083.67
364.28	1089.75
364.65	1094.67
365.02	1088.58
365.39	1083.43
365.76	1083.67
366.14	1083.20
366.51	1084.37
366.88	1080.86
367.25	1069.62
367.62	1074.77
367.99	1067.99
368.36	1066.82
368.73	1067.75
369.10	1070.33
369.48	1065.88
369.85	1061.67
370.22	1056.05
370.59	1061.20
370.96	1071.73
371.33	1067.05
371.70	1076.18
372.07	1080.16
372.44	1080.16
372.81	1062.37
373.18	1067.75
373.55	1069.39
373.93	1074.07
374.30	1067.52
374.67	1079.69
375.04	1079.46
375.41	1070.09
375.78	1064.48
376.15	1070.80
376.52	1070.33
376.89	1073.84
377.26	1074.07
377.63	1082.03
378.00	1077.11
378.37	1067.99
378.74	1071.97
379.11	1075.24
379.48	1077.35
379.85	1079.69
380.22	1083.20
380.59	1069.62
380.96	1072.67
381.33	1059.09
381.70	1057.92
382.07	1059.79
382.44	1062.14
382.81	1057.69
383.18	1063.54
383.55	1067.99
383.92	1070.33
384.29	1062.84
384.66	1063.31
385.03	1064.94
385.40	1062.60
385.77	1058.86
386.14	1070.56
386.51	1080.63
386.88	1080.16
387.25	1075.01
387.62	1077.58
387.99	1091.16
388.36	1083.43
388.73	1081.09
389.10	1092.09
389.46	1090.22
389.83	1072.90
390.20	1068.92
390.57	1074.54
390.94	1076.88
391.31	1081.80
391.68	1085.07
392.05	1087.65
392.42	1085.31
392.79	1075.24
393.16	1076.18
393.53	1077.35
393.89	1071.26
394.26	1071.73
394.63	1079.22
395.00	1081.56
395.37	1077.35
395.74	1080.86
396.11	1083.67
396.48	1078.75
396.84	1067.99
397.21	1075.48
397.58	1080.63
397.95	1078.75
398.32	1083.20
398.69	1095.37
399.06	1095.14
399.42	1097.95
399.79	1091.16
400.16	1077.11
400.53	1069.39
400.90	1061.67
401.27	1055.58
401.64	1056.52
402.00	1066.35
402.37	1071.50
402.74	1070.80
403.11	1073.14
403.48	1079.22
403.84	1080.63
404.21	1077.58
404.58	1081.56
404.95	1077.35
405.32	1070.80
405.68	1076.18
406.05	1068.69
406.42	1065.41
406.79	1064.71
407.16	1067.99
407.52	1073.37
407.89	1078.05
408.26	1092.56
408.63	1095.37
408.99	1098.18
409.36	1077.11
409.73	1073.14
410.10	1060.03
410.47	1063.31
410.83	1064.94
411.20	1075.94
411.57	1082.73
411.94	1084.84
412.30	1081.80
412.67	1078.75
413.04	1080.63
413.40	1073.84
413.77	1087.18
414.14	1096.78
414.51	1095.37
414.87	1096.54
415.24	1108.48
415.61	1086.48
415.97	1085.77
416.34	1090.92
416.71	1084.60
417.08	1078.75
417.44	1091.86
417.81	1088.82
418.18	1079.22
418.54	1077.35
418.91	1072.43
419.28	1071.26
419.64	1060.73
420.01	1061.67
420.38	1070.09
420.74	1068.69
421.11	1056.75
421.48	1055.11
421.84	1059.79
422.21	1058.62
422.58	1059.33
422.94	1067.28
423.31	1072.67
423.68	1073.14
424.04	1071.97
424.41	1073.37
424.77	1065.41
425.14	1066.11
425.51	1066.58
425.87	1056.75
426.24	1062.14
426.61	1071.03
426.97	1075.71
427.34	1073.84
427.70	1085.07
428.07	1086.94
428.44	1083.67
428.80	1082.50
429.17	1091.63
429.53	1081.80
429.90	1072.20
430.27	1072.43
430.63	1064.71
431.00	1056.99
431.36	1055.82
431.73	1058.39
432.09	1059.09
432.46	1064.71
432.83	1068.69
433.19	1073.14
433.56	1062.60
433.92	1065.88
434.29	1059.56
434.65	1049.26
435.02	1058.39
435.38	1065.41
435.75	1073.14
436.11	1077.35
436.48	1091.86
436.84	1082.50
437.21	1092.33
437.57	1093.97
437.94	1100.29
438.30	1084.60
438.67	1086.94
439.03	1081.33
439.40	1069.16
439.76	1066.11
440.13	1072.43
440.49	1076.18
440.86	1080.63
441.22	1088.58
441.59	1085.07
441.95	1082.97
442.32	1079.69
442.68	1080.86
443.05	1079.46
443.41	1076.65
443.78	1083.43
444.14	1092.33
444.51	1082.03
444.87	1081.80
445.24	1086.24
445.60	1086.71
445.96	1075.94
446.33	1082.26
446.69	1082.03
447.06	1074.54
447.42	1070.09
447.79	1071.03
448.15	1068.22
448.51	1060.96
448.88	1071.03
449.24	1064.94
449.61	1072.67
449.97	1074.77
450.33	1077.11
450.70	1071.50
451.06	1075.48
451.43	1070.80
451.79	1070.33
452.15	1068.45
452.52	1076.65
452.88	1079.69
453.24	1089.29
453.61	1095.84
453.97	1089.52
454.34	1084.84
454.70	1088.12
455.06	1071.50
455.43	1063.31
455.79	1069.86
456.15	1069.86
456.52	1062.14
456.88	1064.24
457.24	1062.60
457.61	1073.14
457.97	1073.84
458.33	1069.16
458.70	1066.35
459.06	1074.77
459.42	1059.79
459.79	1060.73
460.15	1067.05
460.51	1074.54
460.88	1078.05
461.24	1082.50
461.60	1083.90
461.96	1087.88
462.33	1075.71
462.69	1063.77
463.05	1061.67
463.42	1052.54
463.78	1056.75
464.14	1072.20
464.50	1081.80
464.87	1083.20
465.23	1094.67
465.59	1088.58
465.95	1074.54
466.32	1075.94
466.68	1080.16
467.04	1079.22
467.40	1079.46
467.77	1086.94
468.13	1082.50
468.49	1079.92
468.85	1067.52
469.22	1067.28
469.58	1068.92
469.94	1073.60
470.30	1072.20
470.66	1083.20
471.03	1087.41
471.39	1083.90
471.75	1081.09
472.11	1089.05
472.47	1097.24
472.84	1095.84
473.20	1095.84
473.56	1095.14
473.92	1091.16
474.28	1084.84
474.65	1078.75
475.01	1084.37
475.37	1075.48
475.73	1076.41
476.09	1076.18
476.45	1074.77
476.81	1072.90
477.18	1075.24
477.54	1073.84
477.90	1062.84
478.26	1059.33
478.62	1063.54
478.98	1066.11
479.34	1068.69
479.71	1065.65
480.07	1076.18
480.43	1071.26
480.79	1074.77
481.15	1063.77
481.51	1076.18
481.87	1070.80
482.23	1070.09
482.59	1063.77
482.96	1068.92
483.32	1071.50
483.68	1080.86
484.04	1077.35
484.40	1086.94
484.76	1093.97
485.12	1087.88
485.48	1069.16
485.84	1072.90
486.20	1069.16
486.56	1074.54
486.92	1077.35
487.28	1083.20
487.64	1089.52
488.00	1092.09
488.37	1080.86
488.73	1073.60
489.09	1075.48
489.45	1071.03
489.81	1066.82
490.17	1065.88
490.53	1072.90
490.89	1078.99
491.25	1084.84
491.61	1083.43
491.97	1082.03
492.33	1085.31
492.69	1084.60
493.05	1085.54
493.41	1089.52
493.77	1099.82
494.13	1095.37
494.49	1084.84
494.85	1078.52
495.21	1077.35
495.57	1071.03
495.93	1068.92
496.29	1085.54
496.64	1080.63
497.00	1081.33
497.36	1086.01
497.72	1089.99
498.08	1079.22
498.44	1087.65
498.80	1087.18
499.16	1085.77
499.52	1082.73
499.88	1087.65
500.24	1075.24
500.60	1075.71
500.96	1086.24
501.32	1085.77
501.68	1086.24
502.03	1093.97
502.39	1089.29
502.75	1075.94
503.11	1078.99
503.47	1075.94
503.83	1076.41
504.19	1078.75
504.55	1082.03
504.91	1077.82
505.26	1084.37
505.62	1085.31
505.98	1085.54
506.34	1086.24
506.70	1081.80
507.06	1077.35
507.42	1078.28
507.78	1084.84
508.13	1081.33
508.49	1083.43
508.85	1078.99
509.21	1073.60
509.57	1068.45
509.93	1067.28
510.28	1069.39
510.64	1070.56
511.00	1068.69
511.36	1064.94
511.72	1061.67
512.07	1064.94
512.43	1073.84
512.79	1083.20
513.15	1088.58
513.51	1091.63
513.86	1093.03
514.22	1090.92
514.58	1083.20
514.94	1077.11
515.30	1084.14
515.65	1085.31
516.01	1071.50
516.37	1073.37
516.73	1072.43
517.08	1068.22
517.44	1063.77
517.80	1080.16
518.16	1087.18
518.51	1092.56
518.87	1091.16
519.23	1086.48
519.59	1081.33
519.94	1072.43
520.30	1077.58
520.66	1072.67
521.01	1076.18
521.37	1075.48
521.73	1081.09
522.09	1075.94
522.44	1088.82
522.80	1092.09
523.16	1106.37
523.51	1101.92
523.87	1115.50
524.23	1107.54
524.58	1109.18
524.94	1096.78
525.30	1101.22
525.65	1082.97
526.01	1086.48
526.37	1089.75
526.72	1085.31
527.08	1083.67
527.44	1087.65
527.79	1091.86
528.15	1097.71
528.51	1102.39
528.86	1102.86
529.22	1107.31
529.58	1108.24
529.93	1093.26
530.29	1086.94
530.65	1082.73
531.00	1076.65
531.36	1073.60
531.71	1081.33
532.07	1082.50
532.43	1082.97
532.78	1087.41
533.14	1084.60
533.49	1082.73
533.85	1092.33
534.21	1095.14
534.56	1093.50
534.92	1100.05
535.27	1102.86
535.63	1094.67
535.98	1093.97
536.34	1103.33
536.69	1089.05
537.05	1089.29
537.41	1094.90
537.76	1100.75
538.12	1097.24
538.47	1101.46
538.83	1088.82
539.18	1087.65
539.54	1083.67
539.89	1082.26
540.25	1081.09
540.60	1085.54
540.96	1082.26
541.31	1085.54
541.67	1080.63
542.02	1087.88
542.38	1101.22
542.73	1103.56
543.09	1099.58
543.44	1102.16
543.80	1104.97
544.15	1090.22
544.51	1089.29
544.86	1090.22
545.22	1087.88
545.57	1076.65
545.93	1085.77
546.28	1080.86
546.64	1086.48
546.99	1087.41
547.35	1086.01
547.70	1075.94
548.05	1080.86
548.41	1068.45
548.76	1071.50
549.12	1078.05
549.47	1082.50
549.83	1077.35
550.18	1078.05
550.53	1065.65
550.89	1061.67
551.24	1065.65
551.60	1074.07
551.95	1077.11
552.30	1086.94
552.66	1088.35
553.01	1089.05
553.37	1081.33
553.72	1083.20
554.07	1080.16
554.43	1087.65
554.78	1087.18
555.13	1090.46
555.49	1098.88
555.84	1097.71
556.19	1091.16
556.55	1082.73
556.90	1080.63
557.26	1080.86
557.61	1084.60
557.96	1085.54
558.32	1096.54
558.67	1093.97
559.02	1086.01
559.37	1088.12
559.73	1084.14
560.08	1076.65
560.43	1075.48
560.79	1074.31
561.14	1081.09
561.49	1088.35
561.85	1093.26
562.20	1102.16
562.55	1103.33
562.90	1089.99
563.26	1086.94
563.61	1085.77
563.96	1076.88
564.32	1072.67
564.67	1074.77
565.02	1074.77
565.37	1079.22
565.73	1084.60
566.08	1083.90
566.43	1095.14
566.78	1098.41
567.14	1091.16
567.49	1090.69
567.84	1088.58
568.19	1082.73
568.54	1073.84
568.90	1078.52
569.25	1071.03
569.60	1080.63
569.95	1072.20
570.31	1073.37
570.66	1069.62
571.01	1076.88
571.36	1071.26
571.71	1069.39
572.06	1075.01
572.42	1075.71
572.77	1077.35
573.12	1072.20
573.47	1078.75
573.82	1077.82
574.18	1081.09
574.53	1080.39
574.88	1095.60
575.23	1089.52
575.58	1087.88
575.93	1092.33
576.28	1098.88
576.64	1082.26
576.99	1083.67
577.34	1082.50
577.69	1070.56
578.04	1064.01
578.39	1073.14
578.74	1074.07
579.09	1080.63
579.44	1083.67
579.80	1081.56
580.15	1078.52
580.50	1083.90
580.85	1084.14
581.20	1083.43
581.55	1090.69
581.90	1092.56
582.25	1096.07
582.60	1084.14
582.95	1089.29
583.30	1081.80
583.65	1091.16
584.00	1083.43
584.35	1092.33
584.71	1087.41
585.06	1099.82
585.41	1091.86
585.76	1097.95
586.11	1090.46
586.46	1083.20
586.81	1075.24
587.16	1075.71
587.51	1070.33
587.86	1078.05
588.21	1088.58
588.56	1086.01
588.91	1088.35
589.26	1086.48
589.61	1088.35
589.96	1083.20
590.31	1080.39
590.66	1071.26
591.01	1080.63
591.36	1087.41
591.71	1086.01
592.06	1091.39
592.41	1097.01
592.76	1085.77
593.10	1074.77
593.45	1081.09
593.80	1077.58
594.15	1084.84
594.50	1087.65
594.85	1089.52
595.20	1085.77
595.55	1098.88
595.90	1097.71
596.25	1096.07
596.60	1086.01
596.95	1085.31
597.30	1064.94
597.64	1111.99
597.99	1112.22
598.34	1116.90
598.69	1122.99
599.04	1125.80
599.39	1076.18
599.74	1082.50
600.09	1085.31
600.44	1085.77
600.78	1092.33
601.13	1077.58
601.48	1075.48
601.83	1072.43
602.18	1063.77
602.53	1055.35
602.88	1065.65
603.22	1069.86
603.57	1067.05
603.92	1072.20
604.27	1078.52
604.62	1087.41
604.97	1091.86
605.31	1097.71
605.66	1096.31
606.01	1099.82
606.36	1089.05
606.71	1081.80
607.05	1086.24
607.40	1082.50
607.75	1075.24
608.10	1080.39
608.44	1082.50
608.79	1072.43
609.14	1072.43
609.49	1080.86
609.84	1081.80
610.18	1093.73
610.53	1107.07
610.88	1123.69
611.23	1120.88
611.57	1123.93
611.92	1115.50
612.27	1106.14
612.62	1097.71
612.96	1096.07
613.31	1085.77
613.66	1079.92
614.00	1084.60
614.35	1090.69
614.70	1088.12
615.05	1091.39
615.39	1086.71
615.74	1085.31
616.09	1074.07
616.43	1075.48
616.78	1081.80
617.13	1082.97
617.47	1078.52
617.82	1086.48
618.17	1086.71
618.51	1088.82
618.86	1087.18
619.21	1099.35
619.55	1092.09
619.90	1089.29
620.25	1081.33
620.59	1076.65
620.94	1060.26
621.29	1055.58
621.63	1058.86
621.98	1064.71
622.32	1075.48
622.67	1080.63
623.02	1095.14
623.36	1099.12
623.71	1096.54
624.05	1089.52
624.40	1094.67
624.75	1091.63
625.09	1084.14
625.44	1084.14
625.78	1083.90
626.13	1080.16
626.48	1080.16
626.82	1085.07
627.17	1080.16
627.51	1087.18
627.86	1086.48
628.20	1088.35
628.55	1086.01
628.89	1089.52
629.24	1088.12
629.58	1085.31
629.93	1079.69
630.28	1084.37
630.62	1081.33
630.97	1088.12
631.31	1100.52
631.66	1106.84
632.00	1108.71
632.35	1110.58
632.69	1096.31
633.04	1086.24
633.38	1078.05
633.73	1076.88
634.07	1073.14
634.42	1083.43
634.76	1078.99
635.11	1077.35
635.45	1076.41
635.79	1086.71
636.14	1084.14
636.48	1086.01
636.83	1086.24
637.17	1083.43
637.52	1077.11
637.86	1075.71
638.21	1089.29
638.55	1095.60
638.89	1097.71
639.24	1097.71
639.58	1096.07
639.93	1078.99
640.27	1062.84
640.61	1060.03
640.96	1051.60
641.30	1051.84
641.65	1065.18
641.99	1068.92
642.33	1075.94
642.68	1081.56
643.02	1078.05
643.37	1073.14
643.71	1079.22
644.05	1080.63
644.40	1084.84
644.74	1084.14
645.08	1075.94
645.43	1076.18
645.77	1068.45
646.11	1066.58
646.46	1075.94
646.80	1081.09
647.14	1081.80
647.49	1082.03
647.83	1085.54
648.17	1077.82
648.52	1082.73
648.86	1077.35
649.20	1076.65
649.55	1073.84
649.89	1081.80
650.23	1080.86
650.57	1088.58
650.92	1088.82
651.26	1081.33
651.60	1083.67
651.95	1085.77
652.29	1090.69
652.63	1083.43
652.97	1086.94
653.32	1079.69
653.66	1073.37
654.00	1065.65
654.34	1076.65
654.69	1081.56
655.03	1087.65
655.37	1091.16
655.71	1093.73
656.05	1088.82
656.40	1082.50
656.74	1072.90
657.08	1075.24
657.42	1079.92
657.76	1084.60
658.11	1090.92
658.45	1102.16
658.79	1097.24
659.13	1100.05
659.47	1110.12
659.82	1111.05
660.16	1099.35
660.50	1104.50
660.84	1096.54
661.18	1084.37
661.52	1083.90
661.87	1088.12
662.21	1087.88
662.55	1084.84
662.89	1089.05
663.23	1086.48
663.57	1093.73
663.91	1090.92
664.25	1100.29
664.60	1093.73
664.94	1086.01
665.28	1094.20
665.62	1099.35
665.96	1085.07
666.30	1083.67
666.64	1083.90
666.98	1077.11
667.32	1077.82
667.66	1081.33
668.01	1082.26
668.35	1099.12
668.69	1089.05
669.03	1085.07
669.37	1078.75
669.71	1073.84
670.05	1069.16
670.39	1082.26
670.73	1085.07
671.07	1093.97
671.41	1093.26
671.75	1088.58
672.09	1082.50
672.43	1077.11
672.77	1079.92
673.11	1092.56
673.45	1086.71
673.79	1077.11
674.13	1077.82
674.47	1075.48
674.81	1067.99
675.15	1075.01
675.49	1080.63
675.83	1085.77
676.17	1092.80
676.51	1095.14
676.85	1088.35
677.19	1092.09
677.53	1082.73
677.87	1075.24
678.21	1080.39
678.55	1089.99
678.89	1084.84
679.23	1082.50
679.57	1084.37
679.90	1081.09
680.24	1084.14
680.58	1086.94
680.92	1089.52
681.26	1088.82
681.60	1080.63
681.94	1064.48
682.28	1065.65
682.62	1072.43
682.96	1068.45
683.29	1068.22
683.63	1069.86
683.97	1064.01
684.31	1057.45
684.65	1060.03
684.99	1075.48
685.33	1082.97
685.67	1087.41
686.00	1089.75
686.34	1084.60
686.68	1079.92
687.02	1072.43
687.36	1069.39
687.70	1078.75
688.03	1087.41
688.37	1084.60
688.71	1097.01
689.05	1100.05
689.39	1094.43
689.72	1092.09
690.06	1090.92
690.40	1083.20
690.74	1080.16
691.08	1082.73
691.41	1077.11
691.75	1068.45
692.09	1072.67
692.43	1077.58
692.76	1074.07
693.10	1083.67
693.44	1087.88
693.78	1081.33
694.11	1082.26
694.45	1084.37
694.79	1075.24
695.13	1075.48
695.46	1078.28
695.80	1080.63
696.14	1074.54
696.48	1076.88
696.81	1084.37
697.15	1085.54
697.49	1072.90
697.82	1076.65
698.16	1075.01
698.50	1066.82
698.83	1068.22
699.17	1064.01
699.51	1063.77
699.84	1057.92
700.18	1064.48
700.52	1061.67
700.85	1072.67
701.19	1082.26
701.53	1088.35
701.86	1089.75
702.20	1084.14
702.54	1087.18
702.87	1077.11
703.21	1075.71
703.55	1074.54
703.88	1079.69
704.22	1080.63
704.55	1075.71
704.89	1083.43
705.23	1081.09
705.56	1091.39
705.90	1080.86
706.23	1077.11
706.57	1078.99
706.91	1077.11
707.24	1069.16
707.58	1074.07
707.91	1084.37
708.25	1079.22
708.58	1083.20
708.92	1084.14
709.26	1084.37
709.59	1083.20
709.93	1088.35
710.26	1083.90
710.60	1080.16
710.93	1088.12
711.27	1082.73
711.60	1071.97
711.94	1073.14
712.27	1077.58
712.61	1071.97
712.94	1072.90
713.28	1080.16
713.61	1082.50
713.95	1079.92
714.28	1075.94
714.62	1076.18
714.95	1070.33
715.29	1062.60
715.62	1056.52
715.96	1056.52
716.29	1053.94
716.63	1057.22
716.96	1063.77
717.29	1068.22
717.63	1077.11
717.96	1080.16
718.30	1081.56
718.63	1076.88
718.97	1075.71
719.30	1070.33
719.63	1077.11
719.97	1074.77
720.30	1087.65
720.64	1097.95
720.97	1095.60
721.30	1091.86
721.64	1097.24
721.97	1092.33
722.31	1086.94
722.64	1085.31
722.97	1087.65
723.31	1080.39
723.64	1079.92
723.97	1083.20
724.31	1085.31
724.64	1084.60
724.98	1081.56
725.31	1085.07
725.64	1075.48
725.98	1076.65
726.31	1069.62
726.64	1076.41
726.97	1064.48
727.31	1073.37
727.64	1070.56
727.97	1070.09
728.31	1076.18
728.64	1084.84
728.97	1080.39
729.31	1083.90
729.64	1096.78
729.97	1093.03
730.30	1089.99
730.64	1088.82
730.97	1090.69
731.30	1086.71
731.63	1081.56
731.97	1079.22
732.30	1077.11
732.63	1073.84
732.96	1068.22
733.30	1069.86
733.63	1070.56
733.96	1065.88
734.29	1074.54
734.63	1079.92
734.96	1077.58
735.29	1079.46
735.62	1090.69
735.95	1090.92
736.29	1089.05
736.62	1087.18
736.95	1091.86
737.28	1084.84
737.61	1079.46
737.94	1083.43
738.28	1095.60
738.61	1090.92
738.94	1079.46
739.27	1083.90
739.60	1075.01
739.93	1064.94
740.27	1060.73
740.60	1077.11
740.93	1062.60
741.26	1058.16
741.59	1063.77
741.92	1071.26
742.25	1073.37
742.58	1084.84
742.91	1095.84
743.25	1093.73
743.58	1089.29
743.91	1085.54
744.24	1089.75
744.57	1087.41
744.90	1076.41
745.23	1076.41
745.56	1080.16
745.89	1071.26
746.22	1062.60
746.55	1070.09
746.88	1069.62
747.21	1064.01
747.54	1066.58
747.87	1075.24
748.20	1078.28
748.53	1085.31
748.87	1091.16
749.20	1086.24
749.53	1085.31
749.86	1086.01
750.19	1083.90
750.52	1080.16
750.85	1081.80
751.18	1078.52
751.51	1074.31
751.84	1076.41
752.16	1070.33
752.49	1073.14
752.82	1077.58
753.15	1079.22
753.48	1074.07
753.81	1090.46
754.14	1093.97
754.47	1086.48
754.80	1086.24
755.13	1082.50
755.46	1071.26
755.79	1061.67
756.12	1078.99
756.45	1081.80
756.78	1085.07
757.11	1083.90
757.43	1091.16
757.76	1083.43
758.09	1093.50
758.42	1108.71
758.75	1105.90
759.08	1103.33
759.41	1100.75
759.74	1094.43
760.07	1089.05
760.39	1098.18
760.72	1110.12
761.05	1113.39
761.38	1115.03
761.71	1099.58
762.04	1095.37
762.36	1082.03
762.69	1078.28
763.02	1071.26
763.35	1077.11
763.68	1077.35
764.01	1082.03
764.33	1076.88
764.66	1077.11
764.99	1069.16
765.32	1077.11
765.65	1067.75
765.97	1076.41
766.30	1080.16
