SpectraSuite Data File
++++++++++++++++++++++++++++++++++++
Date: Mon Aug 26 10:25:49 PDT 2019
User: corrico
Dark Spectrum Present: No
Reference Spectrum Present: No
Number of Sampled Component Spectra: 1
Spectrometers: USB2+H06089
Integration Time (usec): 10000 (USB2+H06089)
Spectra Averaged: 2 (USB2+H06089)
Boxcar Smoothing: 2 (USB2+H06089)
Correct for Electrical Dark: No (USB2+H06089)
Strobe/Lamp Enabled: No (USB2+H06089)
Correct for Detector Non-linearity: No (USB2+H06089)
Correct for Stray Light: No (USB2+H06089)
Number of Pixels in Processed Spectrum: 2048
>>>>>Begin Processed Spectral Data<<<<<
339.70	1009.94
340.07	1009.94
340.45	990.75
340.82	976.47
341.19	959.85
341.57	938.32
341.94	923.34
342.31	910.23
342.69	906.49
343.06	901.34
343.43	900.17
343.81	894.79
344.18	892.91
344.55	893.38
344.93	901.57
345.30	899.47
345.67	911.40
346.04	917.26
346.42	932.94
346.79	943.00
347.16	961.49
347.54	968.75
347.91	987.00
348.28	996.13
348.65	997.30
349.03	1008.30
349.40	1022.81
349.77	1030.54
350.14	1029.13
350.52	1039.90
350.89	1048.33
351.26	1062.84
351.63	1067.52
352.01	1073.37
352.38	1083.90
352.75	1078.05
353.12	1061.43
353.50	1062.37
353.87	1068.69
354.24	1058.39
354.61	1070.56
354.98	1079.92
355.36	1078.99
355.73	1073.37
356.10	1080.16
356.47	1078.52
356.84	1077.35
357.22	1076.88
357.59	1072.90
357.96	1074.07
358.33	1070.80
358.70	1068.92
359.08	1074.54
359.45	1079.92
359.82	1071.73
360.19	1066.35
360.56	1071.73
360.94	1073.14
361.31	1071.03
361.68	1076.18
362.05	1076.18
362.42	1069.16
362.79	1069.16
363.16	1062.84
363.54	1055.82
363.91	1056.99
364.28	1056.28
364.65	1051.13
365.02	1051.13
365.39	1051.37
365.76	1050.67
366.14	1060.03
366.51	1054.18
366.88	1059.79
367.25	1065.41
367.62	1062.60
367.99	1060.96
368.36	1062.60
368.73	1066.11
369.10	1066.35
369.48	1062.84
369.85	1069.39
370.22	1080.16
370.59	1078.28
370.96	1077.82
371.33	1092.33
371.70	1081.56
372.07	1077.35
372.44	1078.99
372.81	1067.52
373.18	1066.35
373.55	1063.77
373.93	1068.92
374.30	1070.80
374.67	1076.41
375.04	1075.01
375.41	1077.11
375.78	1064.94
376.15	1046.22
376.52	1045.28
376.89	1038.26
377.26	1036.86
377.63	1038.96
378.00	1052.54
378.37	1059.09
378.74	1063.31
379.11	1063.77
379.48	1072.90
379.85	1069.62
380.22	1064.01
380.59	1071.50
380.96	1072.20
381.33	1062.84
381.70	1070.33
382.07	1072.43
382.44	1064.01
382.81	1063.77
383.18	1052.54
383.55	1043.88
383.92	1047.39
384.29	1043.88
384.66	1039.20
385.03	1052.07
385.40	1053.01
385.77	1053.48
386.14	1061.67
386.51	1067.52
386.88	1068.69
387.25	1070.80
387.62	1068.22
387.99	1064.48
388.36	1068.22
388.73	1066.11
389.10	1068.22
389.46	1067.52
389.83	1072.20
390.20	1065.41
390.57	1067.52
390.94	1074.07
391.31	1073.84
391.68	1069.39
392.05	1078.28
392.42	1070.09
392.79	1067.52
393.16	1066.58
393.53	1065.41
393.89	1061.20
394.26	1070.33
394.63	1058.39
395.00	1065.41
395.37	1062.84
395.74	1057.92
396.11	1061.67
396.48	1065.88
396.84	1062.84
397.21	1070.33
397.58	1070.80
397.95	1070.09
398.32	1083.43
398.69	1083.20
399.06	1080.16
399.42	1085.31
399.79	1073.84
400.16	1070.09
400.53	1061.90
400.90	1063.31
401.27	1063.77
401.64	1076.18
402.00	1063.31
402.37	1071.26
402.74	1071.50
403.11	1073.60
403.48	1072.20
403.84	1079.92
404.21	1080.16
404.58	1085.77
404.95	1085.07
405.32	1086.48
405.68	1081.56
406.05	1086.94
406.42	1091.86
406.79	1082.03
407.16	1078.99
407.52	1081.33
407.89	1078.28
408.26	1060.96
408.63	1072.20
408.99	1069.39
409.36	1072.20
409.73	1076.18
410.10	1085.07
410.47	1080.63
410.83	1085.54
411.20	1092.33
411.57	1083.20
411.94	1082.03
412.30	1078.28
412.67	1075.71
413.04	1069.86
413.40	1071.03
413.77	1071.97
414.14	1086.71
414.51	1080.39
414.87	1084.14
415.24	1093.50
415.61	1097.95
415.97	1100.52
416.34	1097.95
416.71	1093.97
417.08	1081.33
417.44	1070.56
417.81	1062.37
418.18	1061.67
418.54	1059.09
418.91	1063.31
419.28	1062.37
419.64	1062.14
420.01	1084.60
420.38	1080.86
420.74	1078.05
421.11	1082.73
421.48	1076.88
421.84	1064.71
422.21	1069.62
422.58	1074.31
422.94	1072.67
423.31	1078.99
423.68	1072.20
424.04	1070.33
424.41	1079.46
424.77	1087.65
425.14	1082.26
425.51	1086.24
425.87	1087.88
426.24	1078.99
426.61	1067.28
426.97	1066.82
427.34	1066.58
427.70	1068.92
428.07	1064.94
428.44	1073.14
428.80	1079.46
429.17	1074.77
429.53	1076.41
429.90	1084.37
430.27	1078.05
430.63	1072.67
431.00	1075.71
431.36	1071.50
431.73	1065.65
432.09	1067.52
432.46	1070.56
432.83	1071.03
433.19	1082.97
433.56	1076.41
433.92	1074.07
434.29	1077.11
434.65	1084.84
435.02	1078.99
435.38	1095.14
435.75	1097.01
436.11	1087.41
436.48	1079.69
436.84	1078.52
437.21	1073.14
437.57	1072.67
437.94	1075.71
438.30	1080.39
438.67	1078.52
439.03	1076.18
439.40	1068.69
439.76	1068.22
440.13	1057.22
440.49	1053.71
440.86	1047.39
441.22	1054.88
441.59	1058.62
441.95	1070.80
442.32	1075.24
442.68	1095.60
443.05	1099.35
443.41	1100.05
443.78	1094.67
444.14	1095.84
444.51	1072.67
444.87	1072.20
445.24	1055.58
445.60	1053.71
445.96	1049.50
446.33	1055.82
446.69	1053.24
447.06	1064.24
447.42	1076.41
447.79	1089.52
448.15	1098.18
448.51	1101.46
448.88	1102.39
449.24	1100.29
449.61	1094.43
449.97	1093.97
450.33	1093.50
450.70	1103.09
451.06	1102.16
451.43	1087.18
451.79	1090.92
452.15	1096.54
452.52	1088.35
452.88	1100.75
453.24	1114.33
453.61	1107.31
453.97	1100.29
454.34	1096.78
454.70	1079.92
455.06	1078.05
455.43	1084.14
455.79	1080.63
456.15	1084.84
456.52	1086.71
456.88	1082.26
457.24	1074.07
457.61	1080.63
457.97	1078.75
458.33	1076.18
458.70	1069.86
459.06	1063.77
459.42	1068.22
459.79	1067.05
460.15	1075.24
460.51	1078.99
460.88	1077.82
461.24	1060.73
461.60	1070.80
461.96	1058.16
462.33	1067.75
462.69	1063.54
463.05	1074.31
463.42	1069.62
463.78	1078.05
464.14	1075.24
464.50	1086.24
464.87	1077.11
465.23	1071.03
465.59	1066.58
465.95	1066.58
466.32	1075.71
466.68	1078.75
467.04	1083.90
467.40	1075.94
467.77	1071.73
468.13	1067.99
468.49	1069.16
468.85	1063.31
469.22	1082.03
469.58	1079.46
469.94	1074.31
470.30	1078.99
470.66	1077.11
471.03	1065.65
471.39	1067.28
471.75	1069.62
472.11	1073.37
472.47	1078.52
472.84	1081.56
473.20	1080.39
473.56	1075.48
473.92	1083.90
474.28	1077.35
474.65	1072.67
475.01	1075.01
475.37	1078.99
475.73	1055.82
476.09	1065.65
476.45	1073.60
476.81	1063.77
477.18	1062.60
477.54	1070.56
477.90	1063.31
478.26	1055.82
478.62	1069.62
478.98	1067.05
479.34	1073.84
479.71	1083.20
480.07	1084.84
480.43	1077.11
480.79	1079.22
481.15	1075.71
481.51	1072.20
481.87	1071.97
482.23	1078.99
482.59	1083.90
482.96	1085.07
483.32	1083.67
483.68	1084.14
484.04	1072.67
484.40	1065.18
484.76	1055.58
485.12	1047.62
485.48	1049.96
485.84	1056.28
486.20	1049.03
486.56	1051.37
486.92	1072.20
487.28	1073.84
487.64	1078.75
488.00	1081.80
488.37	1081.09
488.73	1068.45
489.09	1072.67
489.45	1076.41
489.81	1084.84
490.17	1088.35
490.53	1090.69
490.89	1077.11
491.25	1079.46
491.61	1079.22
491.97	1076.88
492.33	1076.18
492.69	1087.18
493.05	1082.26
493.41	1086.24
493.77	1091.16
494.13	1097.24
494.49	1094.67
494.85	1094.67
495.21	1093.73
495.57	1089.05
495.93	1078.99
496.29	1081.09
496.64	1089.75
497.00	1086.01
497.36	1094.90
497.72	1097.24
498.08	1086.48
498.44	1081.33
498.80	1074.54
499.16	1073.37
499.52	1080.16
499.88	1091.86
500.24	1078.28
500.60	1083.67
500.96	1079.22
501.32	1071.97
501.68	1056.52
502.03	1072.67
502.39	1071.03
502.75	1069.62
503.11	1071.97
503.47	1079.92
503.83	1069.86
504.19	1071.73
504.55	1077.35
504.91	1070.09
505.26	1069.86
505.62	1077.82
505.98	1071.73
506.34	1074.31
506.70	1078.28
507.06	1084.84
507.42	1074.54
507.78	1085.77
508.13	1075.94
508.49	1078.75
508.85	1067.52
509.21	1069.16
509.57	1072.20
509.93	1075.71
510.28	1077.11
510.64	1097.71
511.00	1100.52
511.36	1091.86
511.72	1091.39
512.07	1085.77
512.43	1073.60
512.79	1071.26
513.15	1076.88
513.51	1087.88
513.86	1094.20
514.22	1095.84
514.58	1094.20
514.94	1087.88
515.30	1085.77
515.65	1089.75
516.01	1088.35
516.37	1091.86
516.73	1100.52
517.08	1094.67
517.44	1090.92
517.80	1092.09
518.16	1096.54
518.51	1092.09
518.87	1081.09
519.23	1080.39
519.59	1077.11
519.94	1072.90
520.30	1068.92
520.66	1086.94
521.01	1083.67
521.37	1083.90
521.73	1079.22
522.09	1085.07
522.44	1080.16
522.80	1080.16
523.16	1079.22
523.51	1087.18
523.87	1088.12
524.23	1083.43
524.58	1091.16
524.94	1099.12
525.30	1091.16
525.65	1094.20
526.01	1091.86
526.37	1092.80
526.72	1085.54
527.08	1089.05
527.44	1091.86
527.79	1089.52
528.15	1077.58
528.51	1080.39
528.86	1085.77
529.22	1075.48
529.58	1088.58
529.93	1096.78
530.29	1102.16
530.65	1097.01
531.00	1097.71
531.36	1087.18
531.71	1089.75
532.07	1083.43
532.43	1085.77
532.78	1091.86
533.14	1096.31
533.49	1084.37
533.85	1088.58
534.21	1084.84
534.56	1083.67
534.92	1086.48
535.27	1090.46
535.63	1088.82
535.98	1101.92
536.34	1093.26
536.69	1089.75
537.05	1087.41
537.41	1083.43
537.76	1062.37
538.12	1068.22
538.47	1073.14
538.83	1078.99
539.18	1081.80
539.54	1092.33
539.89	1087.88
540.25	1078.99
540.60	1072.67
540.96	1073.14
541.31	1076.88
541.67	1080.16
542.02	1085.54
542.38	1084.14
542.73	1081.33
543.09	1077.11
543.44	1067.52
543.80	1070.56
544.15	1075.48
544.51	1084.84
544.86	1088.12
545.22	1098.88
545.57	1098.88
545.93	1099.58
546.28	1087.88
546.64	1076.41
546.99	1085.54
547.35	1078.05
547.70	1086.48
548.05	1092.09
548.41	1098.18
548.76	1085.07
549.12	1083.90
549.47	1073.60
549.83	1074.77
550.18	1080.63
550.53	1084.37
550.89	1090.92
551.24	1084.60
551.60	1079.46
551.95	1084.37
552.30	1083.90
552.66	1083.67
553.01	1091.86
553.37	1082.26
553.72	1077.11
554.07	1071.50
554.43	1065.18
554.78	1067.28
555.13	1065.88
555.49	1069.86
555.84	1073.37
556.19	1077.82
556.55	1085.77
556.90	1099.82
557.26	1084.14
557.61	1098.41
557.96	1094.67
558.32	1091.39
558.67	1096.07
559.02	1099.12
559.37	1081.56
559.73	1087.41
560.08	1083.67
560.43	1078.52
560.79	1080.63
561.14	1083.90
561.49	1078.28
561.85	1071.50
562.20	1067.28
562.55	1072.67
562.90	1072.67
563.26	1082.97
563.61	1087.88
563.96	1087.18
564.32	1084.60
564.67	1086.01
565.02	1069.86
565.37	1068.69
565.73	1071.26
566.08	1077.35
566.43	1082.03
566.78	1086.71
567.14	1091.39
567.49	1089.05
567.84	1088.58
568.19	1079.22
568.54	1084.37
568.90	1078.75
569.25	1071.03
569.60	1065.18
569.95	1070.80
570.31	1063.54
570.66	1064.94
571.01	1074.54
571.36	1075.48
571.71	1073.60
572.06	1078.52
572.42	1077.35
572.77	1081.33
573.12	1072.20
573.47	1064.48
573.82	1055.11
574.18	1070.09
574.53	1064.94
574.88	1071.50
575.23	1070.80
575.58	1079.46
575.93	1055.82
576.28	1055.11
576.64	1046.92
576.99	1045.99
577.34	1045.52
577.69	1060.03
578.04	1064.24
578.39	1072.43
578.74	1077.35
579.09	1088.35
579.44	1079.69
579.80	1071.73
580.15	1082.50
580.50	1094.20
580.85	1083.67
581.20	1089.52
581.55	1092.56
581.90	1079.69
582.25	1071.50
582.60	1075.24
582.95	1074.31
583.30	1072.20
583.65	1073.37
584.00	1081.09
584.35	1081.80
584.71	1081.56
585.06	1085.77
585.41	1093.73
585.76	1082.97
586.11	1084.14
586.46	1082.97
586.81	1090.92
587.16	1092.80
587.51	1094.20
587.86	1085.31
588.21	1081.33
588.56	1077.11
588.91	1066.35
589.26	1071.03
589.61	1072.67
589.96	1074.31
590.31	1067.75
590.66	1066.11
591.01	1057.69
591.36	1054.41
591.71	1055.82
592.06	1058.39
592.41	1064.24
592.76	1067.52
593.10	1072.90
593.45	1085.54
593.80	1094.20
594.15	1090.69
594.50	1098.65
594.85	1104.50
595.20	1087.18
595.55	1071.26
595.90	1069.16
596.25	1059.79
596.60	1050.90
596.95	1059.33
597.30	1072.67
597.64	1126.73
597.99	1138.67
598.34	1133.76
598.69	1131.88
599.04	1119.24
599.39	1064.48
599.74	1057.45
600.09	1064.01
600.44	1060.96
600.78	1075.94
601.13	1088.82
601.48	1084.14
601.83	1081.80
602.18	1083.90
602.53	1076.41
602.88	1063.77
603.22	1066.82
603.57	1067.52
603.92	1054.41
604.27	1052.30
604.62	1057.45
604.97	1059.33
605.31	1073.14
605.66	1088.82
606.01	1088.35
606.36	1102.63
606.71	1108.95
607.05	1099.82
607.40	1095.84
607.75	1093.97
608.10	1083.90
608.44	1074.54
608.79	1066.82
609.14	1060.96
609.49	1064.48
609.84	1068.45
610.18	1072.43
610.53	1076.88
610.88	1088.58
611.23	1090.69
611.57	1081.33
611.92	1076.41
612.27	1086.71
612.62	1077.58
612.96	1076.88
613.31	1087.88
613.66	1090.46
614.00	1086.24
614.35	1091.63
614.70	1091.39
615.05	1078.28
615.39	1081.33
615.74	1082.50
616.09	1080.39
616.43	1080.39
616.78	1092.80
617.13	1092.33
617.47	1082.26
617.82	1090.69
618.17	1092.33
618.51	1086.71
618.86	1094.67
619.21	1103.80
619.55	1097.71
619.90	1101.22
620.25	1100.52
620.59	1092.80
620.94	1088.35
621.29	1084.37
621.63	1088.12
621.98	1100.29
622.32	1103.56
622.67	1107.78
623.02	1106.37
623.36	1097.71
623.71	1083.20
624.05	1078.75
624.40	1078.05
624.75	1086.48
625.09	1082.73
625.44	1072.90
625.78	1075.48
626.13	1078.52
626.48	1078.99
626.82	1076.41
627.17	1088.58
627.51	1085.54
627.86	1077.35
628.20	1075.71
628.55	1078.05
628.89	1082.03
629.24	1082.73
629.58	1085.07
629.93	1084.14
630.28	1095.14
630.62	1092.33
630.97	1083.20
631.31	1088.82
631.66	1090.22
632.00	1088.12
632.35	1083.67
632.69	1089.05
633.04	1076.88
633.38	1074.54
633.73	1071.26
634.07	1079.46
634.42	1080.39
634.76	1087.41
635.11	1088.82
635.45	1082.50
635.79	1072.90
636.14	1064.24
636.48	1063.31
636.83	1064.71
637.17	1068.45
637.52	1068.92
637.86	1076.65
638.21	1077.58
638.55	1082.50
638.89	1087.65
639.24	1078.99
639.58	1079.22
639.93	1069.86
640.27	1065.88
640.61	1061.67
640.96	1081.56
641.30	1078.28
641.65	1082.97
641.99	1075.48
642.33	1076.18
642.68	1065.88
643.02	1077.35
643.37	1068.92
643.71	1068.92
644.05	1071.03
644.40	1082.03
644.74	1074.07
645.08	1079.46
645.43	1090.92
645.77	1086.01
646.11	1072.90
646.46	1079.69
646.80	1087.41
647.14	1086.71
647.49	1085.77
647.83	1089.99
648.17	1080.39
648.52	1085.31
648.86	1077.11
649.20	1069.16
649.55	1066.11
649.89	1066.11
650.23	1058.39
650.57	1060.73
650.92	1064.48
651.26	1063.54
651.60	1074.07
651.95	1075.94
652.29	1078.99
652.63	1083.43
652.97	1084.14
653.32	1078.05
653.66	1074.31
654.00	1074.77
654.34	1079.22
654.69	1089.75
655.03	1090.22
655.37	1092.56
655.71	1102.39
656.05	1101.92
656.40	1088.58
656.74	1095.37
657.08	1100.29
657.42	1080.39
657.76	1085.77
658.11	1096.31
658.45	1087.18
658.79	1082.03
659.13	1088.12
659.47	1084.60
659.82	1082.50
660.16	1081.80
660.50	1080.39
660.84	1081.56
661.18	1075.48
661.52	1070.33
661.87	1075.48
662.21	1075.24
662.55	1080.39
662.89	1083.43
663.23	1082.50
663.57	1082.03
663.91	1084.84
664.25	1072.67
664.60	1071.97
664.94	1077.11
665.28	1080.39
665.62	1082.50
665.96	1084.14
666.30	1085.31
666.64	1083.90
666.98	1084.14
667.32	1082.50
667.66	1083.20
668.01	1087.41
668.35	1079.46
668.69	1077.58
669.03	1074.54
669.37	1081.09
669.71	1076.88
670.05	1082.26
670.39	1070.56
670.73	1074.77
671.07	1065.88
671.41	1070.09
671.75	1071.50
672.09	1076.88
672.43	1072.43
672.77	1077.58
673.11	1078.52
673.45	1076.88
673.79	1081.80
674.13	1075.71
674.47	1071.73
674.81	1063.31
675.15	1066.35
675.49	1071.03
675.83	1086.24
676.17	1096.78
676.51	1102.63
676.85	1105.90
677.19	1100.52
677.53	1096.54
677.87	1090.92
678.21	1086.24
678.55	1089.05
678.89	1090.22
679.23	1078.99
679.57	1069.62
679.90	1065.18
680.24	1049.26
680.58	1039.20
680.92	1039.67
681.26	1036.39
681.60	1042.24
681.94	1053.71
682.28	1064.71
682.62	1071.73
682.96	1090.69
683.29	1091.39
683.63	1094.20
683.97	1090.46
684.31	1089.99
684.65	1078.05
684.99	1072.90
685.33	1071.03
685.67	1074.54
686.00	1081.80
686.34	1091.86
686.68	1093.26
687.02	1093.73
687.36	1084.37
687.70	1071.26
688.03	1070.56
688.37	1075.24
688.71	1079.22
689.05	1086.24
689.39	1089.05
689.72	1090.22
690.06	1098.18
690.40	1083.67
690.74	1087.18
691.08	1095.37
691.41	1087.88
691.75	1084.14
692.09	1093.03
692.43	1084.14
692.76	1078.05
693.10	1081.09
693.44	1080.16
693.78	1078.75
694.11	1081.09
694.45	1080.86
694.79	1078.99
695.13	1079.69
695.46	1071.03
695.80	1080.86
696.14	1083.67
696.48	1082.50
696.81	1076.41
697.15	1084.37
697.49	1067.52
697.82	1060.96
698.16	1057.69
698.50	1065.18
698.83	1060.26
699.17	1069.86
699.51	1074.77
699.84	1070.33
700.18	1069.86
700.52	1071.97
700.85	1077.58
701.19	1078.05
701.53	1080.63
701.86	1075.48
702.20	1075.94
702.54	1073.60
702.87	1073.84
703.21	1082.26
703.55	1085.54
703.88	1089.52
704.22	1086.48
704.55	1086.01
704.89	1093.73
705.23	1087.65
705.56	1080.39
705.90	1081.33
706.23	1086.01
706.57	1078.99
706.91	1082.03
707.24	1086.94
707.58	1085.54
707.91	1065.18
708.25	1063.77
708.58	1058.16
708.92	1062.84
709.26	1051.60
709.59	1074.54
709.93	1068.69
710.26	1070.80
710.60	1063.31
710.93	1078.28
711.27	1073.60
711.60	1082.26
711.94	1087.18
712.27	1085.07
712.61	1085.54
712.94	1089.99
713.28	1082.97
713.61	1071.97
713.95	1076.65
714.28	1076.41
714.62	1069.86
714.95	1067.05
715.29	1076.88
715.62	1079.46
715.96	1067.28
716.29	1067.99
716.63	1077.82
716.96	1081.33
717.29	1076.88
717.63	1092.33
717.96	1095.14
718.30	1087.65
718.63	1088.35
718.97	1090.69
719.30	1083.43
719.63	1079.46
719.97	1078.05
720.30	1079.46
720.64	1075.01
720.97	1068.69
721.30	1077.11
721.64	1095.14
721.97	1089.05
722.31	1093.50
722.64	1097.24
722.97	1091.63
723.31	1078.99
723.64	1069.62
723.97	1064.24
724.31	1061.90
724.64	1066.82
724.98	1057.69
725.31	1068.69
725.64	1075.01
725.98	1080.86
726.31	1068.69
726.64	1074.77
726.97	1081.33
727.31	1081.80
727.64	1071.26
727.97	1072.67
728.31	1070.09
728.64	1068.69
728.97	1069.62
729.31	1083.20
729.64	1083.43
729.97	1087.41
730.30	1074.07
730.64	1070.33
730.97	1068.92
731.30	1073.84
731.63	1072.43
731.97	1072.43
732.30	1077.82
732.63	1066.58
732.96	1065.88
733.30	1060.73
733.63	1073.84
733.96	1066.35
734.29	1083.43
734.63	1090.69
734.96	1093.50
735.29	1087.88
735.62	1097.01
735.95	1091.39
736.29	1077.82
736.62	1074.07
736.95	1073.37
737.28	1066.35
737.61	1060.96
737.94	1067.75
738.28	1097.01
738.61	1089.05
738.94	1084.84
739.27	1088.35
739.60	1094.90
739.93	1078.99
740.27	1074.31
740.60	1067.75
740.93	1069.62
741.26	1064.01
741.59	1053.71
741.92	1067.52
742.25	1075.48
742.58	1080.16
742.91	1085.77
743.25	1086.94
743.58	1082.26
743.91	1088.35
744.24	1082.97
744.57	1082.26
744.90	1087.65
745.23	1093.03
745.56	1085.77
745.89	1088.12
746.22	1088.35
746.55	1086.71
746.88	1083.43
747.21	1094.43
747.54	1098.41
747.87	1097.24
748.20	1093.26
748.53	1097.24
748.87	1096.54
749.20	1087.18
749.53	1082.50
749.86	1091.86
750.19	1098.88
750.52	1103.56
750.85	1097.95
751.18	1104.97
751.51	1097.95
751.84	1087.18
752.16	1084.84
752.49	1091.63
752.82	1082.03
753.15	1084.37
753.48	1084.37
753.81	1075.71
754.14	1069.62
754.47	1071.97
754.80	1077.11
755.13	1080.39
755.46	1082.97
755.79	1094.20
756.12	1097.24
756.45	1090.46
756.78	1085.77
757.11	1089.75
757.43	1084.37
757.76	1078.52
758.09	1074.77
758.42	1071.50
758.75	1067.75
759.08	1071.03
759.41	1072.67
759.74	1078.75
760.07	1076.41
760.39	1074.31
760.72	1063.77
761.05	1056.05
761.38	1058.39
761.71	1059.56
762.04	1052.54
762.36	1066.11
762.69	1074.54
763.02	1068.92
763.35	1074.77
763.68	1090.92
764.01	1079.22
764.33	1084.14
764.66	1082.26
764.99	1082.03
765.32	1077.58
765.65	1081.56
765.97	1079.92
766.30	1082.03
