SpectraSuite Data File
++++++++++++++++++++++++++++++++++++
Date: Mon Aug 26 10:25:51 PDT 2019
User: corrico
Dark Spectrum Present: No
Reference Spectrum Present: No
Number of Sampled Component Spectra: 1
Spectrometers: USB2+H06089
Integration Time (usec): 10000 (USB2+H06089)
Spectra Averaged: 2 (USB2+H06089)
Boxcar Smoothing: 2 (USB2+H06089)
Correct for Electrical Dark: No (USB2+H06089)
Strobe/Lamp Enabled: No (USB2+H06089)
Correct for Detector Non-linearity: No (USB2+H06089)
Correct for Stray Light: No (USB2+H06089)
Number of Pixels in Processed Spectrum: 2048
>>>>>Begin Processed Spectral Data<<<<<
339.70	993.56
340.07	993.56
340.45	970.85
340.82	968.05
341.19	952.83
341.57	936.92
341.94	928.49
342.31	930.36
342.69	916.32
343.06	900.64
343.43	903.21
343.81	902.51
344.18	903.45
344.55	897.13
344.93	922.64
345.30	927.09
345.67	928.96
346.04	930.36
346.42	952.60
346.79	952.83
347.16	962.90
347.54	982.79
347.91	992.86
348.28	1000.58
348.65	1005.96
349.03	1006.43
349.40	1014.15
349.77	1019.30
350.14	1022.11
350.52	1037.09
350.89	1048.09
351.26	1049.96
351.63	1054.88
352.01	1053.01
352.38	1056.99
352.75	1064.71
353.12	1070.56
353.50	1078.28
353.87	1084.84
354.24	1079.92
354.61	1077.82
354.98	1069.39
355.36	1072.90
355.73	1082.03
356.10	1085.77
356.47	1095.60
356.84	1100.52
357.22	1095.37
357.59	1080.63
357.96	1080.39
358.33	1080.16
358.70	1086.24
359.08	1082.50
359.45	1085.07
359.82	1085.31
360.19	1078.99
360.56	1076.65
360.94	1081.09
361.31	1080.39
361.68	1078.28
362.05	1071.50
362.42	1076.18
362.79	1076.88
363.16	1085.31
363.54	1084.60
363.91	1082.50
364.28	1079.46
364.65	1065.88
365.02	1063.31
365.39	1066.58
365.76	1071.26
366.14	1070.09
366.51	1076.41
366.88	1078.28
367.25	1076.88
367.62	1077.11
367.99	1070.56
368.36	1071.50
368.73	1065.88
369.10	1061.90
369.48	1063.31
369.85	1060.26
370.22	1068.69
370.59	1071.26
370.96	1065.65
371.33	1064.01
371.70	1079.69
372.07	1077.11
372.44	1076.65
372.81	1092.33
373.18	1089.29
373.55	1077.11
373.93	1081.09
374.30	1072.90
374.67	1068.45
375.04	1069.86
375.41	1066.82
375.78	1058.62
376.15	1074.31
376.52	1075.71
376.89	1076.41
377.26	1081.56
377.63	1082.26
378.00	1078.52
378.37	1066.35
378.74	1065.65
379.11	1061.20
379.48	1055.82
379.85	1043.41
380.22	1050.67
380.59	1052.07
380.96	1057.92
381.33	1059.33
381.70	1067.05
382.07	1061.20
382.44	1057.69
382.81	1050.90
383.18	1055.35
383.55	1053.94
383.92	1063.77
384.29	1068.69
384.66	1073.84
385.03	1075.24
385.40	1083.43
385.77	1082.73
386.14	1089.29
386.51	1091.16
386.88	1090.22
387.25	1083.20
387.62	1088.82
387.99	1081.33
388.36	1074.31
388.73	1076.88
389.10	1072.20
389.46	1063.07
389.83	1061.90
390.20	1066.82
390.57	1067.05
390.94	1077.35
391.31	1079.46
391.68	1080.86
392.05	1082.26
392.42	1075.71
392.79	1075.24
393.16	1078.75
393.53	1082.03
393.89	1084.84
394.26	1089.05
394.63	1087.41
395.00	1084.60
395.37	1086.94
395.74	1092.09
396.11	1079.92
396.48	1076.65
396.84	1081.56
397.21	1077.11
397.58	1066.11
397.95	1071.73
398.32	1067.75
398.69	1066.58
399.06	1066.11
399.42	1075.48
399.79	1085.07
400.16	1086.94
400.53	1083.67
400.90	1081.80
401.27	1087.65
401.64	1088.35
402.00	1085.77
402.37	1086.94
402.74	1089.05
403.11	1073.60
403.48	1075.24
403.84	1085.77
404.21	1083.43
404.58	1081.09
404.95	1084.14
405.32	1080.63
405.68	1080.63
406.05	1075.71
406.42	1070.80
406.79	1071.26
407.16	1064.01
407.52	1060.73
407.89	1064.71
408.26	1067.99
408.63	1065.18
408.99	1077.58
409.36	1075.71
409.73	1061.20
410.10	1063.54
410.47	1064.71
410.83	1047.16
411.20	1046.92
411.57	1057.22
411.94	1060.96
412.30	1056.75
412.67	1071.73
413.04	1072.20
413.40	1077.11
413.77	1081.56
414.14	1089.05
414.51	1088.35
414.87	1089.52
415.24	1089.52
415.61	1087.18
415.97	1080.39
416.34	1076.41
416.71	1073.84
417.08	1080.86
417.44	1075.48
417.81	1087.65
418.18	1097.71
418.54	1093.73
418.91	1075.71
419.28	1077.35
419.64	1066.82
420.01	1067.05
420.38	1075.01
420.74	1088.35
421.11	1086.71
421.48	1088.35
421.84	1079.92
422.21	1085.54
422.58	1085.54
422.94	1086.71
423.31	1086.48
423.68	1086.48
424.04	1082.26
424.41	1082.03
424.77	1081.09
425.14	1083.20
425.51	1090.46
425.87	1090.92
426.24	1085.07
426.61	1078.52
426.97	1076.65
427.34	1066.11
427.70	1055.82
428.07	1066.82
428.44	1074.07
428.80	1079.92
429.17	1080.39
429.53	1094.90
429.90	1096.07
430.27	1097.48
430.63	1096.31
431.00	1093.73
431.36	1089.75
431.73	1075.71
432.09	1071.97
432.46	1069.39
432.83	1073.84
433.19	1068.22
433.56	1075.71
433.92	1073.60
434.29	1073.84
434.65	1071.03
435.02	1079.69
435.38	1073.37
435.75	1084.14
436.11	1084.37
436.48	1083.20
436.84	1084.37
437.21	1090.46
437.57	1084.84
437.94	1090.46
438.30	1092.56
438.67	1086.24
439.03	1090.22
439.40	1086.71
439.76	1082.26
440.13	1082.97
440.49	1081.80
440.86	1068.92
441.22	1073.84
441.59	1073.84
441.95	1073.14
442.32	1071.03
442.68	1071.03
443.05	1070.56
443.41	1070.80
443.78	1071.97
444.14	1075.01
444.51	1085.31
444.87	1086.01
445.24	1084.60
445.60	1093.26
445.96	1092.80
446.33	1085.77
446.69	1075.24
447.06	1067.28
447.42	1058.62
447.79	1059.09
448.15	1055.82
448.51	1061.20
448.88	1062.60
449.24	1070.09
449.61	1073.84
449.97	1085.77
450.33	1089.05
450.70	1100.29
451.06	1101.69
451.43	1093.50
451.79	1088.12
452.15	1092.56
452.52	1092.56
452.88	1079.92
453.24	1084.84
453.61	1084.84
453.97	1078.05
454.34	1071.03
454.70	1079.92
455.06	1077.58
455.43	1072.43
455.79	1072.90
456.15	1073.84
456.52	1074.77
456.88	1078.99
457.24	1090.46
457.61	1090.69
457.97	1092.33
458.33	1090.92
458.70	1083.43
459.06	1082.50
459.42	1077.11
459.79	1075.24
460.15	1070.56
460.51	1076.88
460.88	1072.90
461.24	1078.05
461.60	1071.50
461.96	1065.18
462.33	1062.60
462.69	1065.18
463.05	1069.62
463.42	1074.07
463.78	1081.56
464.14	1078.99
464.50	1077.58
464.87	1076.18
465.23	1073.14
465.59	1068.69
465.95	1065.18
466.32	1064.71
466.68	1068.69
467.04	1079.92
467.40	1080.16
467.77	1089.99
468.13	1087.41
468.49	1083.67
468.85	1071.03
469.22	1071.03
469.58	1075.71
469.94	1078.52
470.30	1078.52
470.66	1086.94
471.03	1104.50
471.39	1098.88
471.75	1097.95
472.11	1093.50
472.47	1085.31
472.84	1075.48
473.20	1078.75
473.56	1083.20
473.92	1078.52
474.28	1089.05
474.65	1075.24
475.01	1072.90
475.37	1069.86
475.73	1071.26
476.09	1064.94
476.45	1075.48
476.81	1072.20
477.18	1061.67
477.54	1070.09
477.90	1076.65
478.26	1076.18
478.62	1080.39
478.98	1096.07
479.34	1090.92
479.71	1090.22
480.07	1100.05
480.43	1099.12
480.79	1092.33
481.15	1097.01
481.51	1095.60
481.87	1077.82
482.23	1076.41
482.59	1074.77
482.96	1076.65
483.32	1079.92
483.68	1088.35
484.04	1089.75
484.40	1089.29
484.76	1084.14
485.12	1079.46
485.48	1075.01
485.84	1068.45
486.20	1065.65
486.56	1069.39
486.92	1078.28
487.28	1082.03
487.64	1082.50
488.00	1089.05
488.37	1085.31
488.73	1072.43
489.09	1073.14
489.45	1081.33
489.81	1076.88
490.17	1063.31
490.53	1067.52
490.89	1078.05
491.25	1080.63
491.61	1075.94
491.97	1081.09
492.33	1075.24
492.69	1067.52
493.05	1058.86
493.41	1062.60
493.77	1065.41
494.13	1074.77
494.49	1071.03
494.85	1072.43
495.21	1084.60
495.57	1089.75
495.93	1077.82
496.29	1086.94
496.64	1086.71
497.00	1073.14
497.36	1071.50
497.72	1083.90
498.08	1074.07
498.44	1072.67
498.80	1077.35
499.16	1073.14
499.52	1062.84
499.88	1069.16
500.24	1065.18
500.60	1063.31
500.96	1064.48
501.32	1072.43
501.68	1064.71
502.03	1069.39
502.39	1068.45
502.75	1069.39
503.11	1069.16
503.47	1072.20
503.83	1081.56
504.19	1093.50
504.55	1097.48
504.91	1096.31
505.26	1097.01
505.62	1084.14
505.98	1078.52
506.34	1082.26
506.70	1084.37
507.06	1087.65
507.42	1088.58
507.78	1078.05
508.13	1067.75
508.49	1062.84
508.85	1055.35
509.21	1060.50
509.57	1075.71
509.93	1076.41
510.28	1077.58
510.64	1081.56
511.00	1083.67
511.36	1075.48
511.72	1082.73
512.07	1093.73
512.43	1083.90
512.79	1077.11
513.15	1078.28
513.51	1068.45
513.86	1065.18
514.22	1082.26
514.58	1084.14
514.94	1085.77
515.30	1101.46
515.65	1104.73
516.01	1098.41
516.37	1095.14
516.73	1100.29
517.08	1089.29
517.44	1077.11
517.80	1076.88
518.16	1082.73
518.51	1073.60
518.87	1075.71
519.23	1083.67
519.59	1088.12
519.94	1078.99
520.30	1082.50
520.66	1079.46
521.01	1073.60
521.37	1064.48
521.73	1085.31
522.09	1090.69
522.44	1092.80
522.80	1091.16
523.16	1098.41
523.51	1081.09
523.87	1080.86
524.23	1087.41
524.58	1095.84
524.94	1095.84
525.30	1105.67
525.65	1104.03
526.01	1094.43
526.37	1093.03
526.72	1094.90
527.08	1091.16
527.44	1090.69
527.79	1097.95
528.15	1097.95
528.51	1099.58
528.86	1098.41
529.22	1097.01
529.58	1094.20
529.93	1084.84
530.29	1087.18
530.65	1087.18
531.00	1088.58
531.36	1093.97
531.71	1100.75
532.07	1092.09
532.43	1090.92
532.78	1092.09
533.14	1087.88
533.49	1094.43
533.85	1093.26
534.21	1090.69
534.56	1097.24
534.92	1100.29
535.27	1091.63
535.63	1095.37
535.98	1091.86
536.34	1079.46
536.69	1071.73
537.05	1078.28
537.41	1074.07
537.76	1083.67
538.12	1090.69
538.47	1093.26
538.83	1088.82
539.18	1090.69
539.54	1089.05
539.89	1080.16
540.25	1076.65
540.60	1067.28
540.96	1071.26
541.31	1069.39
541.67	1076.65
542.02	1079.46
542.38	1087.18
542.73	1076.18
543.09	1087.41
543.44	1079.69
543.80	1086.71
544.15	1092.33
544.51	1096.07
544.86	1085.77
545.22	1085.54
545.57	1080.16
545.93	1072.43
546.28	1069.16
546.64	1076.65
546.99	1082.03
547.35	1082.03
547.70	1085.31
548.05	1099.12
548.41	1093.50
548.76	1092.56
549.12	1092.33
549.47	1090.22
549.83	1092.33
550.18	1097.01
550.53	1090.69
550.89	1088.82
551.24	1085.54
551.60	1071.97
551.95	1062.14
552.30	1058.86
552.66	1054.41
553.01	1059.33
553.37	1059.79
553.72	1073.84
554.07	1090.22
554.43	1099.82
554.78	1092.09
555.13	1096.54
555.49	1083.43
555.84	1071.26
556.19	1059.56
556.55	1071.03
556.90	1066.58
557.26	1071.50
557.61	1083.20
557.96	1090.46
558.32	1091.39
558.67	1089.29
559.02	1079.46
559.37	1070.80
559.73	1071.73
560.08	1063.77
560.43	1066.58
560.79	1077.58
561.14	1085.31
561.49	1091.39
561.85	1085.07
562.20	1091.63
562.55	1086.01
562.90	1075.94
563.26	1070.09
563.61	1079.92
563.96	1071.50
564.32	1071.97
564.67	1078.05
565.02	1074.31
565.37	1069.62
565.73	1069.39
566.08	1072.90
566.43	1069.86
566.78	1081.80
567.14	1088.35
567.49	1091.39
567.84	1096.31
568.19	1108.01
568.54	1089.05
568.90	1085.77
569.25	1084.37
569.60	1082.97
569.95	1077.11
570.31	1095.60
570.66	1099.58
571.01	1103.56
571.36	1100.29
571.71	1100.75
572.06	1091.39
572.42	1082.97
572.77	1080.63
573.12	1071.73
573.47	1051.84
573.82	1056.99
574.18	1064.94
574.53	1062.60
574.88	1070.09
575.23	1086.71
575.58	1090.92
575.93	1088.82
576.28	1099.82
576.64	1099.58
576.99	1099.12
577.34	1094.67
577.69	1092.33
578.04	1079.22
578.39	1074.31
578.74	1071.97
579.09	1074.54
579.44	1075.48
579.80	1075.48
580.15	1087.41
580.50	1097.01
580.85	1096.31
581.20	1095.60
581.55	1102.16
581.90	1087.18
582.25	1073.14
582.60	1072.67
582.95	1074.54
583.30	1068.69
583.65	1082.97
584.00	1083.20
584.35	1074.07
584.71	1072.20
585.06	1074.31
585.41	1060.50
585.76	1065.18
586.11	1066.11
586.46	1064.48
586.81	1067.99
587.16	1071.03
587.51	1077.58
587.86	1083.20
588.21	1085.54
588.56	1087.41
588.91	1090.92
589.26	1084.14
589.61	1089.29
589.96	1081.56
590.31	1078.52
590.66	1077.11
591.01	1076.41
591.36	1072.90
591.71	1075.24
592.06	1083.67
592.41	1077.35
592.76	1073.84
593.10	1067.05
593.45	1066.82
593.80	1065.88
594.15	1081.80
594.50	1088.12
594.85	1096.31
595.20	1101.92
595.55	1091.39
595.90	1089.05
596.25	1091.86
596.60	1092.09
596.95	1102.63
597.30	1113.86
597.64	1166.52
597.99	1162.08
598.34	1150.37
598.69	1136.33
599.04	1133.29
599.39	1071.97
599.74	1062.14
600.09	1071.50
600.44	1072.90
600.78	1068.92
601.13	1072.20
601.48	1088.12
601.83	1090.46
602.18	1085.54
602.53	1088.82
602.88	1081.56
603.22	1073.60
603.57	1073.60
603.92	1084.14
604.27	1077.35
604.62	1079.69
604.97	1086.01
605.31	1090.69
605.66	1087.41
606.01	1094.90
606.36	1099.35
606.71	1104.50
607.05	1097.01
607.40	1105.20
607.75	1092.56
608.10	1086.71
608.44	1089.52
608.79	1092.56
609.14	1072.67
609.49	1091.63
609.84	1103.09
610.18	1090.92
610.53	1093.97
610.88	1107.78
611.23	1095.14
611.57	1088.82
611.92	1094.90
612.27	1091.16
612.62	1084.60
612.96	1084.84
613.31	1082.97
613.66	1074.31
614.00	1076.88
614.35	1082.73
614.70	1081.80
615.05	1078.05
615.39	1079.46
615.74	1074.77
616.09	1071.97
616.43	1072.20
616.78	1078.75
617.13	1078.52
617.47	1076.41
617.82	1084.14
618.17	1078.52
618.51	1087.18
618.86	1089.05
619.21	1092.33
619.55	1083.43
619.90	1095.14
620.25	1094.20
620.59	1089.52
620.94	1075.94
621.29	1080.16
621.63	1071.26
621.98	1065.41
622.32	1062.37
622.67	1071.26
623.02	1068.69
623.36	1075.71
623.71	1071.03
624.05	1074.77
624.40	1085.31
624.75	1085.54
625.09	1086.48
625.44	1089.29
625.78	1083.20
626.13	1066.11
626.48	1068.92
626.82	1061.20
627.17	1068.22
627.51	1078.28
627.86	1077.82
628.20	1078.99
628.55	1087.41
628.89	1067.05
629.24	1063.31
629.58	1072.20
629.93	1067.28
630.28	1060.03
630.62	1075.94
630.97	1069.39
631.31	1069.16
631.66	1070.33
632.00	1068.22
632.35	1060.96
632.69	1067.28
633.04	1072.90
633.38	1069.62
633.73	1080.16
634.07	1082.73
634.42	1080.86
634.76	1073.60
635.11	1076.65
635.45	1063.77
635.79	1060.96
636.14	1064.01
636.48	1064.94
636.83	1063.31
637.17	1067.99
637.52	1069.86
637.86	1074.07
638.21	1079.69
638.55	1088.12
638.89	1083.67
639.24	1089.29
639.58	1089.75
639.93	1082.73
640.27	1072.90
640.61	1078.28
640.96	1075.94
641.30	1070.33
641.65	1079.69
641.99	1082.26
642.33	1085.77
642.68	1075.24
643.02	1074.31
643.37	1077.82
643.71	1081.56
644.05	1079.22
644.40	1094.67
644.74	1093.50
645.08	1093.26
645.43	1081.09
645.77	1082.73
646.11	1087.41
646.46	1081.80
646.80	1069.86
647.14	1079.22
647.49	1078.52
647.83	1067.75
648.17	1078.75
648.52	1078.05
648.86	1077.82
649.20	1084.60
649.55	1085.07
649.89	1085.31
650.23	1078.05
650.57	1075.71
650.92	1064.48
651.26	1066.11
651.60	1073.37
651.95	1078.75
652.29	1086.94
652.63	1098.18
652.97	1104.50
653.32	1093.03
653.66	1105.20
654.00	1097.01
654.34	1094.67
654.69	1104.03
655.03	1101.22
655.37	1093.97
655.71	1093.73
656.05	1085.31
656.40	1058.62
656.74	1072.20
657.08	1078.52
657.42	1082.26
657.76	1080.39
658.11	1081.80
658.45	1081.33
658.79	1071.73
659.13	1066.11
659.47	1075.24
659.82	1088.58
660.16	1082.73
660.50	1084.60
660.84	1088.35
661.18	1084.14
661.52	1079.46
661.87	1089.75
662.21	1093.97
662.55	1099.82
662.89	1100.52
663.23	1095.14
663.57	1079.46
663.91	1072.20
664.25	1071.03
664.60	1073.14
664.94	1082.97
665.28	1088.35
665.62	1092.09
665.96	1091.16
666.30	1094.43
666.64	1091.16
666.98	1090.92
667.32	1092.09
667.66	1083.20
668.01	1081.56
668.35	1078.75
668.69	1078.05
669.03	1073.37
669.37	1078.75
669.71	1080.16
670.05	1081.80
670.39	1078.05
670.73	1086.48
671.07	1079.69
671.41	1080.63
671.75	1077.35
672.09	1080.86
672.43	1078.28
672.77	1083.90
673.11	1073.37
673.45	1077.58
673.79	1080.86
674.13	1071.26
674.47	1071.97
674.81	1076.88
675.15	1074.07
675.49	1072.67
675.83	1077.58
676.17	1071.26
676.51	1067.05
676.85	1071.03
677.19	1067.05
677.53	1074.54
677.87	1076.88
678.21	1073.60
678.55	1067.28
678.89	1073.14
679.23	1056.28
679.57	1062.37
679.90	1065.88
680.24	1070.56
680.58	1052.54
680.92	1055.11
681.26	1049.96
681.60	1049.96
681.94	1049.50
682.28	1072.43
682.62	1086.71
682.96	1088.82
683.29	1098.18
683.63	1093.97
683.97	1088.35
684.31	1075.48
684.65	1080.86
684.99	1075.48
685.33	1072.90
685.67	1067.75
686.00	1074.77
686.34	1070.56
686.68	1080.63
687.02	1090.69
687.36	1088.35
687.70	1082.03
688.03	1086.71
688.37	1070.80
688.71	1063.54
689.05	1060.03
689.39	1060.26
689.72	1058.16
690.06	1068.45
690.40	1056.99
690.74	1062.37
691.08	1076.18
691.41	1075.94
691.75	1074.54
692.09	1089.52
692.43	1088.82
692.76	1085.54
693.10	1075.01
693.44	1064.94
693.78	1065.88
694.11	1067.52
694.45	1061.67
694.79	1064.94
695.13	1062.84
695.46	1062.14
695.80	1063.77
696.14	1061.43
696.48	1066.11
696.81	1075.71
697.15	1076.65
697.49	1080.39
697.82	1085.07
698.16	1087.65
698.50	1089.29
698.83	1096.54
699.17	1090.46
699.51	1082.50
699.84	1081.56
700.18	1068.92
700.52	1064.24
700.85	1062.14
701.19	1073.14
701.53	1065.65
701.86	1080.63
702.20	1078.28
702.54	1082.50
702.87	1076.18
703.21	1076.41
703.55	1075.71
703.88	1070.56
704.22	1078.75
704.55	1078.28
704.89	1087.18
705.23	1084.84
705.56	1083.90
705.90	1079.69
706.23	1087.18
706.57	1089.29
706.91	1081.80
707.24	1082.97
707.58	1078.52
707.91	1071.97
708.25	1075.94
708.58	1088.35
708.92	1091.86
709.26	1096.07
709.59	1099.12
709.93	1089.29
710.26	1080.16
710.60	1089.99
710.93	1079.22
711.27	1083.67
711.60	1085.77
711.94	1089.99
712.27	1084.37
712.61	1098.65
712.94	1099.82
713.28	1108.01
713.61	1115.03
713.95	1115.73
714.28	1113.86
714.62	1110.58
714.95	1093.03
715.29	1084.60
715.62	1084.84
715.96	1084.14
716.29	1084.37
716.63	1093.50
716.96	1096.31
717.29	1089.05
717.63	1090.69
717.96	1091.16
718.30	1096.31
718.63	1094.90
718.97	1090.69
719.30	1079.46
719.63	1064.01
719.97	1060.26
720.30	1056.99
720.64	1064.48
720.97	1063.31
721.30	1067.05
721.64	1061.67
721.97	1066.82
722.31	1059.09
722.64	1064.24
722.97	1073.37
723.31	1082.03
723.64	1083.20
723.97	1097.95
724.31	1104.26
724.64	1098.41
724.98	1097.48
725.31	1083.20
725.64	1079.92
725.98	1075.24
726.31	1080.16
726.64	1079.22
726.97	1089.29
727.31	1079.92
727.64	1084.37
727.97	1080.16
728.31	1079.69
728.64	1081.80
728.97	1089.29
729.31	1089.05
729.64	1094.43
729.97	1096.31
730.30	1091.63
730.64	1090.46
730.97	1077.82
731.30	1077.11
731.63	1069.39
731.97	1065.41
732.30	1062.60
732.63	1074.07
732.96	1069.86
733.30	1070.80
733.63	1071.50
733.96	1072.90
734.29	1073.60
734.63	1074.54
734.96	1079.92
735.29	1078.05
735.62	1080.86
735.95	1082.03
736.29	1090.69
736.62	1097.01
736.95	1095.37
737.28	1095.37
737.61	1088.58
737.94	1078.99
738.28	1066.11
738.61	1077.35
738.94	1075.48
739.27	1073.84
739.60	1081.33
739.93	1091.86
740.27	1089.99
740.60	1080.63
740.93	1081.80
741.26	1084.37
741.59	1080.86
741.92	1078.75
742.25	1089.75
742.58	1093.26
742.91	1092.09
743.25	1089.75
743.58	1084.37
743.91	1088.12
744.24	1089.29
744.57	1084.84
744.90	1083.43
745.23	1095.14
745.56	1086.48
745.89	1084.14
746.22	1085.77
746.55	1087.65
746.88	1072.90
747.21	1076.65
747.54	1075.01
747.87	1079.69
748.20	1082.73
748.53	1094.43
748.87	1092.80
749.20	1096.54
749.53	1095.84
749.86	1092.09
750.19	1091.39
750.52	1083.20
750.85	1075.48
751.18	1069.16
751.51	1059.09
751.84	1062.84
752.16	1072.43
752.49	1074.77
752.82	1070.33
753.15	1086.24
753.48	1086.94
753.81	1077.58
754.14	1081.33
754.47	1097.71
754.80	1094.20
755.13	1094.20
755.46	1111.29
755.79	1113.39
756.12	1104.03
756.45	1108.95
756.78	1097.95
757.11	1091.16
757.43	1084.14
757.76	1077.11
758.09	1071.73
758.42	1083.67
758.75	1082.03
759.08	1086.71
759.41	1093.73
759.74	1082.03
760.07	1070.33
760.39	1072.43
760.72	1083.67
761.05	1079.92
761.38	1092.09
761.71	1094.20
762.04	1086.24
762.36	1076.41
762.69	1081.80
763.02	1077.11
763.35	1074.54
763.68	1076.18
764.01	1074.54
764.33	1071.73
764.66	1071.73
764.99	1075.24
765.32	1078.99
765.65	1078.28
765.97	1075.24
766.30	1071.50
