SpectraSuite Data File
++++++++++++++++++++++++++++++++++++
Date: Mon Aug 26 10:25:53 PDT 2019
User: corrico
Dark Spectrum Present: No
Reference Spectrum Present: No
Number of Sampled Component Spectra: 1
Spectrometers: USB2+H06089
Integration Time (usec): 10000 (USB2+H06089)
Spectra Averaged: 2 (USB2+H06089)
Boxcar Smoothing: 2 (USB2+H06089)
Correct for Electrical Dark: No (USB2+H06089)
Strobe/Lamp Enabled: No (USB2+H06089)
Correct for Detector Non-linearity: No (USB2+H06089)
Correct for Stray Light: No (USB2+H06089)
Number of Pixels in Processed Spectrum: 2048
>>>>>Begin Processed Spectral Data<<<<<
339.70	1028.67
340.07	1028.67
340.45	1003.15
340.82	983.73
341.19	963.60
341.57	938.79
341.94	923.34
342.31	916.55
342.69	910.47
343.06	899.94
343.43	903.45
343.81	906.96
344.18	903.68
344.55	912.81
344.93	920.53
345.30	930.36
345.67	939.73
346.04	949.56
346.42	951.66
346.79	959.39
347.16	963.83
347.54	964.30
347.91	971.56
348.28	969.22
348.65	974.60
349.03	982.32
349.40	987.24
349.77	998.94
350.14	1021.18
350.52	1038.96
350.89	1040.84
351.26	1052.77
351.63	1055.82
352.01	1055.35
352.38	1059.79
352.75	1067.05
353.12	1072.20
353.50	1076.41
353.87	1078.28
354.24	1079.22
354.61	1084.37
354.98	1086.24
355.36	1088.58
355.73	1092.09
356.10	1091.63
356.47	1085.77
356.84	1081.33
357.22	1070.09
357.59	1076.41
357.96	1078.99
358.33	1076.18
358.70	1078.99
359.08	1089.75
359.45	1083.90
359.82	1065.41
360.19	1071.26
360.56	1064.48
360.94	1060.96
361.31	1057.69
361.68	1073.14
362.05	1067.52
362.42	1075.24
362.79	1069.39
363.16	1064.01
363.54	1048.09
363.91	1055.58
364.28	1053.01
364.65	1054.88
365.02	1056.75
365.39	1068.69
365.76	1064.71
366.14	1077.11
366.51	1082.50
366.88	1078.28
367.25	1077.58
367.62	1078.28
367.99	1070.09
368.36	1062.14
368.73	1064.71
369.10	1067.28
369.48	1061.20
369.85	1070.33
370.22	1075.94
370.59	1077.82
370.96	1072.20
371.33	1075.94
371.70	1064.24
372.07	1066.11
372.44	1071.73
372.81	1076.65
373.18	1074.54
373.55	1070.33
373.93	1060.96
374.30	1044.11
374.67	1034.75
375.04	1031.71
375.41	1036.86
375.78	1049.26
376.15	1075.94
376.52	1077.35
376.89	1087.88
377.26	1081.33
377.63	1082.03
378.00	1075.71
378.37	1084.84
378.74	1081.56
379.11	1082.50
379.48	1071.50
379.85	1069.16
380.22	1063.07
380.59	1065.18
380.96	1068.69
381.33	1081.80
381.70	1080.16
382.07	1084.37
382.44	1083.20
382.81	1087.88
383.18	1078.05
383.55	1075.71
383.92	1067.05
384.29	1064.01
384.66	1048.33
385.03	1058.86
385.40	1061.67
385.77	1066.35
386.14	1065.41
386.51	1071.50
386.88	1060.03
387.25	1046.92
387.62	1053.24
387.99	1052.07
388.36	1059.79
388.73	1056.99
389.10	1070.33
389.46	1064.48
389.83	1067.75
390.20	1060.96
390.57	1069.86
390.94	1070.80
391.31	1076.41
391.68	1069.86
392.05	1073.60
392.42	1072.67
392.79	1082.26
393.16	1075.71
393.53	1074.54
393.89	1071.73
394.26	1073.14
394.63	1062.60
395.00	1071.26
395.37	1076.18
395.74	1082.26
396.11	1077.58
396.48	1074.31
396.84	1064.01
397.21	1059.09
397.58	1049.50
397.95	1051.60
398.32	1048.33
398.69	1044.82
399.06	1052.30
399.42	1057.45
399.79	1060.50
400.16	1074.54
400.53	1077.82
400.90	1084.60
401.27	1088.35
401.64	1084.14
402.00	1078.05
402.37	1080.63
402.74	1067.05
403.11	1070.80
403.48	1062.37
403.84	1066.11
404.21	1067.28
404.58	1074.31
404.95	1067.75
405.32	1076.65
405.68	1064.24
406.05	1065.41
406.42	1064.94
406.79	1059.09
407.16	1063.54
407.52	1068.69
407.89	1063.07
408.26	1064.71
408.63	1073.84
408.99	1070.09
409.36	1071.26
409.73	1081.56
410.10	1085.54
410.47	1085.07
410.83	1088.35
411.20	1092.33
411.57	1086.94
411.94	1078.05
412.30	1077.82
412.67	1067.52
413.04	1071.03
413.40	1073.60
413.77	1077.82
414.14	1086.01
414.51	1091.16
414.87	1081.33
415.24	1075.71
415.61	1071.73
415.97	1065.18
416.34	1067.75
416.71	1064.24
417.08	1064.94
417.44	1069.16
417.81	1061.43
418.18	1059.33
418.54	1063.07
418.91	1070.33
419.28	1060.50
419.64	1062.14
420.01	1066.82
420.38	1065.41
420.74	1061.43
421.11	1077.82
421.48	1077.35
421.84	1066.82
422.21	1070.80
422.58	1080.16
422.94	1073.84
423.31	1079.92
423.68	1092.33
424.04	1088.58
424.41	1087.88
424.77	1090.69
425.14	1079.69
425.51	1073.60
425.87	1067.99
426.24	1062.37
426.61	1056.75
426.97	1062.60
427.34	1066.11
427.70	1079.92
428.07	1071.26
428.44	1077.58
428.80	1077.35
429.17	1071.50
429.53	1070.09
429.90	1078.99
430.27	1078.75
430.63	1075.48
431.00	1079.92
431.36	1075.48
431.73	1067.52
432.09	1057.69
432.46	1067.52
432.83	1061.90
433.19	1062.14
433.56	1064.24
433.92	1069.62
434.29	1068.69
434.65	1075.48
435.02	1075.71
435.38	1083.20
435.75	1083.20
436.11	1078.28
436.48	1078.05
436.84	1088.58
437.21	1091.63
437.57	1089.05
437.94	1095.84
438.30	1090.92
438.67	1084.60
439.03	1077.82
439.40	1091.63
439.76	1092.56
440.13	1095.60
440.49	1087.18
440.86	1086.94
441.22	1074.54
441.59	1072.20
441.95	1075.01
442.32	1077.58
442.68	1076.18
443.05	1071.73
443.41	1076.41
443.78	1063.31
444.14	1063.77
444.51	1068.69
444.87	1082.03
445.24	1077.35
445.60	1096.78
445.96	1093.97
446.33	1094.43
446.69	1095.37
447.06	1095.37
447.42	1080.63
447.79	1085.31
448.15	1082.26
448.51	1072.90
448.88	1064.01
449.24	1075.94
449.61	1076.65
449.97	1078.52
450.33	1084.37
450.70	1096.07
451.06	1090.46
451.43	1094.20
451.79	1095.84
452.15	1094.20
452.52	1092.56
452.88	1094.90
453.24	1096.78
453.61	1096.07
453.97	1095.60
454.34	1095.60
454.70	1087.88
455.06	1082.50
455.43	1078.52
455.79	1067.28
456.15	1064.71
456.52	1077.82
456.88	1077.58
457.24	1083.90
457.61	1096.31
457.97	1092.80
458.33	1088.12
458.70	1084.84
459.06	1075.48
459.42	1074.07
459.79	1079.22
460.15	1072.20
460.51	1076.18
460.88	1081.33
461.24	1076.18
461.60	1075.71
461.96	1082.97
462.33	1080.86
462.69	1083.90
463.05	1081.80
463.42	1078.99
463.78	1075.48
464.14	1086.48
464.50	1079.92
464.87	1083.90
465.23	1083.20
465.59	1078.75
465.95	1068.92
466.32	1064.01
466.68	1068.69
467.04	1075.01
467.40	1076.88
467.77	1074.07
468.13	1080.16
468.49	1082.97
468.85	1080.39
469.22	1085.54
469.58	1098.88
469.94	1105.67
470.30	1103.80
470.66	1101.69
471.03	1088.82
471.39	1078.28
471.75	1071.73
472.11	1066.11
472.47	1063.07
472.84	1070.09
473.20	1065.41
473.56	1062.60
473.92	1058.62
474.28	1063.54
474.65	1072.20
475.01	1082.73
475.37	1079.22
475.73	1081.33
476.09	1074.54
476.45	1074.54
476.81	1069.62
477.18	1067.75
477.54	1069.62
477.90	1071.50
478.26	1058.39
478.62	1062.84
478.98	1070.56
479.34	1064.94
479.71	1059.79
480.07	1059.56
480.43	1050.20
480.79	1062.37
481.15	1076.65
481.51	1088.35
481.87	1099.35
482.23	1094.67
482.59	1081.56
482.96	1076.65
483.32	1075.24
483.68	1071.50
484.04	1082.26
484.40	1088.35
484.76	1077.82
485.12	1072.20
485.48	1070.33
485.84	1064.24
486.20	1051.60
486.56	1052.07
486.92	1060.50
487.28	1069.16
487.64	1060.03
488.00	1067.99
488.37	1078.99
488.73	1072.43
489.09	1069.86
489.45	1088.82
489.81	1088.82
490.17	1089.29
490.53	1082.50
490.89	1083.90
491.25	1073.37
491.61	1074.07
491.97	1064.01
492.33	1065.18
492.69	1051.37
493.05	1058.86
493.41	1053.01
493.77	1059.79
494.13	1068.92
494.49	1073.60
494.85	1070.33
495.21	1084.84
495.57	1091.16
495.93	1093.26
496.29	1099.82
496.64	1091.63
497.00	1086.24
497.36	1075.71
497.72	1073.37
498.08	1068.45
498.44	1080.86
498.80	1078.28
499.16	1081.33
499.52	1082.03
499.88	1089.05
500.24	1089.29
500.60	1093.03
500.96	1094.20
501.32	1091.86
501.68	1092.80
502.03	1089.05
502.39	1088.58
502.75	1095.84
503.11	1089.29
503.47	1090.46
503.83	1087.18
504.19	1081.80
504.55	1065.41
504.91	1074.77
505.26	1074.31
505.62	1079.92
505.98	1079.46
506.34	1083.90
506.70	1075.94
507.06	1072.43
507.42	1069.39
507.78	1071.97
508.13	1072.20
508.49	1076.18
508.85	1080.16
509.21	1086.24
509.57	1084.84
509.93	1086.94
510.28	1086.01
510.64	1084.84
511.00	1073.14
511.36	1079.46
511.72	1085.54
512.07	1093.03
512.43	1092.56
512.79	1099.58
513.15	1094.90
513.51	1091.16
513.86	1079.46
514.22	1080.39
514.58	1083.20
514.94	1084.37
515.30	1083.67
515.65	1090.69
516.01	1084.14
516.37	1079.69
516.73	1085.31
517.08	1088.82
517.44	1083.90
517.80	1079.69
518.16	1078.52
518.51	1070.33
518.87	1067.28
519.23	1068.45
519.59	1087.88
519.94	1093.50
520.30	1094.90
520.66	1091.16
521.01	1094.67
521.37	1080.86
521.73	1074.07
522.09	1074.77
522.44	1079.92
522.80	1078.99
523.16	1084.37
523.51	1095.37
523.87	1095.60
524.23	1095.84
524.58	1092.09
524.94	1089.99
525.30	1085.77
525.65	1087.18
526.01	1085.07
526.37	1089.29
526.72	1082.50
527.08	1083.43
527.44	1085.07
527.79	1090.46
528.15	1091.16
528.51	1100.99
528.86	1095.84
529.22	1089.99
529.58	1088.35
529.93	1084.84
530.29	1070.80
530.65	1082.50
531.00	1089.52
531.36	1090.69
531.71	1091.63
532.07	1101.69
532.43	1083.43
532.78	1080.86
533.14	1089.75
533.49	1096.78
533.85	1106.37
534.21	1112.69
534.56	1110.82
534.92	1098.41
535.27	1098.18
535.63	1092.56
535.98	1092.80
536.34	1089.75
536.69	1087.41
537.05	1082.73
537.41	1080.39
537.76	1088.35
538.12	1098.18
538.47	1097.24
538.83	1099.12
539.18	1101.69
539.54	1104.26
539.89	1100.05
540.25	1107.31
540.60	1104.73
540.96	1099.82
541.31	1094.43
541.67	1099.35
542.02	1098.18
542.38	1097.48
542.73	1095.84
543.09	1093.03
543.44	1084.84
543.80	1074.31
544.15	1072.67
544.51	1080.86
544.86	1083.43
545.22	1099.82
545.57	1106.84
545.93	1108.48
546.28	1101.22
546.64	1100.52
546.99	1085.31
547.35	1078.75
547.70	1073.60
548.05	1073.37
548.41	1077.58
548.76	1072.90
549.12	1084.14
549.47	1088.35
549.83	1088.58
550.18	1084.14
550.53	1089.99
550.89	1088.12
551.24	1093.50
551.60	1097.01
551.95	1098.41
552.30	1087.65
552.66	1084.37
553.01	1082.73
553.37	1075.94
553.72	1063.54
554.07	1069.39
554.43	1077.35
554.78	1081.80
555.13	1074.07
555.49	1075.71
555.84	1081.09
556.19	1078.28
556.55	1074.07
556.90	1089.05
557.26	1096.07
557.61	1085.07
557.96	1086.48
558.32	1082.73
558.67	1075.48
559.02	1076.88
559.37	1081.80
559.73	1074.54
560.08	1078.52
560.43	1081.33
560.79	1082.03
561.14	1094.43
561.49	1096.07
561.85	1092.56
562.20	1092.56
562.55	1090.46
562.90	1086.01
563.26	1092.33
563.61	1098.18
563.96	1097.95
564.32	1097.95
564.67	1086.24
565.02	1078.05
565.37	1071.73
565.73	1081.80
566.08	1083.43
566.43	1073.84
566.78	1073.84
567.14	1078.75
567.49	1067.28
567.84	1075.48
568.19	1092.09
568.54	1090.92
568.90	1087.41
569.25	1097.95
569.60	1091.63
569.95	1094.90
570.31	1099.58
570.66	1098.41
571.01	1083.90
571.36	1066.82
571.71	1060.50
572.06	1053.94
572.42	1046.92
572.77	1046.69
573.12	1049.26
573.47	1043.18
573.82	1058.39
574.18	1069.62
574.53	1079.69
574.88	1088.58
575.23	1101.92
575.58	1091.63
575.93	1095.60
576.28	1091.86
576.64	1103.80
576.99	1108.01
577.34	1111.05
577.69	1102.63
578.04	1098.88
578.39	1087.65
578.74	1077.11
579.09	1065.88
579.44	1072.20
579.80	1074.77
580.15	1065.65
580.50	1063.77
580.85	1068.69
581.20	1060.03
581.55	1062.14
581.90	1067.05
582.25	1071.97
582.60	1076.41
582.95	1080.39
583.30	1078.05
583.65	1080.63
584.00	1086.48
584.35	1084.84
584.71	1085.31
585.06	1088.35
585.41	1091.16
585.76	1079.69
586.11	1082.73
586.46	1079.69
586.81	1075.01
587.16	1072.67
587.51	1071.73
587.86	1067.28
588.21	1073.14
588.56	1073.60
588.91	1075.01
589.26	1085.07
589.61	1083.20
589.96	1077.58
590.31	1079.22
590.66	1081.56
591.01	1079.22
591.36	1089.29
591.71	1082.97
592.06	1073.37
592.41	1082.26
592.76	1074.54
593.10	1060.73
593.45	1065.41
593.80	1073.37
594.15	1057.69
594.50	1060.26
594.85	1065.88
595.20	1069.62
595.55	1070.56
595.90	1072.20
596.25	1078.28
596.60	1081.33
596.95	1083.90
597.30	1088.82
597.64	1142.42
597.99	1143.59
598.34	1145.46
598.69	1143.35
599.04	1140.31
599.39	1093.50
599.74	1089.05
600.09	1081.33
600.44	1083.43
600.78	1076.18
601.13	1071.26
601.48	1071.26
601.83	1075.48
602.18	1077.11
602.53	1079.92
602.88	1083.20
603.22	1073.84
603.57	1070.09
603.92	1067.52
604.27	1074.31
604.62	1070.09
604.97	1078.99
605.31	1079.22
605.66	1084.37
606.01	1084.37
606.36	1087.65
606.71	1094.20
607.05	1091.63
607.40	1095.37
607.75	1086.01
608.10	1079.92
608.44	1072.20
608.79	1075.48
609.14	1068.22
609.49	1080.39
609.84	1080.39
610.18	1087.88
610.53	1098.88
610.88	1097.71
611.23	1094.90
611.57	1100.75
611.92	1096.54
612.27	1088.35
612.62	1086.24
612.96	1095.14
613.31	1102.86
613.66	1107.54
614.00	1111.52
614.35	1113.86
614.70	1104.26
615.05	1097.24
615.39	1094.90
615.74	1086.24
616.09	1092.80
616.43	1092.56
616.78	1087.41
617.13	1080.39
617.47	1084.14
617.82	1078.52
618.17	1071.73
618.51	1081.80
618.86	1092.09
619.21	1095.14
619.55	1087.18
619.90	1097.24
620.25	1095.14
620.59	1089.99
620.94	1082.50
621.29	1085.77
621.63	1086.01
621.98	1077.11
622.32	1077.82
622.67	1083.43
623.02	1079.46
623.36	1070.80
623.71	1074.07
624.05	1073.14
624.40	1071.26
624.75	1082.73
625.09	1095.84
625.44	1098.41
625.78	1104.26
626.13	1102.86
626.48	1094.90
626.82	1092.33
627.17	1098.88
627.51	1092.80
627.86	1092.09
628.20	1101.46
628.55	1096.78
628.89	1094.67
629.24	1094.20
629.58	1095.37
629.93	1089.52
630.28	1091.63
630.62	1089.75
630.97	1085.77
631.31	1096.07
631.66	1093.26
632.00	1090.46
632.35	1083.43
632.69	1082.26
633.04	1078.99
633.38	1084.14
633.73	1082.03
634.07	1092.56
634.42	1100.29
634.76	1090.46
635.11	1088.35
635.45	1086.01
635.79	1080.39
636.14	1077.11
636.48	1078.05
636.83	1081.56
637.17	1076.18
637.52	1079.69
637.86	1081.80
638.21	1083.20
638.55	1079.69
638.89	1090.22
639.24	1091.16
639.58	1089.52
639.93	1100.29
640.27	1096.78
640.61	1086.48
640.96	1082.73
641.30	1083.67
641.65	1071.03
641.99	1076.41
642.33	1092.56
642.68	1105.44
643.02	1107.07
643.37	1109.18
643.71	1103.09
644.05	1099.12
644.40	1086.94
644.74	1086.48
645.08	1090.92
645.43	1085.07
645.77	1083.43
646.11	1074.77
646.46	1083.90
646.80	1086.01
647.14	1096.07
647.49	1098.41
647.83	1093.97
648.17	1082.26
648.52	1075.71
648.86	1068.92
649.20	1067.28
649.55	1077.58
649.89	1078.28
650.23	1079.46
650.57	1084.60
650.92	1086.71
651.26	1087.88
651.60	1083.20
651.95	1075.01
652.29	1077.82
652.63	1074.54
652.97	1075.94
653.32	1086.48
653.66	1087.88
654.00	1071.03
654.34	1071.26
654.69	1065.18
655.03	1059.33
655.37	1073.14
655.71	1089.52
656.05	1089.99
656.40	1089.29
656.74	1087.65
657.08	1081.80
657.42	1084.37
657.76	1073.60
658.11	1078.05
658.45	1072.20
658.79	1072.20
659.13	1055.82
659.47	1056.52
659.82	1058.16
660.16	1067.28
660.50	1072.43
660.84	1084.14
661.18	1086.94
661.52	1081.80
661.87	1086.48
662.21	1082.50
662.55	1083.90
662.89	1100.52
663.23	1103.80
663.57	1089.52
663.91	1089.29
664.25	1076.88
664.60	1052.30
664.94	1049.50
665.28	1056.52
665.62	1065.65
665.96	1080.86
666.30	1084.60
666.64	1084.84
666.98	1080.16
667.32	1066.58
667.66	1060.73
668.01	1067.75
668.35	1073.37
668.69	1087.18
669.03	1088.82
669.37	1098.88
669.71	1107.07
670.05	1105.20
670.39	1102.86
670.73	1105.44
671.07	1093.03
671.41	1093.97
671.75	1087.18
672.09	1084.14
672.43	1073.37
672.77	1080.86
673.11	1068.69
673.45	1079.46
673.79	1075.71
674.13	1090.69
674.47	1091.39
674.81	1092.56
675.15	1088.12
675.49	1083.90
675.83	1085.31
676.17	1080.86
676.51	1084.14
676.85	1076.18
677.19	1080.16
677.53	1073.84
677.87	1064.48
678.21	1063.77
678.55	1070.33
678.89	1076.65
679.23	1074.54
679.57	1090.46
679.90	1087.18
680.24	1090.46
680.58	1091.63
680.92	1092.09
681.26	1084.14
681.60	1097.48
681.94	1091.63
682.28	1077.82
682.62	1081.56
682.96	1087.18
683.29	1068.92
683.63	1078.75
683.97	1083.67
684.31	1084.14
684.65	1079.46
684.99	1089.29
685.33	1086.24
685.67	1087.18
686.00	1081.09
686.34	1081.80
686.68	1079.22
687.02	1073.14
687.36	1076.41
687.70	1081.80
688.03	1077.82
688.37	1069.62
688.71	1076.65
689.05	1070.33
689.39	1070.33
689.72	1070.80
690.06	1080.39
690.40	1065.41
690.74	1073.14
691.08	1071.03
691.41	1075.48
691.75	1073.60
692.09	1081.33
692.43	1076.65
692.76	1071.50
693.10	1064.71
693.44	1064.94
693.78	1073.60
694.11	1069.86
694.45	1080.86
694.79	1086.71
695.13	1082.03
695.46	1085.31
695.80	1090.46
696.14	1077.58
696.48	1074.07
696.81	1072.43
697.15	1064.24
697.49	1064.24
697.82	1078.05
698.16	1083.43
698.50	1091.39
698.83	1085.54
699.17	1090.69
699.51	1084.84
699.84	1082.50
700.18	1075.94
700.52	1082.73
700.85	1071.03
701.19	1067.52
701.53	1062.37
701.86	1072.90
702.20	1070.09
702.54	1085.77
702.87	1096.54
703.21	1101.69
703.55	1099.12
703.88	1100.75
704.22	1089.52
704.55	1089.75
704.89	1089.99
705.23	1082.50
705.56	1086.48
705.90	1091.63
706.23	1086.01
706.57	1095.37
706.91	1101.92
707.24	1094.67
707.58	1089.29
707.91	1085.54
708.25	1077.82
708.58	1074.77
708.92	1075.01
709.26	1083.20
709.59	1078.75
709.93	1074.07
710.26	1061.90
710.60	1056.99
710.93	1045.75
711.27	1051.37
711.60	1052.54
711.94	1064.24
712.27	1067.52
712.61	1063.77
712.94	1058.62
713.28	1054.41
713.61	1064.48
713.95	1054.88
714.28	1066.58
714.62	1069.86
714.95	1078.75
715.29	1069.39
715.62	1089.52
715.96	1087.65
716.29	1087.41
716.63	1086.94
716.96	1079.92
717.29	1065.65
717.63	1065.88
717.96	1060.50
718.30	1054.65
718.63	1063.31
718.97	1078.05
719.30	1079.92
719.63	1081.80
719.97	1083.20
720.30	1081.33
720.64	1079.46
720.97	1078.99
721.30	1086.71
721.64	1088.12
721.97	1086.94
722.31	1078.75
722.64	1066.82
722.97	1072.67
723.31	1078.28
723.64	1088.12
723.97	1089.29
724.31	1097.71
724.64	1097.48
724.98	1093.50
725.31	1079.22
725.64	1073.84
725.98	1074.77
726.31	1064.94
726.64	1063.07
726.97	1073.84
727.31	1074.77
727.64	1083.90
727.97	1090.69
728.31	1089.75
728.64	1078.75
728.97	1090.22
729.31	1081.80
729.64	1082.03
729.97	1085.31
730.30	1087.88
730.64	1075.48
730.97	1069.16
731.30	1064.24
731.63	1060.03
731.97	1070.33
732.30	1082.03
732.63	1085.07
732.96	1079.46
733.30	1081.09
733.63	1078.28
733.96	1072.20
734.29	1068.69
734.63	1069.39
734.96	1068.45
735.29	1057.69
735.62	1055.82
735.95	1057.22
736.29	1057.92
736.62	1066.11
736.95	1079.46
737.28	1083.43
737.61	1084.37
737.94	1086.94
738.28	1072.67
738.61	1065.88
738.94	1065.18
739.27	1073.14
739.60	1084.84
739.93	1097.48
740.27	1097.01
740.60	1089.29
740.93	1090.22
741.26	1081.80
741.59	1070.33
741.92	1077.35
742.25	1078.52
742.58	1071.26
742.91	1070.80
743.25	1081.33
743.58	1076.65
743.91	1088.82
744.24	1104.50
744.57	1105.20
744.90	1106.14
745.23	1102.86
745.56	1092.80
745.89	1069.39
746.22	1056.05
746.55	1062.60
746.88	1062.60
747.21	1068.69
747.54	1078.75
747.87	1089.99
748.20	1062.60
748.53	1064.01
748.87	1065.18
749.20	1061.67
749.53	1063.31
749.86	1075.01
750.19	1072.90
750.52	1075.01
750.85	1070.09
751.18	1074.07
751.51	1071.97
751.84	1078.05
752.16	1072.20
752.49	1086.24
752.82	1086.71
753.15	1099.35
753.48	1098.41
753.81	1095.37
754.14	1092.80
754.47	1089.99
754.80	1089.99
755.13	1087.65
755.46	1097.24
755.79	1093.26
756.12	1096.54
756.45	1086.24
756.78	1080.39
757.11	1072.67
757.43	1075.24
757.76	1069.16
758.09	1080.86
758.42	1087.65
758.75	1086.24
759.08	1078.99
759.41	1076.88
759.74	1068.69
760.07	1070.33
760.39	1075.94
760.72	1078.75
761.05	1078.28
761.38	1079.22
761.71	1082.03
762.04	1079.46
762.36	1079.22
762.69	1084.84
763.02	1081.33
763.35	1075.24
763.68	1072.90
764.01	1077.82
764.33	1075.48
764.66	1078.05
764.99	1088.35
765.32	1098.65
765.65	1097.71
765.97	1099.35
766.30	1096.54
