SpectraSuite Data File
++++++++++++++++++++++++++++++++++++
Date: Mon Aug 26 10:25:49 PDT 2019
User: corrico
Dark Spectrum Present: No
Reference Spectrum Present: No
Number of Sampled Component Spectra: 1
Spectrometers: USB2+H06089
Integration Time (usec): 10000 (USB2+H06089)
Spectra Averaged: 2 (USB2+H06089)
Boxcar Smoothing: 2 (USB2+H06089)
Correct for Electrical Dark: No (USB2+H06089)
Strobe/Lamp Enabled: No (USB2+H06089)
Correct for Detector Non-linearity: No (USB2+H06089)
Correct for Stray Light: No (USB2+H06089)
Number of Pixels in Processed Spectrum: 2048
>>>>>Begin Processed Spectral Data<<<<<
339.70	1028.67
340.07	1028.67
340.45	1003.62
340.82	980.45
341.19	956.11
341.57	932.70
341.94	918.89
342.31	902.51
342.69	910.00
343.06	915.15
343.43	907.43
343.81	909.53
344.18	917.49
344.55	918.43
344.93	920.53
345.30	930.13
345.67	938.55
346.04	942.07
346.42	946.51
346.79	947.68
347.16	967.11
347.54	979.28
347.91	992.86
348.28	995.90
348.65	1013.69
349.03	1007.37
349.40	1008.54
349.77	1016.73
350.14	1021.41
350.52	1014.39
350.89	1026.79
351.26	1035.22
351.63	1031.94
352.01	1034.05
352.38	1040.37
352.75	1040.60
353.12	1045.99
353.50	1054.41
353.87	1062.84
354.24	1059.79
354.61	1069.39
354.98	1071.26
355.36	1068.45
355.73	1077.82
356.10	1092.09
356.47	1088.58
356.84	1084.60
357.22	1090.69
357.59	1083.67
357.96	1084.84
358.33	1081.56
358.70	1075.01
359.08	1064.01
359.45	1057.69
359.82	1050.43
360.19	1053.48
360.56	1065.65
360.94	1067.28
361.31	1074.54
361.68	1076.88
362.05	1072.43
362.42	1064.48
362.79	1061.43
363.16	1057.22
363.54	1050.67
363.91	1043.64
364.28	1050.90
364.65	1048.33
365.02	1052.07
365.39	1059.79
365.76	1069.86
366.14	1062.60
366.51	1074.77
366.88	1077.82
367.25	1079.22
367.62	1076.41
367.99	1078.75
368.36	1080.63
368.73	1071.26
369.10	1071.97
369.48	1083.67
369.85	1084.14
370.22	1081.33
370.59	1085.54
370.96	1087.18
371.33	1081.80
371.70	1084.37
372.07	1084.14
372.44	1084.14
372.81	1082.03
373.18	1074.31
373.55	1068.92
373.93	1063.77
374.30	1055.82
374.67	1048.56
375.04	1050.20
375.41	1041.30
375.78	1042.24
376.15	1049.50
376.52	1052.77
376.89	1056.75
377.26	1065.18
377.63	1061.43
378.00	1061.67
378.37	1064.48
378.74	1055.58
379.11	1058.16
379.48	1066.58
379.85	1068.92
380.22	1073.14
380.59	1076.18
380.96	1074.07
381.33	1068.69
381.70	1060.96
382.07	1067.52
382.44	1066.58
382.81	1064.94
383.18	1075.48
383.55	1091.16
383.92	1085.54
384.29	1093.03
384.66	1098.18
385.03	1095.14
385.40	1089.99
385.77	1080.63
386.14	1079.46
386.51	1078.52
386.88	1065.88
387.25	1063.31
387.62	1071.73
387.99	1073.14
388.36	1072.43
388.73	1078.52
389.10	1077.35
389.46	1072.20
389.83	1068.69
390.20	1067.28
390.57	1070.56
390.94	1061.67
391.31	1057.45
391.68	1059.79
392.05	1069.39
392.42	1065.18
392.79	1067.99
393.16	1068.92
393.53	1067.05
393.89	1062.84
394.26	1068.69
394.63	1072.90
395.00	1076.41
395.37	1075.01
395.74	1072.20
396.11	1067.05
396.48	1066.35
396.84	1071.73
397.21	1073.60
397.58	1071.73
397.95	1079.69
398.32	1085.54
398.69	1076.88
399.06	1078.52
399.42	1085.77
399.79	1080.39
400.16	1078.99
400.53	1084.60
400.90	1085.31
401.27	1089.05
401.64	1089.52
402.00	1094.43
402.37	1096.31
402.74	1095.84
403.11	1077.82
403.48	1082.97
403.84	1068.22
404.21	1066.58
404.58	1065.65
404.95	1073.37
405.32	1063.54
405.68	1066.82
406.05	1056.75
406.42	1052.30
406.79	1053.94
407.16	1054.41
407.52	1060.50
407.89	1061.90
408.26	1063.54
408.63	1059.09
408.99	1061.43
409.36	1064.48
409.73	1076.41
410.10	1081.80
410.47	1091.39
410.83	1091.16
411.20	1081.56
411.57	1075.71
411.94	1081.33
412.30	1075.94
412.67	1075.24
413.04	1069.16
413.40	1064.94
413.77	1054.88
414.14	1047.86
414.51	1050.90
414.87	1053.01
415.24	1052.30
415.61	1058.62
415.97	1069.39
416.34	1075.94
416.71	1081.33
417.08	1088.82
417.44	1085.07
417.81	1081.33
418.18	1074.77
418.54	1077.35
418.91	1077.82
419.28	1075.24
419.64	1076.65
420.01	1080.39
420.38	1084.37
420.74	1080.63
421.11	1085.07
421.48	1089.29
421.84	1084.37
422.21	1087.41
422.58	1086.24
422.94	1081.56
423.31	1074.54
423.68	1085.07
424.04	1080.16
424.41	1080.39
424.77	1083.20
425.14	1086.24
425.51	1079.92
425.87	1077.58
426.24	1080.16
426.61	1083.43
426.97	1075.01
427.34	1060.03
427.70	1073.37
428.07	1076.88
428.44	1073.60
428.80	1075.01
429.17	1084.60
429.53	1075.94
429.90	1074.54
430.27	1075.24
430.63	1078.99
431.00	1088.82
431.36	1079.22
431.73	1074.31
432.09	1065.88
432.46	1070.56
432.83	1058.16
433.19	1068.92
433.56	1071.50
433.92	1071.26
434.29	1068.92
434.65	1082.50
435.02	1075.24
435.38	1084.37
435.75	1090.92
436.11	1089.99
436.48	1084.84
436.84	1089.99
437.21	1077.82
437.57	1084.37
437.94	1078.28
438.30	1072.43
438.67	1073.37
439.03	1072.90
439.40	1060.26
439.76	1070.33
440.13	1069.39
440.49	1066.58
440.86	1071.50
441.22	1076.65
441.59	1065.18
441.95	1069.16
442.32	1071.03
442.68	1069.39
443.05	1067.28
443.41	1071.97
443.78	1069.39
444.14	1074.31
444.51	1075.48
444.87	1085.07
445.24	1088.12
445.60	1096.31
445.96	1091.63
446.33	1085.31
446.69	1085.07
447.06	1082.03
447.42	1077.35
447.79	1066.35
448.15	1070.80
448.51	1070.80
448.88	1071.03
449.24	1064.48
449.61	1082.50
449.97	1078.05
450.33	1073.84
450.70	1075.48
451.06	1077.58
451.43	1071.03
451.79	1085.07
452.15	1087.18
452.52	1082.97
452.88	1085.07
453.24	1077.82
453.61	1072.43
453.97	1076.65
454.34	1084.37
454.70	1087.65
455.06	1079.92
455.43	1070.80
455.79	1060.96
456.15	1056.99
456.52	1055.58
456.88	1066.82
457.24	1083.67
457.61	1087.88
457.97	1092.33
458.33	1086.94
458.70	1081.56
459.06	1069.16
459.42	1069.62
459.79	1062.60
460.15	1064.01
460.51	1069.39
460.88	1071.97
461.24	1070.56
461.60	1080.16
461.96	1093.26
462.33	1095.37
462.69	1099.12
463.05	1093.97
463.42	1088.58
463.78	1075.71
464.14	1078.99
464.50	1078.28
464.87	1084.37
465.23	1086.48
465.59	1095.37
465.95	1094.67
466.32	1089.52
466.68	1086.71
467.04	1091.39
467.40	1094.90
467.77	1089.52
468.13	1084.60
468.49	1090.22
468.85	1088.35
469.22	1080.16
469.58	1078.05
469.94	1081.80
470.30	1077.35
470.66	1070.80
471.03	1065.65
471.39	1071.26
471.75	1070.09
472.11	1075.48
472.47	1076.41
472.84	1086.48
473.20	1082.97
473.56	1080.16
473.92	1079.69
474.28	1081.33
474.65	1071.50
475.01	1071.97
475.37	1067.75
475.73	1068.45
476.09	1068.92
476.45	1071.26
476.81	1066.82
477.18	1082.50
477.54	1083.67
477.90	1074.77
478.26	1069.39
478.62	1077.11
478.98	1065.88
479.34	1058.86
479.71	1063.77
480.07	1083.20
480.43	1080.63
480.79	1083.20
481.15	1077.82
481.51	1080.16
481.87	1074.54
482.23	1078.28
482.59	1079.69
482.96	1088.58
483.32	1093.50
483.68	1083.67
484.04	1082.73
484.40	1091.86
484.76	1090.69
485.12	1084.37
485.48	1090.92
485.84	1083.67
486.20	1075.71
486.56	1066.35
486.92	1067.52
487.28	1058.86
487.64	1065.65
488.00	1062.14
488.37	1070.56
488.73	1068.22
489.09	1077.35
489.45	1075.94
489.81	1085.31
490.17	1088.58
490.53	1097.71
490.89	1087.88
491.25	1095.84
491.61	1087.18
491.97	1085.54
492.33	1082.73
492.69	1099.82
493.05	1102.16
493.41	1111.99
493.77	1116.44
494.13	1122.99
494.49	1105.67
494.85	1094.90
495.21	1081.56
495.57	1070.56
495.93	1070.56
496.29	1080.39
496.64	1080.86
497.00	1094.43
497.36	1098.18
497.72	1087.18
498.08	1079.69
498.44	1084.14
498.80	1073.84
499.16	1077.82
499.52	1078.75
499.88	1090.92
500.24	1083.43
500.60	1077.58
500.96	1067.05
501.32	1076.65
501.68	1064.24
502.03	1068.45
502.39	1076.88
502.75	1081.80
503.11	1075.24
503.47	1076.41
503.83	1067.28
504.19	1062.37
504.55	1066.11
504.91	1069.39
505.26	1064.48
505.62	1070.09
505.98	1079.46
506.34	1083.90
506.70	1082.50
507.06	1091.63
507.42	1095.60
507.78	1085.77
508.13	1075.71
508.49	1077.11
508.85	1071.97
509.21	1074.54
509.57	1080.39
509.93	1085.54
510.28	1079.92
510.64	1085.54
511.00	1085.54
511.36	1081.80
511.72	1082.50
512.07	1079.92
512.43	1078.28
512.79	1078.05
513.15	1086.71
513.51	1089.29
513.86	1088.58
514.22	1085.54
514.58	1077.35
514.94	1075.71
515.30	1072.90
515.65	1078.52
516.01	1078.99
516.37	1085.07
516.73	1084.84
517.08	1082.50
517.44	1085.77
517.80	1101.46
518.16	1106.61
518.51	1100.75
518.87	1099.82
519.23	1099.35
519.59	1086.94
519.94	1080.86
520.30	1080.16
520.66	1086.24
521.01	1086.24
521.37	1082.03
521.73	1081.09
522.09	1083.20
522.44	1079.69
522.80	1078.52
523.16	1076.65
523.51	1074.54
523.87	1073.14
524.23	1068.45
524.58	1067.75
524.94	1075.01
525.30	1080.86
525.65	1085.07
526.01	1087.41
526.37	1091.16
526.72	1097.24
527.08	1096.78
527.44	1097.48
527.79	1098.65
528.15	1085.31
528.51	1083.20
528.86	1082.03
529.22	1071.26
529.58	1066.82
529.93	1075.01
530.29	1066.58
530.65	1060.73
531.00	1070.80
531.36	1071.97
531.71	1071.97
532.07	1077.11
532.43	1079.69
532.78	1078.99
533.14	1075.01
533.49	1078.05
533.85	1077.11
534.21	1082.03
534.56	1080.63
534.92	1095.14
535.27	1090.92
535.63	1108.71
535.98	1107.07
536.34	1100.99
536.69	1091.16
537.05	1094.67
537.41	1076.65
537.76	1068.92
538.12	1078.52
538.47	1084.37
538.83	1085.77
539.18	1081.80
539.54	1088.82
539.89	1082.73
540.25	1082.97
540.60	1074.07
540.96	1082.97
541.31	1081.56
541.67	1092.09
542.02	1091.63
542.38	1099.35
542.73	1097.95
543.09	1088.12
543.44	1077.58
543.80	1070.33
544.15	1062.37
544.51	1055.35
544.86	1064.48
545.22	1071.50
545.57	1071.97
545.93	1071.73
546.28	1075.24
546.64	1075.01
546.99	1072.67
547.35	1080.86
547.70	1083.43
548.05	1086.01
548.41	1086.48
548.76	1093.03
549.12	1093.73
549.47	1094.90
549.83	1104.26
550.18	1104.03
550.53	1100.05
550.89	1094.20
551.24	1099.58
551.60	1078.75
551.95	1079.69
552.30	1081.33
552.66	1082.26
553.01	1078.05
553.37	1087.41
553.72	1097.71
554.07	1092.09
554.43	1099.58
554.78	1097.71
555.13	1095.37
555.49	1075.94
555.84	1071.73
556.19	1055.82
556.55	1055.82
556.90	1057.22
557.26	1068.22
557.61	1083.43
557.96	1103.56
558.32	1110.35
558.67	1111.52
559.02	1104.26
559.37	1091.39
559.73	1092.09
560.08	1096.54
560.43	1096.78
560.79	1097.71
561.14	1095.84
561.49	1088.12
561.85	1076.88
562.20	1077.11
562.55	1084.14
562.90	1090.46
563.26	1091.39
563.61	1097.71
563.96	1099.12
564.32	1094.20
564.67	1092.56
565.02	1079.46
565.37	1072.90
565.73	1071.26
566.08	1071.03
566.43	1061.67
566.78	1064.24
567.14	1065.88
567.49	1061.20
567.84	1062.37
568.19	1064.94
568.54	1067.28
568.90	1066.35
569.25	1062.60
569.60	1062.60
569.95	1068.22
570.31	1075.71
570.66	1080.39
571.01	1090.22
571.36	1097.01
571.71	1102.16
572.06	1101.92
572.42	1106.84
572.77	1105.90
573.12	1098.41
573.47	1092.33
573.82	1092.09
574.18	1079.22
574.53	1078.52
574.88	1080.16
575.23	1075.71
575.58	1061.20
575.93	1061.67
576.28	1062.60
576.64	1062.14
576.99	1066.11
577.34	1078.99
577.69	1083.90
578.04	1075.71
578.39	1076.88
578.74	1086.48
579.09	1082.50
579.44	1080.63
579.80	1077.35
580.15	1078.28
580.50	1068.45
580.85	1073.60
581.20	1074.77
581.55	1086.94
581.90	1081.80
582.25	1088.12
582.60	1087.41
582.95	1084.14
583.30	1088.82
583.65	1097.71
584.00	1096.31
584.35	1097.71
584.71	1100.29
585.06	1091.16
585.41	1084.84
585.76	1071.03
586.11	1066.58
586.46	1071.97
586.81	1079.22
587.16	1073.84
587.51	1089.75
587.86	1092.56
588.21	1090.46
588.56	1082.26
588.91	1096.31
589.26	1090.46
589.61	1078.99
589.96	1070.33
590.31	1080.39
590.66	1075.24
591.01	1077.35
591.36	1085.77
591.71	1086.94
592.06	1073.37
592.41	1078.75
592.76	1086.01
593.10	1095.37
593.45	1098.41
593.80	1096.78
594.15	1085.54
594.50	1075.94
594.85	1066.35
595.20	1078.05
595.55	1085.07
595.90	1097.24
596.25	1101.69
596.60	1101.22
596.95	1086.71
597.30	1091.16
597.64	1131.65
597.99	1139.37
598.34	1149.20
598.69	1153.42
599.04	1156.22
599.39	1110.35
599.74	1102.39
600.09	1092.80
600.44	1089.52
600.78	1080.39
601.13	1079.46
601.48	1077.11
601.83	1068.45
602.18	1065.88
602.53	1072.20
602.88	1063.07
603.22	1066.11
603.57	1072.20
603.92	1085.07
604.27	1075.94
604.62	1083.20
604.97	1075.71
605.31	1085.77
605.66	1078.05
606.01	1082.50
606.36	1078.52
606.71	1082.03
607.05	1087.41
607.40	1089.05
607.75	1097.95
608.10	1108.48
608.44	1107.54
608.79	1099.12
609.14	1092.33
609.49	1086.24
609.84	1078.75
610.18	1091.63
610.53	1091.39
610.88	1104.03
611.23	1112.46
611.57	1108.01
611.92	1099.82
612.27	1100.29
612.62	1093.03
612.96	1087.65
613.31	1092.80
613.66	1092.56
614.00	1088.35
614.35	1086.71
614.70	1085.07
615.05	1083.43
615.39	1085.31
615.74	1080.39
616.09	1079.92
616.43	1073.60
616.78	1062.14
617.13	1057.22
617.47	1055.58
617.82	1050.90
618.17	1051.37
618.51	1060.50
618.86	1058.62
619.21	1055.82
619.55	1055.35
619.90	1058.86
620.25	1056.05
620.59	1062.84
620.94	1072.67
621.29	1081.56
621.63	1078.75
621.98	1088.82
622.32	1086.48
622.67	1082.97
623.02	1073.37
623.36	1079.69
623.71	1075.94
624.05	1071.03
624.40	1069.62
624.75	1088.58
625.09	1081.33
625.44	1080.16
625.78	1081.56
626.13	1082.26
626.48	1069.86
626.82	1067.28
627.17	1072.67
627.51	1064.94
627.86	1061.90
628.20	1067.99
628.55	1080.63
628.89	1080.16
629.24	1090.22
629.58	1098.18
629.93	1103.09
630.28	1097.71
630.62	1095.37
630.97	1097.71
631.31	1098.88
631.66	1087.65
632.00	1088.35
632.35	1083.67
632.69	1084.37
633.04	1084.60
633.38	1091.86
633.73	1087.41
634.07	1093.26
634.42	1086.94
634.76	1084.84
635.11	1086.94
635.45	1082.97
635.79	1083.67
636.14	1086.01
636.48	1084.37
636.83	1079.69
637.17	1088.58
637.52	1081.56
637.86	1074.54
638.21	1071.97
638.55	1077.35
638.89	1075.24
639.24	1079.46
639.58	1077.35
639.93	1080.86
640.27	1079.69
640.61	1065.65
640.96	1057.92
641.30	1067.52
641.65	1059.33
641.99	1050.43
642.33	1064.01
642.68	1070.33
643.02	1064.01
643.37	1071.97
643.71	1078.05
644.05	1078.28
644.40	1082.50
644.74	1090.69
645.08	1091.39
645.43	1083.20
645.77	1085.77
646.11	1092.80
646.46	1096.07
646.80	1099.12
647.14	1106.84
647.49	1109.41
647.83	1090.46
648.17	1079.69
648.52	1082.03
648.86	1078.28
649.20	1078.05
649.55	1084.14
649.89	1090.92
650.23	1085.07
650.57	1088.12
650.92	1084.84
651.26	1091.39
651.60	1080.39
651.95	1081.09
652.29	1077.58
652.63	1080.39
652.97	1071.50
653.32	1077.11
653.66	1078.99
654.00	1085.31
654.34	1071.26
654.69	1068.22
655.03	1074.77
655.37	1070.09
655.71	1056.99
656.05	1068.69
656.40	1080.86
656.74	1072.20
657.08	1074.31
657.42	1076.65
657.76	1073.14
658.11	1058.39
658.45	1066.11
658.79	1060.73
659.13	1071.50
659.47	1073.84
659.82	1087.18
660.16	1082.26
660.50	1089.99
660.84	1085.07
661.18	1081.80
661.52	1083.43
661.87	1092.80
662.21	1087.18
662.55	1084.60
662.89	1089.52
663.23	1080.86
663.57	1070.80
663.91	1073.84
664.25	1084.60
664.60	1085.31
664.94	1085.54
665.28	1090.69
665.62	1090.46
665.96	1078.52
666.30	1067.52
666.64	1075.48
666.98	1066.35
667.32	1061.43
667.66	1058.62
668.01	1067.99
668.35	1063.07
668.69	1066.11
669.03	1073.60
669.37	1091.86
669.71	1075.71
670.05	1083.67
670.39	1091.16
670.73	1090.22
671.07	1088.58
671.41	1095.84
671.75	1082.50
672.09	1084.14
672.43	1084.60
672.77	1083.43
673.11	1087.88
673.45	1094.20
673.79	1099.12
674.13	1099.58
674.47	1085.54
674.81	1084.84
675.15	1075.24
675.49	1068.45
675.83	1062.84
676.17	1059.33
676.51	1057.92
676.85	1062.60
677.19	1058.62
677.53	1053.24
677.87	1056.05
678.21	1066.82
678.55	1072.43
678.89	1070.33
679.23	1083.90
679.57	1086.01
679.90	1079.69
680.24	1080.86
680.58	1084.14
680.92	1073.84
681.26	1084.37
681.60	1089.75
681.94	1092.56
682.28	1096.31
682.62	1106.14
682.96	1084.14
683.29	1075.48
683.63	1071.03
683.97	1071.26
684.31	1073.60
684.65	1083.90
684.99	1095.14
685.33	1098.88
685.67	1089.52
686.00	1082.97
686.34	1085.54
686.68	1073.14
687.02	1066.11
687.36	1078.52
687.70	1083.90
688.03	1080.63
688.37	1095.14
688.71	1106.61
689.05	1099.35
689.39	1084.14
689.72	1093.97
690.06	1085.31
690.40	1080.16
690.74	1074.54
691.08	1079.22
691.41	1077.11
691.75	1060.73
692.09	1057.45
692.43	1066.58
692.76	1071.97
693.10	1073.37
693.44	1090.92
693.78	1092.09
694.11	1086.94
694.45	1082.26
694.79	1076.41
695.13	1066.11
695.46	1055.11
695.80	1055.11
696.14	1065.41
696.48	1076.65
696.81	1079.46
697.15	1089.29
697.49	1093.50
697.82	1082.97
698.16	1075.24
698.50	1083.67
698.83	1087.18
699.17	1090.69
699.51	1095.60
699.84	1099.35
700.18	1094.67
700.52	1093.97
700.85	1090.92
701.19	1091.86
701.53	1083.43
701.86	1086.01
702.20	1081.56
702.54	1063.77
702.87	1060.50
703.21	1073.14
703.55	1075.71
703.88	1079.22
704.22	1097.95
704.55	1100.29
704.89	1091.63
705.23	1087.18
705.56	1085.07
705.90	1084.14
706.23	1088.82
706.57	1082.73
706.91	1082.97
707.24	1087.88
707.58	1080.86
707.91	1076.41
708.25	1078.28
708.58	1082.03
708.92	1077.35
709.26	1077.82
709.59	1072.67
709.93	1072.20
710.26	1064.24
710.60	1060.96
710.93	1063.77
711.27	1071.03
711.60	1066.35
711.94	1073.14
712.27	1068.45
712.61	1059.56
712.94	1048.09
713.28	1052.07
713.61	1056.05
713.95	1069.39
714.28	1073.84
714.62	1079.46
714.95	1079.92
715.29	1077.11
715.62	1067.52
715.96	1083.67
716.29	1087.18
716.63	1088.12
716.96	1089.75
717.29	1099.82
717.63	1090.22
717.96	1083.20
718.30	1079.69
718.63	1067.99
718.97	1066.82
719.30	1065.88
719.63	1074.54
719.97	1078.28
720.30	1079.69
720.64	1077.82
720.97	1070.33
721.30	1061.90
721.64	1068.22
721.97	1075.48
722.31	1080.16
722.64	1092.09
722.97	1098.65
723.31	1098.18
723.64	1097.24
723.97	1091.63
724.31	1079.22
724.64	1072.90
724.98	1067.75
725.31	1057.45
725.64	1063.31
725.98	1070.09
726.31	1074.07
726.64	1076.41
726.97	1086.71
727.31	1079.22
727.64	1086.48
727.97	1088.35
728.31	1084.14
728.64	1087.88
728.97	1095.14
729.31	1083.20
729.64	1091.86
729.97	1094.90
730.30	1083.90
730.64	1067.05
730.97	1071.97
731.30	1057.92
731.63	1062.14
731.97	1067.99
732.30	1079.69
732.63	1078.75
732.96	1085.31
733.30	1077.35
733.63	1081.33
733.96	1075.01
734.29	1078.52
734.63	1079.22
734.96	1074.31
735.29	1069.62
735.62	1067.28
735.95	1056.99
736.29	1051.84
736.62	1063.77
736.95	1061.20
737.28	1064.01
737.61	1079.92
737.94	1082.50
738.28	1087.41
738.61	1088.35
738.94	1089.52
739.27	1087.88
739.60	1084.14
739.93	1077.82
740.27	1074.77
740.60	1084.14
740.93	1072.20
741.26	1080.39
741.59	1079.69
741.92	1085.31
742.25	1071.26
742.58	1080.63
742.91	1084.60
743.25	1083.90
743.58	1071.73
743.91	1082.26
744.24	1078.05
744.57	1069.62
744.90	1075.71
745.23	1090.92
745.56	1085.54
745.89	1078.75
746.22	1078.99
746.55	1072.67
746.88	1061.43
747.21	1070.09
747.54	1076.41
747.87	1078.05
748.20	1080.63
748.53	1086.48
748.87	1085.07
749.20	1084.14
749.53	1084.37
749.86	1084.37
750.19	1077.82
750.52	1072.43
750.85	1075.48
751.18	1077.35
751.51	1067.28
751.84	1073.84
752.16	1074.77
752.49	1064.01
752.82	1045.99
753.15	1049.50
753.48	1049.73
753.81	1054.88
754.14	1054.65
754.47	1076.65
754.80	1080.86
755.13	1076.65
755.46	1074.31
755.79	1085.31
756.12	1083.43
756.45	1094.20
756.78	1101.69
757.11	1100.52
757.43	1098.65
757.76	1091.39
758.09	1081.09
758.42	1078.75
758.75	1087.88
759.08	1092.33
759.41	1094.20
759.74	1088.58
760.07	1093.03
760.39	1077.58
760.72	1078.75
761.05	1084.84
761.38	1082.97
761.71	1095.60
762.04	1097.95
762.36	1089.75
762.69	1085.54
763.02	1089.99
763.35	1070.56
763.68	1076.18
764.01	1073.84
764.33	1076.88
764.66	1073.60
764.99	1075.48
765.32	1067.05
765.65	1075.24
765.97	1074.77
766.30	1089.99
