SpectraSuite Data File
++++++++++++++++++++++++++++++++++++
Date: Mon Aug 26 10:25:50 PDT 2019
User: corrico
Dark Spectrum Present: No
Reference Spectrum Present: No
Number of Sampled Component Spectra: 1
Spectrometers: USB2+H06089
Integration Time (usec): 10000 (USB2+H06089)
Spectra Averaged: 2 (USB2+H06089)
Boxcar Smoothing: 2 (USB2+H06089)
Correct for Electrical Dark: No (USB2+H06089)
Strobe/Lamp Enabled: No (USB2+H06089)
Correct for Detector Non-linearity: No (USB2+H06089)
Correct for Stray Light: No (USB2+H06089)
Number of Pixels in Processed Spectrum: 2048
>>>>>Begin Processed Spectral Data<<<<<
339.70	1049.73
340.07	1049.73
340.45	1009.00
340.82	981.85
341.19	955.87
341.57	934.58
341.94	921.00
342.31	911.40
342.69	918.66
343.06	917.96
343.43	909.30
343.81	922.41
344.18	923.11
344.55	919.36
344.93	921.94
345.30	923.11
345.67	917.02
346.04	923.34
346.42	933.17
346.79	939.96
347.16	954.24
347.54	966.17
347.91	975.54
348.28	980.22
348.65	994.26
349.03	1008.54
349.40	1023.98
349.77	1031.01
350.14	1037.79
350.52	1035.92
350.89	1027.50
351.26	1022.58
351.63	1033.11
352.01	1037.09
352.38	1049.50
352.75	1062.14
353.12	1080.86
353.50	1082.50
353.87	1096.31
354.24	1091.39
354.61	1086.01
354.98	1083.20
355.36	1077.11
355.73	1077.35
356.10	1075.01
356.47	1075.24
356.84	1083.20
357.22	1093.73
357.59	1081.56
357.96	1081.33
358.33	1090.92
358.70	1075.48
359.08	1070.80
359.45	1069.16
359.82	1082.73
360.19	1077.58
360.56	1081.80
360.94	1075.24
361.31	1075.71
361.68	1071.97
362.05	1069.62
362.42	1062.84
362.79	1071.97
363.16	1069.39
363.54	1061.43
363.91	1074.07
364.28	1082.26
364.65	1083.20
365.02	1088.82
365.39	1092.56
365.76	1081.09
366.14	1068.92
366.51	1066.58
366.88	1061.20
367.25	1060.26
367.62	1058.86
367.99	1069.62
368.36	1073.60
368.73	1080.39
369.10	1076.18
369.48	1070.56
369.85	1062.37
370.22	1044.11
370.59	1038.50
370.96	1043.18
371.33	1054.18
371.70	1058.39
372.07	1064.71
372.44	1064.48
372.81	1067.99
373.18	1066.11
373.55	1071.97
373.93	1070.09
374.30	1076.18
374.67	1064.71
375.04	1069.39
375.41	1069.16
375.78	1071.26
376.15	1064.71
376.52	1076.18
376.89	1071.97
377.26	1062.60
377.63	1066.82
378.00	1070.33
378.37	1068.22
378.74	1069.62
379.11	1080.16
379.48	1084.37
379.85	1087.65
380.22	1079.22
380.59	1077.82
380.96	1071.26
381.33	1074.77
381.70	1061.90
382.07	1071.97
382.44	1074.07
382.81	1076.65
383.18	1064.01
383.55	1077.11
383.92	1070.33
384.29	1058.39
384.66	1055.58
385.03	1061.67
385.40	1057.45
385.77	1055.58
386.14	1060.73
386.51	1068.92
386.88	1068.69
387.25	1079.22
387.62	1088.35
387.99	1089.99
388.36	1089.52
388.73	1092.56
389.10	1086.48
389.46	1088.82
389.83	1082.03
390.20	1075.01
390.57	1072.67
390.94	1069.16
391.31	1060.03
391.68	1070.33
392.05	1073.84
392.42	1077.11
392.79	1071.03
393.16	1063.54
393.53	1065.18
393.89	1059.09
394.26	1051.37
394.63	1066.35
395.00	1080.63
395.37	1075.94
395.74	1080.39
396.11	1082.26
396.48	1070.80
396.84	1066.35
397.21	1075.24
397.58	1077.11
397.95	1091.63
398.32	1093.03
398.69	1087.41
399.06	1088.82
399.42	1088.35
399.79	1072.67
400.16	1079.22
400.53	1080.39
400.90	1073.84
401.27	1072.20
401.64	1072.20
402.00	1067.28
402.37	1080.63
402.74	1082.73
403.11	1081.09
403.48	1081.56
403.84	1077.58
404.21	1067.99
404.58	1067.05
404.95	1074.31
405.32	1073.14
405.68	1075.48
406.05	1068.92
406.42	1065.18
406.79	1053.94
407.16	1061.67
407.52	1062.60
407.89	1070.80
408.26	1073.60
408.63	1075.48
408.99	1078.05
409.36	1072.67
409.73	1070.80
410.10	1080.16
410.47	1082.73
410.83	1074.07
411.20	1087.88
411.57	1090.69
411.94	1081.80
412.30	1088.35
412.67	1100.75
413.04	1093.50
413.40	1097.48
413.77	1099.12
414.14	1098.65
414.51	1090.22
414.87	1089.52
415.24	1078.28
415.61	1073.37
415.97	1064.48
416.34	1057.69
416.71	1049.96
417.08	1060.03
417.44	1056.05
417.81	1055.11
418.18	1056.28
418.54	1068.69
418.91	1071.26
419.28	1082.97
419.64	1091.39
420.01	1092.80
420.38	1089.52
420.74	1086.71
421.11	1083.67
421.48	1078.28
421.84	1070.33
422.21	1072.43
422.58	1071.97
422.94	1068.92
423.31	1067.75
423.68	1084.37
424.04	1080.16
424.41	1075.94
424.77	1077.11
425.14	1088.58
425.51	1095.60
425.87	1085.77
426.24	1088.82
426.61	1084.14
426.97	1071.26
427.34	1052.77
427.70	1063.07
428.07	1064.01
428.44	1059.33
428.80	1062.14
429.17	1066.11
429.53	1074.77
429.90	1069.86
430.27	1076.18
430.63	1082.73
431.00	1080.39
431.36	1071.73
431.73	1077.11
432.09	1078.28
432.46	1069.62
432.83	1070.80
433.19	1075.24
433.56	1075.48
433.92	1075.71
434.29	1080.86
434.65	1082.50
435.02	1089.05
435.38	1082.97
435.75	1076.18
436.11	1082.03
436.48	1087.18
436.84	1086.01
437.21	1094.67
437.57	1109.41
437.94	1097.95
438.30	1095.37
438.67	1090.69
439.03	1085.07
439.40	1074.54
439.76	1089.52
440.13	1091.63
440.49	1088.58
440.86	1099.58
441.22	1109.18
441.59	1097.71
441.95	1094.90
442.32	1105.44
442.68	1093.50
443.05	1098.18
443.41	1097.01
443.78	1104.50
444.14	1104.03
444.51	1105.20
444.87	1104.03
445.24	1104.50
445.60	1104.03
445.96	1086.48
446.33	1094.90
446.69	1086.48
447.06	1085.54
447.42	1081.80
447.79	1092.80
448.15	1078.05
448.51	1070.56
448.88	1073.37
449.24	1072.20
449.61	1070.56
449.97	1081.09
450.33	1088.35
450.70	1092.33
451.06	1088.82
451.43	1083.43
451.79	1080.63
452.15	1073.60
452.52	1071.97
452.88	1076.41
453.24	1079.22
453.61	1072.20
453.97	1082.26
454.34	1075.01
454.70	1064.01
455.06	1073.14
455.43	1079.46
455.79	1081.56
456.15	1093.26
456.52	1096.31
456.88	1085.31
457.24	1083.90
457.61	1071.50
457.97	1064.48
458.33	1065.65
458.70	1058.86
459.06	1059.79
459.42	1063.07
459.79	1066.58
460.15	1071.73
460.51	1084.84
460.88	1078.28
461.24	1080.63
461.60	1073.14
461.96	1078.28
462.33	1072.90
462.69	1088.82
463.05	1091.63
463.42	1094.90
463.78	1084.14
464.14	1081.33
464.50	1075.24
464.87	1075.01
465.23	1070.33
465.59	1064.94
465.95	1072.20
466.32	1077.35
466.68	1085.54
467.04	1094.43
467.40	1105.44
467.77	1097.71
468.13	1086.24
468.49	1071.03
468.85	1066.82
469.22	1058.39
469.58	1067.28
469.94	1072.67
470.30	1084.60
470.66	1083.67
471.03	1092.80
471.39	1080.63
471.75	1074.77
472.11	1070.56
472.47	1074.07
472.84	1075.24
473.20	1082.50
473.56	1086.71
473.92	1073.84
474.28	1073.37
474.65	1075.24
475.01	1078.05
475.37	1076.65
475.73	1088.82
476.09	1082.26
476.45	1085.54
476.81	1092.33
477.18	1091.39
477.54	1091.39
477.90	1107.31
478.26	1100.05
478.62	1100.52
478.98	1096.07
479.34	1087.88
479.71	1086.94
480.07	1075.71
480.43	1061.90
480.79	1068.92
481.15	1071.50
481.51	1057.22
481.87	1065.18
482.23	1074.54
482.59	1071.26
482.96	1078.28
483.32	1086.71
483.68	1085.31
484.04	1083.67
484.40	1088.35
484.76	1077.58
485.12	1073.84
485.48	1081.33
485.84	1082.26
486.20	1085.54
486.56	1091.63
486.92	1084.84
487.28	1073.84
487.64	1081.80
488.00	1071.50
488.37	1064.48
488.73	1068.69
489.09	1074.31
489.45	1062.84
489.81	1069.86
490.17	1083.20
490.53	1078.99
490.89	1074.77
491.25	1067.75
491.61	1063.77
491.97	1064.71
492.33	1071.03
492.69	1074.07
493.05	1085.07
493.41	1081.56
493.77	1073.14
494.13	1071.50
494.49	1076.65
494.85	1064.94
495.21	1072.43
495.57	1076.41
495.93	1086.24
496.29	1085.31
496.64	1100.05
497.00	1088.58
497.36	1086.71
497.72	1081.56
498.08	1077.11
498.44	1073.14
498.80	1087.88
499.16	1088.82
499.52	1082.26
499.88	1079.46
500.24	1075.48
500.60	1077.82
500.96	1082.26
501.32	1085.07
501.68	1082.73
502.03	1089.29
502.39	1081.33
502.75	1070.56
503.11	1072.67
503.47	1080.86
503.83	1076.41
504.19	1075.71
504.55	1084.14
504.91	1092.80
505.26	1093.50
505.62	1097.71
505.98	1101.22
506.34	1100.52
506.70	1086.48
507.06	1074.07
507.42	1067.52
507.78	1060.50
508.13	1057.92
508.49	1057.22
508.85	1076.41
509.21	1071.26
509.57	1080.63
509.93	1078.52
510.28	1091.16
510.64	1085.77
511.00	1085.77
511.36	1089.05
511.72	1088.12
512.07	1070.09
512.43	1067.05
512.79	1074.77
513.15	1072.43
513.51	1070.80
513.86	1097.95
514.22	1098.65
514.58	1089.29
514.94	1083.43
515.30	1084.60
515.65	1061.90
516.01	1071.97
516.37	1087.41
516.73	1084.37
517.08	1086.94
517.44	1090.22
517.80	1079.22
518.16	1069.16
518.51	1072.90
518.87	1078.99
519.23	1088.82
519.59	1090.22
519.94	1100.29
520.30	1096.54
520.66	1084.37
521.01	1080.39
521.37	1081.33
521.73	1066.82
522.09	1071.97
522.44	1078.05
522.80	1080.16
523.16	1080.16
523.51	1079.46
523.87	1078.05
524.23	1075.24
524.58	1077.11
524.94	1069.39
525.30	1083.43
525.65	1089.52
526.01	1100.52
526.37	1094.90
526.72	1106.84
527.08	1098.65
527.44	1095.84
527.79	1095.84
528.15	1100.99
528.51	1099.58
528.86	1103.80
529.22	1109.18
529.58	1104.97
529.93	1099.58
530.29	1094.20
530.65	1092.33
531.00	1084.14
531.36	1079.92
531.71	1086.24
532.07	1088.12
532.43	1089.05
532.78	1091.63
533.14	1102.16
533.49	1089.99
533.85	1097.24
534.21	1098.41
534.56	1097.01
534.92	1089.05
535.27	1096.78
535.63	1095.84
535.98	1104.03
536.34	1104.97
536.69	1100.05
537.05	1098.18
537.41	1084.14
537.76	1073.84
538.12	1065.88
538.47	1068.45
538.83	1063.31
539.18	1068.45
539.54	1074.07
539.89	1078.52
540.25	1080.16
540.60	1085.54
540.96	1086.24
541.31	1079.69
541.67	1071.73
542.02	1080.86
542.38	1079.92
542.73	1081.09
543.09	1093.26
543.44	1112.22
543.80	1096.78
544.15	1100.52
544.51	1095.84
544.86	1088.35
545.22	1086.48
545.57	1092.56
545.93	1093.97
546.28	1100.75
546.64	1102.39
546.99	1095.84
547.35	1103.56
547.70	1099.12
548.05	1100.29
548.41	1095.37
548.76	1089.99
549.12	1088.12
549.47	1082.50
549.83	1071.97
550.18	1067.05
550.53	1067.28
550.89	1065.65
551.24	1075.71
551.60	1085.77
551.95	1090.92
552.30	1099.35
552.66	1097.95
553.01	1090.69
553.37	1089.05
553.72	1096.07
554.07	1098.41
554.43	1102.63
554.78	1120.65
555.13	1120.88
555.49	1123.46
555.84	1120.18
556.19	1117.61
556.55	1099.35
556.90	1100.52
557.26	1092.33
557.61	1086.71
557.96	1082.50
558.32	1088.12
558.67	1084.14
559.02	1078.28
559.37	1074.31
559.73	1075.71
560.08	1074.07
560.43	1076.88
560.79	1078.28
561.14	1093.03
561.49	1096.54
561.85	1097.24
562.20	1094.20
562.55	1087.65
562.90	1082.26
563.26	1075.48
563.61	1073.84
563.96	1070.56
564.32	1080.86
564.67	1077.11
565.02	1086.71
565.37	1086.48
565.73	1084.84
566.08	1086.01
566.43	1084.84
566.78	1074.07
567.14	1078.05
567.49	1084.37
567.84	1083.43
568.19	1078.99
568.54	1089.05
568.90	1088.58
569.25	1088.82
569.60	1077.58
569.95	1082.73
570.31	1077.82
570.66	1075.48
571.01	1078.05
571.36	1082.97
571.71	1081.56
572.06	1075.48
572.42	1070.33
572.77	1056.28
573.12	1068.45
573.47	1073.14
573.82	1073.84
574.18	1082.50
574.53	1099.82
574.88	1081.33
575.23	1082.50
575.58	1086.24
575.93	1079.22
576.28	1079.69
576.64	1105.44
576.99	1104.97
577.34	1100.29
577.69	1102.86
578.04	1094.67
578.39	1077.58
578.74	1070.56
579.09	1084.60
579.44	1086.71
579.80	1085.31
580.15	1086.01
580.50	1087.88
580.85	1073.84
581.20	1071.50
581.55	1069.39
581.90	1061.67
582.25	1061.43
582.60	1069.86
582.95	1067.75
583.30	1072.20
583.65	1087.65
584.00	1091.63
584.35	1092.80
584.71	1100.29
585.06	1100.52
585.41	1091.16
585.76	1085.07
586.11	1071.03
586.46	1069.16
586.81	1071.26
587.16	1067.99
587.51	1079.92
587.86	1090.69
588.21	1096.54
588.56	1096.07
588.91	1103.80
589.26	1098.65
589.61	1093.26
589.96	1083.43
590.31	1088.58
590.66	1084.60
591.01	1085.54
591.36	1086.71
591.71	1091.16
592.06	1089.52
592.41	1083.90
592.76	1082.50
593.10	1084.60
593.45	1080.16
593.80	1078.28
594.15	1088.58
594.50	1082.03
594.85	1085.31
595.20	1084.84
595.55	1075.24
595.90	1068.45
596.25	1079.46
596.60	1078.75
596.95	1077.82
597.30	1082.03
597.64	1135.63
597.99	1127.90
598.34	1127.90
598.69	1136.10
599.04	1142.18
599.39	1097.24
599.74	1097.24
600.09	1095.14
600.44	1091.86
600.78	1085.77
601.13	1076.41
601.48	1078.99
601.83	1077.58
602.18	1068.92
602.53	1071.73
602.88	1080.63
603.22	1072.43
603.57	1066.35
603.92	1079.92
604.27	1077.82
604.62	1070.56
604.97	1074.07
605.31	1073.37
605.66	1053.94
606.01	1061.67
606.36	1059.33
606.71	1060.03
607.05	1071.97
607.40	1082.50
607.75	1084.84
608.10	1091.16
608.44	1098.18
608.79	1093.03
609.14	1094.43
609.49	1093.26
609.84	1089.29
610.18	1090.46
610.53	1100.29
610.88	1121.12
611.23	1120.65
611.57	1122.52
611.92	1126.50
612.27	1119.01
612.62	1102.16
612.96	1089.05
613.31	1095.37
613.66	1083.67
614.00	1082.26
614.35	1078.05
614.70	1093.50
615.05	1094.90
615.39	1095.60
615.74	1104.73
616.09	1105.67
616.43	1085.54
616.78	1078.99
617.13	1082.73
617.47	1074.54
617.82	1072.20
618.17	1089.75
618.51	1091.63
618.86	1082.97
619.21	1080.39
619.55	1079.22
619.90	1071.73
620.25	1067.52
620.59	1075.24
620.94	1070.80
621.29	1074.77
621.63	1081.80
621.98	1089.75
622.32	1091.86
622.67	1104.50
623.02	1103.09
623.36	1104.97
623.71	1109.41
624.05	1102.86
624.40	1094.20
624.75	1088.58
625.09	1081.80
625.44	1072.43
625.78	1079.22
626.13	1083.90
626.48	1090.69
626.82	1091.39
627.17	1092.80
627.51	1093.26
627.86	1085.54
628.20	1081.80
628.55	1071.97
628.89	1070.80
629.24	1067.99
629.58	1078.05
629.93	1080.39
630.28	1092.09
630.62	1078.99
630.97	1077.82
631.31	1081.56
631.66	1075.71
632.00	1077.11
632.35	1089.29
632.69	1090.22
633.04	1080.39
633.38	1087.18
633.73	1080.39
634.07	1075.71
634.42	1071.97
634.76	1070.33
635.11	1070.80
635.45	1065.41
635.79	1061.90
636.14	1062.14
636.48	1070.33
636.83	1069.16
637.17	1081.80
637.52	1088.58
637.86	1090.92
638.21	1077.11
638.55	1079.46
638.89	1060.50
639.24	1062.14
639.58	1063.77
639.93	1065.88
640.27	1059.09
640.61	1071.50
640.96	1061.20
641.30	1068.45
641.65	1080.63
641.99	1076.65
642.33	1076.65
642.68	1083.67
643.02	1066.35
643.37	1064.48
643.71	1081.09
644.05	1076.41
644.40	1082.03
644.74	1100.99
645.08	1092.09
645.43	1076.88
645.77	1088.35
646.11	1089.05
646.46	1078.05
646.80	1088.82
647.14	1092.80
647.49	1086.94
647.83	1089.75
648.17	1087.41
648.52	1085.31
648.86	1089.52
649.20	1093.26
649.55	1085.77
649.89	1083.67
650.23	1083.43
650.57	1080.63
650.92	1072.43
651.26	1076.41
651.60	1073.84
651.95	1075.24
652.29	1072.20
652.63	1065.18
652.97	1063.77
653.32	1063.54
653.66	1058.16
654.00	1065.65
654.34	1081.56
654.69	1082.03
655.03	1089.75
655.37	1096.07
655.71	1089.05
656.05	1091.86
656.40	1096.31
656.74	1094.90
657.08	1087.65
657.42	1093.26
657.76	1085.77
658.11	1069.62
658.45	1060.73
658.79	1055.11
659.13	1051.13
659.47	1056.99
659.82	1067.99
660.16	1083.20
660.50	1093.73
660.84	1095.60
661.18	1084.84
661.52	1082.97
661.87	1078.75
662.21	1074.07
662.55	1064.48
662.89	1072.67
663.23	1078.28
663.57	1080.63
663.91	1084.14
664.25	1088.35
664.60	1087.18
664.94	1080.63
665.28	1075.24
665.62	1069.62
665.96	1079.22
666.30	1075.01
666.64	1069.16
666.98	1065.65
667.32	1069.86
667.66	1069.16
668.01	1072.43
668.35	1082.03
668.69	1085.31
669.03	1091.63
669.37	1084.84
669.71	1076.18
670.05	1070.33
670.39	1075.71
670.73	1063.31
671.07	1066.58
671.41	1076.88
671.75	1085.07
672.09	1074.54
672.43	1089.05
672.77	1089.52
673.11	1085.31
673.45	1076.18
673.79	1084.37
674.13	1069.62
674.47	1068.69
674.81	1071.03
675.15	1078.28
675.49	1083.20
675.83	1093.97
676.17	1098.41
676.51	1090.92
676.85	1086.24
677.19	1084.84
677.53	1075.24
677.87	1073.14
678.21	1080.86
678.55	1075.94
678.89	1071.97
679.23	1082.03
679.57	1076.41
679.90	1067.28
680.24	1076.65
680.58	1074.31
680.92	1074.54
681.26	1070.80
681.60	1079.46
681.94	1078.99
682.28	1084.84
682.62	1074.31
682.96	1088.82
683.29	1088.58
683.63	1082.97
683.97	1082.50
684.31	1088.35
684.65	1086.01
684.99	1081.33
685.33	1079.22
685.67	1071.73
686.00	1066.11
686.34	1062.37
686.68	1068.92
687.02	1072.90
687.36	1084.14
687.70	1083.20
688.03	1076.65
688.37	1072.43
688.71	1066.11
689.05	1056.75
689.39	1063.77
689.72	1065.41
690.06	1070.56
690.40	1085.31
690.74	1092.80
691.08	1091.86
691.41	1090.22
691.75	1083.20
692.09	1080.16
692.43	1072.90
692.76	1072.43
693.10	1081.56
693.44	1086.01
693.78	1084.37
694.11	1081.80
694.45	1075.48
694.79	1075.24
695.13	1075.48
695.46	1076.65
695.80	1076.88
696.14	1083.43
696.48	1079.46
696.81	1069.16
697.15	1056.52
697.49	1056.05
697.82	1053.48
698.16	1053.71
698.50	1054.18
698.83	1060.96
699.17	1068.45
699.51	1067.28
699.84	1075.24
700.18	1075.48
700.52	1082.03
700.85	1078.28
701.19	1080.39
701.53	1075.48
701.86	1079.22
702.20	1066.11
702.54	1060.26
702.87	1057.22
703.21	1056.99
703.55	1072.43
703.88	1081.56
704.22	1092.80
704.55	1104.73
704.89	1101.69
705.23	1100.05
705.56	1107.07
705.90	1097.71
706.23	1098.18
706.57	1106.61
706.91	1104.26
707.24	1097.95
707.58	1108.71
707.91	1106.61
708.25	1104.73
708.58	1095.84
708.92	1089.52
709.26	1089.29
709.59	1087.88
709.93	1084.60
710.26	1089.29
710.60	1093.03
710.93	1087.41
711.27	1077.35
711.60	1072.43
711.94	1069.62
712.27	1066.58
712.61	1073.37
712.94	1077.82
713.28	1077.58
713.61	1075.01
713.95	1078.99
714.28	1081.09
714.62	1084.84
714.95	1097.71
715.29	1104.26
715.62	1099.35
715.96	1091.86
716.29	1094.90
716.63	1082.50
716.96	1081.56
717.29	1087.88
717.63	1084.60
717.96	1068.92
718.30	1076.65
718.63	1074.07
718.97	1065.88
719.30	1066.58
719.63	1073.37
719.97	1068.45
720.30	1069.39
720.64	1085.54
720.97	1077.82
721.30	1075.94
721.64	1074.31
721.97	1074.31
722.31	1064.48
722.64	1075.24
722.97	1092.09
723.31	1095.14
723.64	1093.03
723.97	1098.88
724.31	1098.18
724.64	1093.26
724.98	1087.18
725.31	1080.39
725.64	1072.20
725.98	1078.05
726.31	1072.20
726.64	1072.67
726.97	1077.82
727.31	1081.80
727.64	1071.73
727.97	1068.22
728.31	1075.71
728.64	1080.16
728.97	1078.05
729.31	1083.90
729.64	1082.03
729.97	1080.39
730.30	1083.20
730.64	1089.29
730.97	1089.29
731.30	1089.29
731.63	1093.50
731.97	1091.16
732.30	1082.73
732.63	1083.90
732.96	1091.86
733.30	1087.18
733.63	1083.90
733.96	1089.75
734.29	1086.48
734.63	1074.77
734.96	1069.16
735.29	1074.31
735.62	1077.35
735.95	1066.82
736.29	1075.48
736.62	1081.80
736.95	1066.35
737.28	1055.11
737.61	1055.58
737.94	1055.82
738.28	1045.28
738.61	1054.41
738.94	1057.92
739.27	1067.28
739.60	1067.52
739.93	1076.18
740.27	1080.86
740.60	1091.39
740.93	1096.07
741.26	1089.05
741.59	1089.05
741.92	1088.12
742.25	1074.54
742.58	1072.43
742.91	1076.18
743.25	1077.82
743.58	1072.90
743.91	1078.28
744.24	1075.01
744.57	1067.99
744.90	1069.86
745.23	1078.05
745.56	1069.62
745.89	1064.71
746.22	1082.03
746.55	1067.99
746.88	1065.18
747.21	1067.28
747.54	1066.11
747.87	1052.54
748.20	1070.33
748.53	1074.07
748.87	1084.37
749.20	1093.03
749.53	1107.54
749.86	1095.84
750.19	1086.71
750.52	1081.33
750.85	1081.09
751.18	1068.22
751.51	1071.97
751.84	1071.73
752.16	1068.45
752.49	1064.24
752.82	1069.62
753.15	1073.84
753.48	1081.80
753.81	1080.16
754.14	1073.60
754.47	1070.56
754.80	1065.65
755.13	1066.35
755.46	1070.33
755.79	1066.58
756.12	1083.20
756.45	1087.41
756.78	1085.54
757.11	1093.26
757.43	1099.35
757.76	1077.35
758.09	1072.43
758.42	1056.05
758.75	1049.73
759.08	1051.13
759.41	1055.82
759.74	1048.33
760.07	1057.45
760.39	1061.90
760.72	1067.75
761.05	1068.22
761.38	1074.31
761.71	1076.18
762.04	1069.86
762.36	1068.45
762.69	1067.99
763.02	1071.97
763.35	1073.37
763.68	1075.01
764.01	1076.65
764.33	1076.41
764.66	1075.01
764.99	1074.77
765.32	1069.16
765.65	1067.99
765.97	1076.65
766.30	1075.71
