SpectraSuite Data File
++++++++++++++++++++++++++++++++++++
Date: Mon Aug 26 10:25:51 PDT 2019
User: corrico
Dark Spectrum Present: No
Reference Spectrum Present: No
Number of Sampled Component Spectra: 1
Spectrometers: USB2+H06089
Integration Time (usec): 10000 (USB2+H06089)
Spectra Averaged: 2 (USB2+H06089)
Boxcar Smoothing: 2 (USB2+H06089)
Correct for Electrical Dark: No (USB2+H06089)
Strobe/Lamp Enabled: No (USB2+H06089)
Correct for Detector Non-linearity: No (USB2+H06089)
Correct for Stray Light: No (USB2+H06089)
Number of Pixels in Processed Spectrum: 2048
>>>>>Begin Processed Spectral Data<<<<<
339.70	1035.69
340.07	1035.69
340.45	996.37
340.82	979.05
341.19	951.90
341.57	918.43
341.94	911.64
342.31	900.40
342.69	880.98
343.06	885.19
343.43	891.04
343.81	886.13
344.18	886.59
344.55	899.94
344.93	904.62
345.30	910.70
345.67	917.96
346.04	931.07
346.42	936.92
346.79	937.38
347.16	949.32
347.54	957.05
347.91	967.81
348.28	980.92
348.65	1001.28
349.03	1006.66
349.40	1020.47
349.77	1035.69
350.14	1038.03
350.52	1031.71
350.89	1037.79
351.26	1045.05
351.63	1042.94
352.01	1044.35
352.38	1050.90
352.75	1059.56
353.12	1057.45
353.50	1062.60
353.87	1063.07
354.24	1065.18
354.61	1056.75
354.98	1053.24
355.36	1054.88
355.73	1063.54
356.10	1066.82
356.47	1067.52
356.84	1078.28
357.22	1077.58
357.59	1079.69
357.96	1078.05
358.33	1082.73
358.70	1078.05
359.08	1071.03
359.45	1067.75
359.82	1068.69
360.19	1072.90
360.56	1072.90
360.94	1070.80
361.31	1074.77
361.68	1074.54
362.05	1070.33
362.42	1066.58
362.79	1066.35
363.16	1061.67
363.54	1064.01
363.91	1062.37
364.28	1068.22
364.65	1064.71
365.02	1059.33
365.39	1055.82
365.76	1045.05
366.14	1034.05
366.51	1040.13
366.88	1040.37
367.25	1047.62
367.62	1068.69
367.99	1077.82
368.36	1077.35
368.73	1078.99
369.10	1070.09
369.48	1061.90
369.85	1053.94
370.22	1061.20
370.59	1067.99
370.96	1072.90
371.33	1077.35
371.70	1086.71
372.07	1068.92
372.44	1063.31
372.81	1071.03
373.18	1062.60
373.55	1045.52
373.93	1053.94
374.30	1059.79
374.67	1048.79
375.04	1051.84
375.41	1065.41
375.78	1075.71
376.15	1071.26
376.52	1072.90
376.89	1065.41
377.26	1069.39
377.63	1055.35
378.00	1059.79
378.37	1061.43
378.74	1070.56
379.11	1072.43
379.48	1086.01
379.85	1084.60
380.22	1088.12
380.59	1077.82
380.96	1068.92
381.33	1059.79
381.70	1061.67
382.07	1049.50
382.44	1061.43
382.81	1068.69
383.18	1075.01
383.55	1073.37
383.92	1078.75
384.29	1082.73
384.66	1077.11
385.03	1075.71
385.40	1081.80
385.77	1088.12
386.14	1088.58
386.51	1094.90
386.88	1102.16
387.25	1097.24
387.62	1089.52
387.99	1085.07
388.36	1078.75
388.73	1079.46
389.10	1086.24
389.46	1086.94
389.83	1087.88
390.20	1080.16
390.57	1073.84
390.94	1064.71
391.31	1061.43
391.68	1060.03
392.05	1069.16
392.42	1062.14
392.79	1056.52
393.16	1060.03
393.53	1054.18
393.89	1056.75
394.26	1062.37
394.63	1062.84
395.00	1062.14
395.37	1060.96
395.74	1064.71
396.11	1071.50
396.48	1078.75
396.84	1075.94
397.21	1080.86
397.58	1078.75
397.95	1071.03
398.32	1067.99
398.69	1076.65
399.06	1067.75
399.42	1061.90
399.79	1060.50
400.16	1055.82
400.53	1056.28
400.90	1060.03
401.27	1056.99
401.64	1063.31
402.00	1072.20
402.37	1068.45
402.74	1069.86
403.11	1080.16
403.48	1076.65
403.84	1071.73
404.21	1069.86
404.58	1070.56
404.95	1073.60
405.32	1074.07
405.68	1075.48
406.05	1070.80
406.42	1071.97
406.79	1067.75
407.16	1070.56
407.52	1069.62
407.89	1073.14
408.26	1077.11
408.63	1073.37
408.99	1076.18
409.36	1070.80
409.73	1073.60
410.10	1071.50
410.47	1069.86
410.83	1065.41
411.20	1071.73
411.57	1068.45
411.94	1066.11
412.30	1065.65
412.67	1061.43
413.04	1062.37
413.40	1065.18
413.77	1070.33
414.14	1070.80
414.51	1079.92
414.87	1075.94
415.24	1077.82
415.61	1065.18
415.97	1070.33
416.34	1068.92
416.71	1064.94
417.08	1072.20
417.44	1076.18
417.81	1084.14
418.18	1076.65
418.54	1084.14
418.91	1068.69
419.28	1069.39
419.64	1054.18
420.01	1055.82
420.38	1062.60
420.74	1075.01
421.11	1078.99
421.48	1085.54
421.84	1086.01
422.21	1089.05
422.58	1082.50
422.94	1086.01
423.31	1094.43
423.68	1100.52
424.04	1095.84
424.41	1099.82
424.77	1092.56
425.14	1085.07
425.51	1080.39
425.87	1078.75
426.24	1083.67
426.61	1091.39
426.97	1098.18
427.34	1097.95
427.70	1090.46
428.07	1085.07
428.44	1079.22
428.80	1062.14
429.17	1067.05
429.53	1071.26
429.90	1061.90
430.27	1066.58
430.63	1083.20
431.00	1082.73
431.36	1076.18
431.73	1084.60
432.09	1092.09
432.46	1086.01
432.83	1080.63
433.19	1080.63
433.56	1082.50
433.92	1077.35
434.29	1069.86
434.65	1072.90
435.02	1081.33
435.38	1077.82
435.75	1078.05
436.11	1089.52
436.48	1094.90
436.84	1087.18
437.21	1082.26
437.57	1081.56
437.94	1072.43
438.30	1065.65
438.67	1071.03
439.03	1072.43
439.40	1071.26
439.76	1073.60
440.13	1073.37
440.49	1069.16
440.86	1067.75
441.22	1061.67
441.59	1070.09
441.95	1068.92
442.32	1082.50
442.68	1088.35
443.05	1092.80
443.41	1089.52
443.78	1090.22
444.14	1078.52
444.51	1086.24
444.87	1094.43
445.24	1086.24
445.60	1088.35
445.96	1090.69
446.33	1082.26
446.69	1075.94
447.06	1082.97
447.42	1080.16
447.79	1075.71
448.15	1078.99
448.51	1075.01
448.88	1074.31
449.24	1072.67
449.61	1082.50
449.97	1082.26
450.33	1080.63
450.70	1081.80
451.06	1083.90
451.43	1083.67
451.79	1075.24
452.15	1077.58
452.52	1071.03
452.88	1074.54
453.24	1071.50
453.61	1085.54
453.97	1093.97
454.34	1096.54
454.70	1091.86
455.06	1086.94
455.43	1068.92
455.79	1066.82
456.15	1065.65
456.52	1068.45
456.88	1068.69
457.24	1073.14
457.61	1057.45
457.97	1049.26
458.33	1050.43
458.70	1056.28
459.06	1062.37
459.42	1054.65
459.79	1067.75
460.15	1062.60
460.51	1067.75
460.88	1066.58
461.24	1094.90
461.60	1087.18
461.96	1095.37
462.33	1086.01
462.69	1093.50
463.05	1080.39
463.42	1089.52
463.78	1074.54
464.14	1072.20
464.50	1063.31
464.87	1072.67
465.23	1071.73
465.59	1073.60
465.95	1081.56
466.32	1082.26
466.68	1079.22
467.04	1072.90
467.40	1081.56
467.77	1072.67
468.13	1075.94
468.49	1069.16
468.85	1072.20
469.22	1062.37
469.58	1064.71
469.94	1062.37
470.30	1066.11
470.66	1063.31
471.03	1068.69
471.39	1069.16
471.75	1072.43
472.11	1076.65
472.47	1071.50
472.84	1074.07
473.20	1074.54
473.56	1070.09
473.92	1073.14
474.28	1085.31
474.65	1079.92
475.01	1075.71
475.37	1086.71
475.73	1083.67
476.09	1084.37
476.45	1096.07
476.81	1101.92
477.18	1095.84
477.54	1101.92
477.90	1096.31
478.26	1091.63
478.62	1092.56
478.98	1084.60
479.34	1071.03
479.71	1064.24
480.07	1055.58
480.43	1053.48
480.79	1056.99
481.15	1060.50
481.51	1065.18
481.87	1069.39
482.23	1074.77
482.59	1078.28
482.96	1077.11
483.32	1082.50
483.68	1094.43
484.04	1088.82
484.40	1091.39
484.76	1087.18
485.12	1079.92
485.48	1074.54
485.84	1068.69
486.20	1060.03
486.56	1065.65
486.92	1074.31
487.28	1072.43
487.64	1088.35
488.00	1093.73
488.37	1088.35
488.73	1084.14
489.09	1085.54
489.45	1083.43
489.81	1081.33
490.17	1081.80
490.53	1082.03
490.89	1076.88
491.25	1070.33
491.61	1076.41
491.97	1082.73
492.33	1083.67
492.69	1079.69
493.05	1068.92
493.41	1055.11
493.77	1048.09
494.13	1040.84
494.49	1057.45
494.85	1063.54
495.21	1071.03
495.57	1062.37
495.93	1066.11
496.29	1050.20
496.64	1052.77
497.00	1052.07
497.36	1059.56
497.72	1061.90
498.08	1064.01
498.44	1065.18
498.80	1067.05
499.16	1079.92
499.52	1071.50
499.88	1077.35
500.24	1064.01
500.60	1067.28
500.96	1061.20
501.32	1076.88
501.68	1071.03
502.03	1085.54
502.39	1076.18
502.75	1075.48
503.11	1065.41
503.47	1076.41
503.83	1082.26
504.19	1086.94
504.55	1085.77
504.91	1087.88
505.26	1083.20
505.62	1081.33
505.98	1081.33
506.34	1087.18
506.70	1091.39
507.06	1084.14
507.42	1082.26
507.78	1081.56
508.13	1076.18
508.49	1078.75
508.85	1086.24
509.21	1075.24
509.57	1067.52
509.93	1070.09
510.28	1073.14
510.64	1069.39
511.00	1079.92
511.36	1081.80
511.72	1084.60
512.07	1072.43
512.43	1068.45
512.79	1067.52
513.15	1072.90
513.51	1072.43
513.86	1070.56
514.22	1069.39
514.58	1079.69
514.94	1085.31
515.30	1094.67
515.65	1108.95
516.01	1115.73
516.37	1099.12
516.73	1106.61
517.08	1100.52
517.44	1098.88
517.80	1102.16
518.16	1111.05
518.51	1097.48
518.87	1092.09
519.23	1087.88
519.59	1088.58
519.94	1088.12
520.30	1084.60
520.66	1092.56
521.01	1095.84
521.37	1090.69
521.73	1093.03
522.09	1100.75
522.44	1087.41
522.80	1086.94
523.16	1093.03
523.51	1088.82
523.87	1094.20
524.23	1098.88
524.58	1097.24
524.94	1094.20
525.30	1086.94
525.65	1093.03
526.01	1096.54
526.37	1092.33
526.72	1097.95
527.08	1112.46
527.44	1110.35
527.79	1116.67
528.15	1118.54
528.51	1112.69
528.86	1114.56
529.22	1111.75
529.58	1098.41
529.93	1089.29
530.29	1091.86
530.65	1085.31
531.00	1075.48
531.36	1086.71
531.71	1098.88
532.07	1096.54
532.43	1089.75
532.78	1099.58
533.14	1093.26
533.49	1085.31
533.85	1086.24
534.21	1079.92
534.56	1074.07
534.92	1070.09
535.27	1072.67
535.63	1073.14
535.98	1086.48
536.34	1072.43
536.69	1077.82
537.05	1086.01
537.41	1087.65
537.76	1087.88
538.12	1098.18
538.47	1103.80
538.83	1097.24
539.18	1086.71
539.54	1085.77
539.89	1089.75
540.25	1086.01
540.60	1083.90
540.96	1095.14
541.31	1102.16
541.67	1096.78
542.02	1098.18
542.38	1103.09
542.73	1098.88
543.09	1085.07
543.44	1087.18
543.80	1093.26
544.15	1086.24
544.51	1088.35
544.86	1086.24
545.22	1091.63
545.57	1084.60
545.93	1089.99
546.28	1085.54
546.64	1092.09
546.99	1082.26
547.35	1078.99
547.70	1077.11
548.05	1073.37
548.41	1071.50
548.76	1080.16
549.12	1085.77
549.47	1091.63
549.83	1090.92
550.18	1096.54
550.53	1094.43
550.89	1085.77
551.24	1069.86
551.60	1084.84
551.95	1087.88
552.30	1096.54
552.66	1095.37
553.01	1107.07
553.37	1092.80
553.72	1079.46
554.07	1065.41
554.43	1060.50
554.78	1057.22
555.13	1063.54
555.49	1069.86
555.84	1069.39
556.19	1075.71
556.55	1072.90
556.90	1078.28
557.26	1077.82
557.61	1083.90
557.96	1087.41
558.32	1089.05
558.67	1081.80
559.02	1080.86
559.37	1081.56
559.73	1073.37
560.08	1076.18
560.43	1075.71
560.79	1076.41
561.14	1071.50
561.49	1075.71
561.85	1068.22
562.20	1072.67
562.55	1068.45
562.90	1071.50
563.26	1073.84
563.61	1074.77
563.96	1074.07
564.32	1075.24
564.67	1075.48
565.02	1075.94
565.37	1080.86
565.73	1078.05
566.08	1087.18
566.43	1094.43
566.78	1096.31
567.14	1103.33
567.49	1098.18
567.84	1096.78
568.19	1092.09
568.54	1078.28
568.90	1072.43
569.25	1076.18
569.60	1072.67
569.95	1067.52
570.31	1078.05
570.66	1080.39
571.01	1082.73
571.36	1078.28
571.71	1087.65
572.06	1082.03
572.42	1077.82
572.77	1078.99
573.12	1078.28
573.47	1078.52
573.82	1085.54
574.18	1084.84
574.53	1084.60
574.88	1089.52
575.23	1083.67
575.58	1082.03
575.93	1091.39
576.28	1090.69
576.64	1095.37
576.99	1094.67
577.34	1095.14
577.69	1087.65
578.04	1086.94
578.39	1072.90
578.74	1080.63
579.09	1092.33
579.44	1100.05
579.80	1099.82
580.15	1104.26
580.50	1087.65
580.85	1083.43
581.20	1071.73
581.55	1067.52
581.90	1066.82
582.25	1073.60
582.60	1061.67
582.95	1074.31
583.30	1076.65
583.65	1090.46
584.00	1099.58
584.35	1108.95
584.71	1104.50
585.06	1102.86
585.41	1089.29
585.76	1086.24
586.11	1078.99
586.46	1073.84
586.81	1083.43
587.16	1082.97
587.51	1080.39
587.86	1086.24
588.21	1094.20
588.56	1083.43
588.91	1091.63
589.26	1095.14
589.61	1087.88
589.96	1081.33
590.31	1087.18
590.66	1090.69
591.01	1078.52
591.36	1089.29
591.71	1092.09
592.06	1093.50
592.41	1089.75
592.76	1102.39
593.10	1086.71
593.45	1068.92
593.80	1058.86
594.15	1056.75
594.50	1059.79
594.85	1073.37
595.20	1081.33
595.55	1089.75
595.90	1087.65
596.25	1078.28
596.60	1075.24
596.95	1089.75
597.30	1085.07
597.64	1141.25
597.99	1151.08
598.34	1141.95
598.69	1130.71
599.04	1137.73
599.39	1074.07
599.74	1066.35
600.09	1066.82
600.44	1065.41
600.78	1067.52
601.13	1072.90
601.48	1072.20
601.83	1079.69
602.18	1083.20
602.53	1076.88
602.88	1082.26
603.22	1074.31
603.57	1076.18
603.92	1067.28
604.27	1060.96
604.62	1060.73
604.97	1065.65
605.31	1065.41
605.66	1071.50
606.01	1066.82
606.36	1067.28
606.71	1072.20
607.05	1075.24
607.40	1084.60
607.75	1101.69
608.10	1094.67
608.44	1098.88
608.79	1090.46
609.14	1084.14
609.49	1081.56
609.84	1086.94
610.18	1085.77
610.53	1098.65
610.88	1109.41
611.23	1109.65
611.57	1099.82
611.92	1088.35
612.27	1086.01
612.62	1081.80
612.96	1080.63
613.31	1095.14
613.66	1105.20
614.00	1095.37
614.35	1095.37
614.70	1097.01
615.05	1094.20
615.39	1084.37
615.74	1087.18
616.09	1086.24
616.43	1085.07
616.78	1081.33
617.13	1089.99
617.47	1083.67
617.82	1077.58
618.17	1071.03
618.51	1082.97
618.86	1080.39
619.21	1073.14
619.55	1072.20
619.90	1068.92
620.25	1063.54
620.59	1062.84
620.94	1083.20
621.29	1081.33
621.63	1088.82
621.98	1083.43
622.32	1083.43
622.67	1077.35
623.02	1085.31
623.36	1088.58
623.71	1097.24
624.05	1097.95
624.40	1101.22
624.75	1087.88
625.09	1088.12
625.44	1089.99
625.78	1090.92
626.13	1087.18
626.48	1098.65
626.82	1094.20
627.17	1091.39
627.51	1083.90
627.86	1075.01
628.20	1071.97
628.55	1077.11
628.89	1078.05
629.24	1093.97
629.58	1096.31
629.93	1104.26
630.28	1103.80
630.62	1100.99
630.97	1096.78
631.31	1103.09
631.66	1093.50
632.00	1100.52
632.35	1095.60
632.69	1093.97
633.04	1093.50
633.38	1088.58
633.73	1077.11
634.07	1076.65
634.42	1073.37
634.76	1081.80
635.11	1094.67
635.45	1089.75
635.79	1094.67
636.14	1087.65
636.48	1071.97
636.83	1065.18
637.17	1075.48
637.52	1069.39
637.86	1070.33
638.21	1082.97
638.55	1085.54
638.89	1078.05
639.24	1082.50
639.58	1094.90
639.93	1090.22
640.27	1084.84
640.61	1088.82
640.96	1088.58
641.30	1092.33
641.65	1094.20
641.99	1104.73
642.33	1097.71
642.68	1094.20
643.02	1073.37
643.37	1068.22
643.71	1069.62
644.05	1074.31
644.40	1074.54
644.74	1089.52
645.08	1089.05
645.43	1081.09
645.77	1076.65
646.11	1072.90
646.46	1059.56
646.80	1053.48
647.14	1046.92
647.49	1062.37
647.83	1066.58
648.17	1075.24
648.52	1079.22
648.86	1092.33
649.20	1087.41
649.55	1091.39
649.89	1088.35
650.23	1099.82
650.57	1096.54
650.92	1099.12
651.26	1100.99
651.60	1104.03
651.95	1091.63
652.29	1088.12
652.63	1073.37
652.97	1069.39
653.32	1065.65
653.66	1078.28
654.00	1068.22
654.34	1076.88
654.69	1075.94
655.03	1080.16
655.37	1076.65
655.71	1083.43
656.05	1079.92
656.40	1076.88
656.74	1072.20
657.08	1073.14
657.42	1082.26
657.76	1079.69
658.11	1076.18
658.45	1073.14
658.79	1076.65
659.13	1073.14
659.47	1084.84
659.82	1086.94
660.16	1084.37
660.50	1076.65
660.84	1075.24
661.18	1063.07
661.52	1066.58
661.87	1078.28
662.21	1078.52
662.55	1086.01
662.89	1087.41
663.23	1084.14
663.57	1078.05
663.91	1076.41
664.25	1067.75
664.60	1078.05
664.94	1072.90
665.28	1066.35
665.62	1063.31
665.96	1072.90
666.30	1071.73
666.64	1080.86
666.98	1092.80
667.32	1093.73
667.66	1084.84
668.01	1080.16
668.35	1078.52
668.69	1078.52
669.03	1076.18
669.37	1075.48
669.71	1071.26
670.05	1069.39
670.39	1067.75
670.73	1064.94
671.07	1070.33
671.41	1071.50
671.75	1070.56
672.09	1072.67
672.43	1087.88
672.77	1088.82
673.11	1105.44
673.45	1105.67
673.79	1100.52
674.13	1088.58
674.47	1080.16
674.81	1073.60
675.15	1066.82
675.49	1071.50
675.83	1090.46
676.17	1094.67
676.51	1089.29
676.85	1095.84
677.19	1097.71
677.53	1089.52
677.87	1093.97
678.21	1082.73
678.55	1096.78
678.89	1104.50
679.23	1096.31
679.57	1098.65
679.90	1109.65
680.24	1095.14
680.58	1096.54
680.92	1098.65
681.26	1101.92
681.60	1092.80
681.94	1095.14
682.28	1079.22
682.62	1081.56
682.96	1076.88
683.29	1080.86
683.63	1079.69
683.97	1093.26
684.31	1095.37
684.65	1093.50
684.99	1098.18
685.33	1091.63
685.67	1085.07
686.00	1088.82
686.34	1081.33
686.68	1073.84
687.02	1084.14
687.36	1079.92
687.70	1068.69
688.03	1070.80
688.37	1077.35
688.71	1073.14
689.05	1070.09
689.39	1065.88
689.72	1071.97
690.06	1067.99
690.40	1067.05
690.74	1070.33
691.08	1073.84
691.41	1064.94
691.75	1062.14
692.09	1066.11
692.43	1067.28
692.76	1075.48
693.10	1082.73
693.44	1093.73
693.78	1092.09
694.11	1082.97
694.45	1068.22
694.79	1075.48
695.13	1061.67
695.46	1065.88
695.80	1069.86
696.14	1083.67
696.48	1074.77
696.81	1093.97
697.15	1098.41
697.49	1097.95
697.82	1095.37
698.16	1097.24
698.50	1084.14
698.83	1064.71
699.17	1066.58
699.51	1054.41
699.84	1058.16
700.18	1068.22
700.52	1080.16
700.85	1078.05
701.19	1091.63
701.53	1084.84
701.86	1070.56
702.20	1064.71
702.54	1069.16
702.87	1068.22
703.21	1063.54
703.55	1069.62
703.88	1074.07
704.22	1070.33
704.55	1067.52
704.89	1079.46
705.23	1082.73
705.56	1081.33
705.90	1094.67
706.23	1094.20
706.57	1086.71
706.91	1085.31
707.24	1087.41
707.58	1081.56
707.91	1086.24
708.25	1081.80
708.58	1072.43
708.92	1070.80
709.26	1074.31
709.59	1061.90
709.93	1061.43
710.26	1073.37
710.60	1078.28
710.93	1074.31
711.27	1084.60
711.60	1092.56
711.94	1088.35
712.27	1084.14
712.61	1085.31
712.94	1082.73
713.28	1086.01
713.61	1085.54
713.95	1090.46
714.28	1084.14
714.62	1084.14
714.95	1085.07
715.29	1092.80
715.62	1089.52
715.96	1089.75
716.29	1090.92
716.63	1083.20
716.96	1071.97
717.29	1070.80
717.63	1068.22
717.96	1067.05
718.30	1074.31
718.63	1083.67
718.97	1095.14
719.30	1104.97
719.63	1097.24
719.97	1091.63
720.30	1082.50
720.64	1068.92
720.97	1064.48
721.30	1074.54
721.64	1075.48
721.97	1076.18
722.31	1071.73
722.64	1076.18
722.97	1078.99
723.31	1075.48
723.64	1081.33
723.97	1093.26
724.31	1082.26
724.64	1082.26
724.98	1077.58
725.31	1076.65
725.64	1072.20
725.98	1076.41
726.31	1065.41
726.64	1073.14
726.97	1079.46
727.31	1086.71
727.64	1087.18
727.97	1094.67
728.31	1092.09
728.64	1074.31
728.97	1063.77
729.31	1067.52
729.64	1071.50
729.97	1065.41
730.30	1076.88
730.64	1077.11
730.97	1071.26
731.30	1066.35
731.63	1066.82
731.97	1063.31
732.30	1063.31
732.63	1066.58
732.96	1066.82
733.30	1067.99
733.63	1062.37
733.96	1066.11
734.29	1069.62
734.63	1063.54
734.96	1065.41
735.29	1071.03
735.62	1068.92
735.95	1069.62
736.29	1082.03
736.62	1091.16
736.95	1087.88
737.28	1095.14
737.61	1089.75
737.94	1085.77
738.28	1078.75
738.61	1083.20
738.94	1083.43
739.27	1079.22
739.60	1087.41
739.93	1086.48
740.27	1083.90
740.60	1069.62
740.93	1071.50
741.26	1062.37
741.59	1054.41
741.92	1053.24
742.25	1064.48
742.58	1064.24
742.91	1062.14
743.25	1070.56
743.58	1082.03
743.91	1079.22
744.24	1083.20
744.57	1083.67
744.90	1091.39
745.23	1082.73
745.56	1087.65
745.89	1090.92
746.22	1090.69
746.55	1082.97
746.88	1090.22
747.21	1086.94
747.54	1086.01
747.87	1097.95
748.20	1103.56
748.53	1097.24
748.87	1102.16
749.20	1107.78
749.53	1100.05
749.86	1090.69
750.19	1090.46
750.52	1081.80
750.85	1072.43
751.18	1067.52
751.51	1082.26
751.84	1079.46
752.16	1087.65
752.49	1083.43
752.82	1082.03
753.15	1067.05
753.48	1075.24
753.81	1069.62
754.14	1072.20
754.47	1082.97
754.80	1090.22
755.13	1094.90
755.46	1091.86
755.79	1093.97
756.12	1090.46
756.45	1085.07
756.78	1075.24
757.11	1084.60
757.43	1079.69
757.76	1072.67
758.09	1079.92
758.42	1084.37
758.75	1071.97
759.08	1075.48
759.41	1068.69
759.74	1068.22
760.07	1056.05
760.39	1064.24
760.72	1060.50
761.05	1070.09
761.38	1067.75
761.71	1067.52
762.04	1065.65
762.36	1067.75
762.69	1070.56
763.02	1069.62
763.35	1077.82
763.68	1071.73
764.01	1069.16
764.33	1071.73
764.66	1075.01
764.99	1075.71
765.32	1083.67
765.65	1088.12
765.97	1081.33
766.30	1075.48
