SpectraSuite Data File
++++++++++++++++++++++++++++++++++++
Date: Mon Aug 26 10:25:53 PDT 2019
User: corrico
Dark Spectrum Present: No
Reference Spectrum Present: No
Number of Sampled Component Spectra: 1
Spectrometers: USB2+H06089
Integration Time (usec): 10000 (USB2+H06089)
Spectra Averaged: 2 (USB2+H06089)
Boxcar Smoothing: 2 (USB2+H06089)
Correct for Electrical Dark: No (USB2+H06089)
Strobe/Lamp Enabled: No (USB2+H06089)
Correct for Detector Non-linearity: No (USB2+H06089)
Correct for Stray Light: No (USB2+H06089)
Number of Pixels in Processed Spectrum: 2048
>>>>>Begin Processed Spectral Data<<<<<
339.70	998.24
340.07	998.24
340.45	974.83
340.82	956.58
341.19	940.90
341.57	920.30
341.94	915.38
342.31	914.21
342.69	911.40
343.06	904.85
343.43	905.79
343.81	907.66
344.18	903.91
344.55	899.47
344.93	896.89
345.30	910.23
345.67	913.98
346.04	924.28
346.42	943.00
346.79	964.53
347.16	956.81
347.54	964.77
347.91	970.62
348.28	981.15
348.65	987.94
349.03	1014.39
349.40	1021.64
349.77	1031.24
350.14	1038.50
350.52	1038.50
350.89	1036.39
351.26	1041.30
351.63	1048.79
352.01	1052.77
352.38	1063.31
352.75	1071.50
353.12	1082.03
353.50	1075.01
353.87	1076.65
354.24	1081.80
354.61	1077.82
354.98	1073.14
355.36	1079.69
355.73	1073.14
356.10	1069.16
356.47	1077.11
356.84	1079.69
357.22	1082.73
357.59	1082.50
357.96	1087.65
358.33	1077.58
358.70	1067.75
359.08	1067.28
359.45	1070.33
359.82	1056.05
360.19	1051.60
360.56	1055.82
360.94	1051.84
361.31	1050.67
361.68	1049.50
362.05	1049.96
362.42	1060.96
362.79	1058.86
363.16	1057.92
363.54	1070.33
363.91	1074.07
364.28	1066.11
364.65	1071.26
365.02	1082.73
365.39	1076.18
365.76	1074.31
366.14	1071.50
366.51	1068.92
366.88	1058.39
367.25	1071.26
367.62	1073.60
367.99	1075.71
368.36	1065.65
368.73	1071.97
369.10	1064.01
369.48	1067.28
369.85	1069.39
370.22	1083.90
370.59	1079.46
370.96	1078.75
371.33	1077.58
371.70	1068.22
372.07	1064.94
372.44	1069.86
372.81	1081.56
373.18	1086.24
373.55	1089.99
373.93	1087.88
374.30	1080.39
374.67	1076.41
375.04	1064.01
375.41	1060.03
375.78	1056.75
376.15	1059.79
376.52	1047.86
376.89	1050.90
377.26	1058.62
377.63	1061.43
378.00	1062.60
378.37	1064.24
378.74	1070.56
379.11	1070.80
379.48	1071.26
379.85	1065.18
380.22	1064.01
380.59	1059.33
380.96	1064.24
381.33	1075.01
381.70	1082.26
382.07	1085.54
382.44	1080.16
382.81	1082.50
383.18	1078.75
383.55	1077.82
383.92	1069.62
384.29	1083.90
384.66	1077.82
385.03	1072.67
385.40	1074.07
385.77	1077.82
386.14	1070.33
386.51	1064.48
386.88	1060.26
387.25	1064.01
387.62	1070.09
387.99	1075.71
388.36	1078.05
388.73	1075.94
389.10	1078.52
389.46	1078.28
389.83	1072.20
390.20	1074.31
390.57	1092.56
390.94	1079.22
391.31	1088.58
391.68	1100.52
392.05	1095.84
392.42	1086.71
392.79	1084.84
393.16	1068.69
393.53	1056.28
393.89	1060.26
394.26	1053.94
394.63	1056.75
395.00	1057.45
395.37	1066.35
395.74	1063.31
396.11	1065.88
396.48	1071.03
396.84	1081.80
397.21	1062.14
397.58	1066.11
397.95	1066.11
398.32	1059.33
398.69	1054.18
399.06	1065.65
399.42	1075.71
399.79	1076.18
400.16	1080.39
400.53	1076.18
400.90	1068.69
401.27	1060.73
401.64	1060.03
402.00	1058.62
402.37	1063.54
402.74	1075.01
403.11	1068.69
403.48	1074.31
403.84	1081.09
404.21	1085.31
404.58	1082.73
404.95	1093.03
405.32	1095.84
405.68	1093.50
406.05	1087.18
406.42	1087.18
406.79	1080.39
407.16	1068.22
407.52	1061.20
407.89	1063.77
408.26	1066.35
408.63	1071.26
408.99	1081.80
409.36	1088.35
409.73	1089.05
410.10	1082.03
410.47	1082.26
410.83	1066.82
411.20	1064.48
411.57	1061.43
411.94	1067.52
412.30	1057.45
412.67	1064.01
413.04	1072.43
413.40	1067.99
413.77	1067.52
414.14	1075.24
414.51	1071.73
414.87	1059.09
415.24	1067.99
415.61	1066.58
415.97	1067.99
416.34	1078.05
416.71	1089.05
417.08	1084.60
417.44	1076.41
417.81	1063.54
418.18	1058.39
418.54	1052.54
418.91	1057.22
419.28	1078.75
419.64	1090.46
420.01	1098.18
420.38	1094.43
420.74	1089.29
421.11	1077.58
421.48	1074.54
421.84	1072.67
422.21	1083.43
422.58	1087.41
422.94	1092.80
423.31	1086.94
423.68	1079.69
424.04	1066.35
424.41	1059.33
424.77	1054.65
425.14	1063.07
425.51	1068.92
425.87	1071.03
426.24	1071.73
426.61	1068.69
426.97	1063.31
427.34	1053.48
427.70	1061.20
428.07	1058.86
428.44	1070.09
428.80	1077.58
429.17	1086.24
429.53	1091.16
429.90	1098.88
430.27	1084.14
430.63	1077.35
431.00	1067.05
431.36	1055.11
431.73	1046.22
432.09	1050.67
432.46	1051.13
432.83	1062.60
433.19	1073.14
433.56	1077.35
433.92	1080.86
434.29	1083.20
434.65	1074.31
435.02	1071.50
435.38	1078.52
435.75	1074.77
436.11	1076.65
436.48	1082.26
436.84	1088.58
437.21	1075.71
437.57	1071.73
437.94	1078.52
438.30	1077.11
438.67	1072.43
439.03	1083.90
439.40	1088.58
439.76	1085.31
440.13	1083.43
440.49	1076.18
440.86	1081.09
441.22	1080.39
441.59	1077.82
441.95	1084.37
442.32	1084.84
442.68	1077.35
443.05	1079.69
443.41	1080.63
443.78	1083.20
444.14	1086.94
444.51	1088.35
444.87	1089.52
445.24	1093.97
445.60	1091.86
445.96	1085.07
446.33	1080.86
446.69	1076.88
447.06	1072.43
447.42	1069.16
447.79	1076.41
448.15	1076.18
448.51	1083.67
448.88	1075.24
449.24	1074.54
449.61	1066.11
449.97	1071.97
450.33	1070.33
450.70	1076.41
451.06	1078.05
451.43	1091.39
451.79	1094.43
452.15	1082.26
452.52	1074.31
452.88	1068.22
453.24	1060.96
453.61	1058.39
453.97	1064.01
454.34	1079.92
454.70	1087.18
455.06	1094.90
455.43	1093.03
455.79	1094.67
456.15	1081.33
456.52	1081.56
456.88	1062.60
457.24	1063.07
457.61	1066.58
457.97	1071.73
458.33	1073.14
458.70	1090.92
459.06	1089.05
459.42	1089.29
459.79	1098.41
460.15	1099.35
460.51	1082.50
460.88	1079.69
461.24	1084.14
461.60	1072.43
461.96	1064.94
462.33	1075.94
462.69	1082.73
463.05	1071.50
463.42	1073.14
463.78	1068.92
464.14	1073.84
464.50	1073.60
464.87	1078.99
465.23	1085.07
465.59	1093.03
465.95	1083.20
466.32	1076.18
466.68	1074.31
467.04	1071.03
467.40	1067.28
467.77	1075.71
468.13	1079.92
468.49	1079.46
468.85	1072.90
469.22	1078.52
469.58	1070.56
469.94	1073.60
470.30	1089.99
470.66	1096.07
471.03	1088.35
471.39	1094.43
471.75	1091.86
472.11	1080.86
472.47	1074.77
472.84	1081.80
473.20	1084.37
473.56	1079.46
473.92	1078.75
474.28	1088.12
474.65	1087.88
475.01	1093.50
475.37	1087.18
475.73	1076.18
476.09	1064.71
476.45	1057.45
476.81	1054.88
477.18	1058.62
477.54	1053.01
477.90	1060.03
478.26	1065.18
478.62	1059.56
478.98	1066.11
479.34	1078.52
479.71	1071.03
480.07	1069.16
480.43	1061.43
480.79	1063.07
481.15	1068.22
481.51	1078.75
481.87	1070.33
482.23	1073.14
482.59	1072.67
482.96	1065.88
483.32	1066.35
483.68	1077.82
484.04	1077.11
484.40	1067.99
484.76	1065.41
485.12	1061.90
485.48	1062.37
485.84	1068.69
486.20	1086.71
486.56	1098.65
486.92	1098.65
487.28	1090.22
487.64	1082.97
488.00	1079.46
488.37	1070.33
488.73	1057.45
489.09	1065.18
489.45	1061.43
489.81	1057.69
490.17	1061.20
490.53	1079.46
490.89	1079.22
491.25	1094.43
491.61	1097.48
491.97	1097.48
492.33	1088.35
492.69	1089.99
493.05	1081.56
493.41	1073.60
493.77	1068.69
494.13	1069.62
494.49	1064.71
494.85	1066.35
495.21	1068.92
495.57	1076.65
495.93	1082.26
496.29	1081.09
496.64	1077.82
497.00	1080.39
497.36	1084.60
497.72	1082.26
498.08	1088.12
498.44	1097.95
498.80	1100.52
499.16	1098.65
499.52	1095.60
499.88	1092.56
500.24	1082.73
500.60	1083.43
500.96	1083.67
501.32	1090.69
501.68	1097.01
502.03	1097.71
502.39	1090.46
502.75	1084.60
503.11	1079.92
503.47	1075.71
503.83	1077.58
504.19	1086.48
504.55	1097.01
504.91	1100.52
505.26	1100.99
505.62	1098.88
505.98	1089.75
506.34	1076.65
506.70	1075.94
507.06	1072.43
507.42	1074.77
507.78	1082.03
508.13	1087.88
508.49	1088.35
508.85	1090.22
509.21	1099.12
509.57	1096.54
509.93	1092.09
510.28	1091.39
510.64	1096.54
511.00	1091.39
511.36	1081.56
511.72	1079.22
512.07	1079.69
512.43	1075.94
512.79	1068.45
513.15	1077.11
513.51	1082.73
513.86	1081.33
514.22	1086.24
514.58	1099.82
514.94	1103.09
515.30	1105.20
515.65	1100.75
516.01	1092.56
516.37	1079.92
516.73	1082.03
517.08	1081.80
517.44	1084.14
517.80	1085.54
518.16	1087.18
518.51	1086.01
518.87	1085.77
519.23	1087.88
519.59	1088.58
519.94	1085.07
520.30	1080.86
520.66	1079.22
521.01	1080.86
521.37	1081.09
521.73	1093.73
522.09	1092.56
522.44	1093.73
522.80	1087.88
523.16	1096.07
523.51	1091.86
523.87	1097.95
524.23	1101.22
524.58	1102.39
524.94	1092.09
525.30	1094.90
525.65	1097.95
526.01	1097.95
526.37	1100.99
526.72	1098.65
527.08	1089.52
527.44	1083.43
527.79	1088.12
528.15	1085.31
528.51	1091.16
528.86	1097.95
529.22	1097.71
529.58	1087.18
529.93	1101.22
530.29	1107.07
530.65	1105.20
531.00	1105.67
531.36	1109.88
531.71	1098.18
532.07	1088.35
532.43	1089.75
532.78	1080.86
533.14	1078.52
533.49	1083.90
533.85	1096.54
534.21	1089.75
534.56	1096.78
534.92	1083.43
535.27	1083.20
535.63	1077.11
535.98	1077.11
536.34	1078.52
536.69	1096.54
537.05	1106.14
537.41	1106.84
537.76	1117.84
538.12	1112.46
538.47	1111.99
538.83	1098.88
539.18	1095.84
539.54	1083.43
539.89	1095.37
540.25	1095.37
540.60	1095.14
540.96	1098.88
541.31	1104.03
541.67	1098.41
542.02	1100.52
542.38	1105.67
542.73	1103.33
543.09	1111.52
543.44	1102.86
543.80	1092.56
544.15	1094.90
544.51	1083.90
544.86	1074.54
545.22	1075.71
545.57	1087.65
545.93	1073.14
546.28	1087.41
546.64	1094.67
546.99	1101.69
547.35	1085.54
547.70	1085.07
548.05	1077.11
548.41	1070.33
548.76	1081.80
549.12	1091.16
549.47	1102.63
549.83	1104.03
550.18	1102.16
550.53	1083.43
550.89	1086.01
551.24	1083.43
551.60	1085.31
551.95	1091.63
552.30	1096.54
552.66	1084.14
553.01	1088.12
553.37	1095.60
553.72	1093.26
554.07	1095.14
554.43	1103.56
554.78	1093.26
555.13	1087.41
555.49	1087.41
555.84	1077.35
556.19	1072.67
556.55	1084.84
556.90	1079.46
557.26	1077.35
557.61	1081.09
557.96	1080.16
558.32	1064.48
558.67	1067.05
559.02	1060.50
559.37	1067.75
559.73	1074.54
560.08	1072.20
560.43	1064.48
560.79	1077.35
561.14	1064.94
561.49	1065.88
561.85	1077.58
562.20	1086.01
562.55	1089.29
562.90	1095.84
563.26	1085.07
563.61	1090.22
563.96	1091.16
564.32	1081.09
564.67	1090.22
565.02	1095.14
565.37	1094.43
565.73	1088.12
566.08	1086.24
566.43	1072.20
566.78	1069.86
567.14	1055.11
567.49	1054.18
567.84	1054.65
568.19	1055.82
568.54	1056.52
568.90	1067.75
569.25	1076.88
569.60	1074.54
569.95	1072.43
570.31	1075.48
570.66	1074.31
571.01	1076.88
571.36	1089.05
571.71	1100.05
572.06	1093.73
572.42	1096.78
572.77	1089.52
573.12	1082.73
573.47	1083.90
573.82	1085.54
574.18	1087.18
574.53	1083.43
574.88	1078.28
575.23	1071.50
575.58	1078.28
575.93	1066.35
576.28	1076.41
576.64	1085.07
576.99	1086.01
577.34	1086.48
577.69	1093.73
578.04	1095.60
578.39	1091.16
578.74	1099.12
579.09	1097.01
579.44	1095.60
579.80	1084.37
580.15	1080.39
580.50	1080.16
580.85	1084.60
581.20	1088.35
581.55	1093.26
581.90	1095.37
582.25	1089.52
582.60	1088.35
582.95	1088.12
583.30	1085.77
583.65	1089.75
584.00	1081.09
584.35	1078.28
584.71	1067.75
585.06	1071.73
585.41	1067.75
585.76	1074.54
586.11	1079.46
586.46	1092.09
586.81	1091.63
587.16	1091.63
587.51	1088.58
587.86	1075.48
588.21	1065.41
588.56	1065.88
588.91	1076.88
589.26	1082.26
589.61	1093.50
589.96	1096.78
590.31	1094.20
590.66	1075.71
591.01	1074.54
591.36	1067.99
591.71	1078.05
592.06	1078.28
592.41	1079.46
592.76	1083.90
593.10	1083.90
593.45	1066.35
593.80	1071.50
594.15	1087.88
594.50	1078.75
594.85	1085.07
595.20	1091.16
595.55	1094.67
595.90	1096.54
596.25	1106.61
596.60	1103.56
596.95	1101.22
597.30	1097.48
597.64	1135.39
597.99	1131.18
598.34	1125.56
598.69	1129.78
599.04	1123.46
599.39	1077.35
599.74	1077.82
600.09	1088.12
600.44	1088.58
600.78	1076.65
601.13	1070.80
601.48	1071.73
601.83	1059.33
602.18	1063.07
602.53	1082.73
602.88	1095.60
603.22	1093.50
603.57	1099.12
603.92	1100.05
604.27	1095.60
604.62	1077.11
604.97	1079.92
605.31	1085.54
605.66	1074.77
606.01	1070.56
606.36	1078.52
606.71	1077.11
607.05	1076.41
607.40	1071.26
607.75	1085.77
608.10	1089.52
608.44	1084.60
608.79	1083.20
609.14	1096.07
609.49	1076.88
609.84	1076.88
610.18	1073.37
610.53	1068.92
610.88	1071.03
611.23	1081.33
611.57	1081.33
611.92	1090.69
612.27	1086.48
612.62	1085.07
612.96	1087.88
613.31	1087.41
613.66	1082.73
614.00	1094.43
614.35	1091.16
614.70	1086.48
615.05	1090.22
615.39	1091.86
615.74	1079.69
616.09	1078.99
616.43	1067.75
616.78	1056.28
617.13	1059.79
617.47	1068.92
617.82	1071.97
618.17	1081.56
618.51	1091.86
618.86	1087.88
619.21	1088.82
619.55	1087.18
619.90	1088.12
620.25	1084.37
620.59	1085.54
620.94	1086.94
621.29	1087.18
621.63	1095.84
621.98	1088.12
622.32	1080.16
622.67	1080.63
623.02	1078.99
623.36	1056.28
623.71	1065.88
624.05	1074.07
624.40	1075.71
624.75	1076.88
625.09	1096.31
625.44	1097.48
625.78	1098.18
626.13	1092.80
626.48	1093.97
626.82	1094.20
627.17	1083.67
627.51	1083.43
627.86	1078.75
628.20	1079.69
628.55	1069.62
628.89	1071.03
629.24	1064.24
629.58	1057.92
629.93	1059.79
630.28	1063.07
630.62	1066.82
630.97	1078.75
631.31	1089.05
631.66	1094.90
632.00	1097.24
632.35	1097.95
632.69	1090.69
633.04	1098.65
633.38	1082.73
633.73	1071.73
634.07	1078.99
634.42	1077.82
634.76	1079.92
635.11	1080.16
635.45	1085.07
635.79	1081.80
636.14	1086.48
636.48	1073.60
636.83	1079.46
637.17	1080.39
637.52	1074.07
637.86	1082.03
638.21	1084.14
638.55	1089.05
638.89	1094.43
639.24	1100.29
639.58	1089.52
639.93	1087.18
640.27	1083.20
640.61	1079.46
640.96	1079.46
641.30	1081.80
641.65	1078.99
641.99	1081.56
642.33	1083.67
642.68	1082.97
643.02	1071.26
643.37	1081.09
643.71	1078.28
644.05	1081.80
644.40	1078.05
644.74	1088.58
645.08	1084.84
645.43	1088.58
645.77	1083.43
646.11	1083.43
646.46	1080.63
646.80	1082.26
647.14	1077.11
647.49	1077.35
647.83	1082.26
648.17	1097.01
648.52	1096.54
648.86	1099.58
649.20	1102.86
649.55	1106.61
649.89	1088.58
650.23	1086.71
650.57	1086.24
650.92	1096.07
651.26	1087.65
651.60	1097.71
651.95	1091.86
652.29	1103.80
652.63	1096.78
652.97	1100.52
653.32	1098.18
653.66	1100.99
654.00	1097.01
654.34	1093.26
654.69	1084.37
655.03	1075.24
655.37	1075.94
655.71	1059.33
656.05	1054.88
656.40	1060.26
656.74	1066.82
657.08	1067.05
657.42	1078.52
657.76	1074.77
658.11	1080.39
658.45	1083.43
658.79	1090.69
659.13	1092.80
659.47	1090.22
659.82	1082.73
660.16	1074.77
660.50	1077.11
660.84	1079.92
661.18	1090.46
661.52	1090.46
661.87	1098.41
662.21	1104.03
662.55	1094.90
662.89	1095.37
663.23	1111.52
663.57	1092.56
663.91	1083.90
664.25	1072.20
664.60	1075.01
664.94	1070.33
665.28	1096.54
665.62	1095.84
665.96	1104.73
666.30	1106.84
666.64	1091.39
666.98	1085.77
667.32	1081.56
667.66	1080.39
668.01	1073.14
668.35	1074.54
668.69	1063.54
669.03	1062.84
669.37	1058.62
669.71	1065.88
670.05	1073.14
670.39	1080.63
670.73	1078.75
671.07	1086.94
671.41	1089.05
671.75	1088.12
672.09	1085.77
672.43	1083.67
672.77	1078.28
673.11	1078.52
673.45	1082.97
673.79	1077.82
674.13	1079.92
674.47	1078.75
674.81	1066.58
675.15	1059.33
675.49	1068.69
675.83	1069.16
676.17	1073.37
676.51	1081.80
676.85	1087.65
677.19	1087.41
677.53	1084.60
677.87	1092.56
678.21	1085.31
678.55	1083.20
678.89	1080.39
679.23	1088.35
679.57	1087.18
679.90	1091.16
680.24	1091.86
680.58	1097.71
680.92	1089.05
681.26	1087.41
681.60	1076.18
681.94	1076.65
682.28	1065.41
682.62	1066.58
682.96	1060.03
683.29	1071.26
683.63	1067.05
683.97	1072.90
684.31	1079.92
684.65	1078.99
684.99	1081.09
685.33	1081.33
685.67	1084.14
686.00	1078.75
686.34	1083.43
686.68	1083.67
687.02	1081.80
687.36	1077.11
687.70	1070.80
688.03	1063.07
688.37	1056.28
688.71	1065.65
689.05	1068.69
689.39	1070.33
689.72	1070.56
690.06	1075.71
690.40	1075.48
690.74	1068.69
691.08	1075.71
691.41	1081.56
691.75	1082.50
692.09	1073.37
692.43	1073.37
692.76	1072.90
693.10	1075.48
693.44	1071.97
693.78	1078.52
694.11	1077.82
694.45	1071.97
694.79	1072.43
695.13	1076.88
695.46	1076.41
695.80	1078.05
696.14	1085.54
696.48	1086.71
696.81	1072.20
697.15	1067.05
697.49	1070.09
697.82	1066.58
698.16	1063.07
698.50	1071.26
698.83	1084.84
699.17	1086.48
699.51	1088.35
699.84	1088.35
700.18	1089.29
700.52	1081.80
700.85	1085.77
701.19	1090.46
701.53	1093.73
701.86	1085.54
702.20	1081.33
702.54	1075.71
702.87	1071.03
703.21	1060.50
703.55	1071.73
703.88	1077.58
704.22	1081.33
704.55	1076.65
704.89	1081.09
705.23	1082.97
705.56	1077.58
705.90	1068.92
706.23	1074.31
706.57	1081.56
706.91	1088.35
707.24	1082.97
707.58	1095.60
707.91	1099.58
708.25	1095.37
708.58	1091.16
708.92	1100.05
709.26	1099.12
709.59	1101.69
709.93	1099.12
710.26	1096.78
710.60	1088.12
710.93	1074.77
711.27	1065.18
711.60	1069.16
711.94	1059.33
712.27	1056.05
712.61	1060.50
712.94	1058.39
713.28	1053.48
713.61	1061.43
713.95	1065.65
714.28	1075.71
714.62	1078.99
714.95	1082.97
715.29	1076.65
715.62	1083.67
715.96	1071.26
716.29	1077.11
716.63	1082.73
716.96	1088.82
717.29	1088.82
717.63	1089.52
717.96	1093.03
718.30	1090.46
718.63	1087.18
718.97	1090.22
719.30	1098.88
719.63	1088.35
719.97	1091.39
720.30	1089.05
720.64	1080.39
720.97	1068.69
721.30	1071.73
721.64	1058.16
721.97	1055.58
722.31	1053.71
722.64	1065.88
722.97	1062.37
723.31	1075.01
723.64	1083.20
723.97	1094.67
724.31	1088.82
724.64	1089.05
724.98	1075.01
725.31	1082.26
725.64	1072.90
725.98	1078.05
726.31	1086.01
726.64	1095.84
726.97	1083.20
727.31	1088.58
727.64	1088.12
727.97	1087.88
728.31	1091.63
728.64	1083.20
728.97	1082.03
729.31	1078.75
729.64	1072.67
729.97	1072.20
730.30	1086.48
730.64	1085.54
730.97	1094.43
731.30	1097.95
731.63	1092.09
731.97	1085.77
732.30	1089.05
732.63	1089.52
732.96	1095.14
733.30	1091.63
733.63	1100.05
733.96	1099.12
734.29	1088.58
734.63	1087.65
734.96	1090.46
735.29	1091.63
735.62	1092.80
735.95	1095.14
736.29	1097.24
736.62	1106.14
736.95	1098.18
737.28	1100.05
737.61	1104.73
737.94	1099.58
738.28	1091.86
738.61	1082.03
738.94	1073.14
739.27	1068.92
739.60	1063.07
739.93	1072.20
740.27	1077.58
740.60	1082.50
740.93	1074.54
741.26	1073.14
741.59	1065.65
741.92	1070.80
742.25	1080.16
742.58	1077.58
742.91	1089.05
743.25	1084.37
743.58	1089.99
743.91	1074.77
744.24	1087.18
744.57	1076.88
744.90	1072.67
745.23	1073.37
745.56	1080.63
745.89	1078.75
746.22	1077.82
746.55	1083.67
746.88	1076.18
747.21	1069.86
747.54	1062.14
747.87	1060.50
748.20	1056.75
748.53	1064.71
748.87	1076.41
749.20	1081.09
749.53	1080.16
749.86	1070.33
750.19	1060.73
750.52	1057.92
750.85	1063.31
751.18	1067.99
751.51	1086.48
751.84	1084.37
752.16	1086.71
752.49	1083.20
752.82	1078.52
753.15	1074.54
753.48	1078.05
753.81	1083.20
754.14	1083.43
754.47	1100.52
754.80	1102.63
755.13	1097.71
755.46	1092.09
755.79	1088.82
756.12	1075.94
756.45	1074.07
756.78	1077.58
757.11	1084.84
757.43	1089.75
757.76	1092.80
758.09	1094.90
758.42	1100.99
758.75	1095.37
759.08	1094.20
759.41	1096.31
759.74	1096.07
760.07	1087.88
760.39	1080.86
760.72	1089.05
761.05	1086.48
761.38	1090.69
761.71	1096.07
762.04	1095.60
762.36	1082.73
762.69	1092.09
763.02	1082.03
763.35	1081.09
763.68	1079.22
764.01	1079.92
764.33	1072.67
764.66	1080.86
764.99	1074.07
765.32	1071.26
765.65	1079.69
765.97	1080.63
766.30	1076.65
