SpectraSuite Data File
++++++++++++++++++++++++++++++++++++
Date: Mon Aug 26 10:25:53 PDT 2019
User: corrico
Dark Spectrum Present: No
Reference Spectrum Present: No
Number of Sampled Component Spectra: 1
Spectrometers: USB2+H06089
Integration Time (usec): 10000 (USB2+H06089)
Spectra Averaged: 2 (USB2+H06089)
Boxcar Smoothing: 2 (USB2+H06089)
Correct for Electrical Dark: No (USB2+H06089)
Strobe/Lamp Enabled: No (USB2+H06089)
Correct for Detector Non-linearity: No (USB2+H06089)
Correct for Stray Light: No (USB2+H06089)
Number of Pixels in Processed Spectrum: 2048
>>>>>Begin Processed Spectral Data<<<<<
339.70	1028.67
340.07	1028.67
340.45	1001.52
340.82	990.05
341.19	964.07
341.57	934.81
341.94	918.89
342.31	897.60
342.69	880.51
343.06	890.34
343.43	891.28
343.81	894.32
344.18	909.30
344.55	917.49
344.93	906.49
345.30	908.83
345.67	921.70
346.04	931.07
346.42	946.51
346.79	957.28
347.16	966.64
347.54	968.51
347.91	971.79
348.28	976.94
348.65	987.71
349.03	1009.24
349.40	1021.18
349.77	1035.45
350.14	1040.60
350.52	1057.45
350.89	1060.26
351.26	1056.75
351.63	1060.73
352.01	1075.01
352.38	1071.50
352.75	1075.48
353.12	1088.12
353.50	1088.58
353.87	1074.31
354.24	1072.67
354.61	1060.96
354.98	1052.77
355.36	1052.54
355.73	1048.56
356.10	1046.69
356.47	1060.03
356.84	1076.18
357.22	1080.16
357.59	1088.12
357.96	1106.37
358.33	1103.56
358.70	1093.50
359.08	1094.43
359.45	1094.67
359.82	1081.80
360.19	1082.97
360.56	1081.56
360.94	1071.97
361.31	1078.99
361.68	1079.92
362.05	1080.39
362.42	1082.73
362.79	1079.92
363.16	1064.01
363.54	1061.90
363.91	1056.52
364.28	1056.28
364.65	1051.60
365.02	1056.05
365.39	1056.28
365.76	1063.07
366.14	1060.03
366.51	1069.39
366.88	1072.67
367.25	1080.39
367.62	1073.84
367.99	1071.73
368.36	1072.67
368.73	1066.11
369.10	1061.43
369.48	1062.60
369.85	1066.35
370.22	1055.82
370.59	1059.79
370.96	1049.96
371.33	1046.69
371.70	1047.86
372.07	1054.41
372.44	1055.11
372.81	1064.94
373.18	1068.69
373.55	1060.26
373.93	1066.82
374.30	1064.94
374.67	1054.41
375.04	1052.54
375.41	1055.82
375.78	1063.31
376.15	1077.35
376.52	1084.37
376.89	1082.97
377.26	1086.71
377.63	1064.24
378.00	1056.05
378.37	1057.92
378.74	1060.96
379.11	1060.03
379.48	1073.14
379.85	1070.56
380.22	1066.35
380.59	1060.73
380.96	1067.75
381.33	1070.09
381.70	1071.97
382.07	1066.58
382.44	1075.94
382.81	1078.52
383.18	1075.01
383.55	1073.84
383.92	1081.56
384.29	1076.41
384.66	1072.67
385.03	1077.82
385.40	1089.29
385.77	1098.88
386.14	1091.63
386.51	1090.92
386.88	1082.50
387.25	1074.31
387.62	1069.39
387.99	1075.71
388.36	1084.60
388.73	1094.43
389.10	1099.82
389.46	1106.37
389.83	1108.71
390.20	1098.41
390.57	1092.56
390.94	1086.01
391.31	1077.82
391.68	1076.88
392.05	1077.58
392.42	1074.31
392.79	1071.26
393.16	1069.86
393.53	1068.92
393.89	1071.50
394.26	1071.97
394.63	1071.73
395.00	1079.69
395.37	1096.31
395.74	1095.84
396.11	1108.95
396.48	1110.12
396.84	1097.48
397.21	1083.20
397.58	1086.48
397.95	1070.33
398.32	1067.05
398.69	1068.22
399.06	1069.62
399.42	1057.22
399.79	1054.65
400.16	1049.03
400.53	1053.01
400.90	1046.22
401.27	1050.90
401.64	1061.90
402.00	1065.88
402.37	1073.60
402.74	1074.31
403.11	1069.39
403.48	1068.22
403.84	1075.24
404.21	1059.79
404.58	1061.20
404.95	1067.05
405.32	1058.86
405.68	1053.48
406.05	1053.94
406.42	1061.67
406.79	1059.09
407.16	1067.05
407.52	1067.05
407.89	1076.18
408.26	1068.45
408.63	1066.35
408.99	1061.43
409.36	1055.82
409.73	1046.92
410.10	1046.92
410.47	1049.96
410.83	1060.73
411.20	1063.07
411.57	1069.62
411.94	1070.33
412.30	1072.67
412.67	1078.52
413.04	1082.26
413.40	1083.67
413.77	1082.03
414.14	1079.69
414.51	1064.48
414.87	1073.60
415.24	1074.77
415.61	1085.54
415.97	1085.07
416.34	1090.69
416.71	1089.75
417.08	1076.65
417.44	1084.14
417.81	1086.48
418.18	1080.16
418.54	1084.60
418.91	1088.12
419.28	1079.46
419.64	1082.03
420.01	1086.24
420.38	1077.11
420.74	1081.56
421.11	1080.63
421.48	1088.35
421.84	1095.60
422.21	1096.31
422.58	1102.39
422.94	1098.65
423.31	1096.54
423.68	1090.22
424.04	1089.52
424.41	1089.75
424.77	1092.33
425.14	1093.26
425.51	1094.67
425.87	1096.07
426.24	1087.65
426.61	1076.65
426.97	1070.80
427.34	1064.71
427.70	1072.20
428.07	1076.88
428.44	1085.07
428.80	1087.65
429.17	1092.33
429.53	1085.77
429.90	1083.67
430.27	1073.37
430.63	1069.86
431.00	1073.37
431.36	1065.18
431.73	1071.03
432.09	1086.71
432.46	1086.94
432.83	1077.82
433.19	1081.09
433.56	1085.31
433.92	1080.63
434.29	1089.99
434.65	1093.73
435.02	1088.58
435.38	1083.90
435.75	1079.92
436.11	1065.65
436.48	1061.67
436.84	1057.69
437.21	1063.07
437.57	1069.62
437.94	1075.24
438.30	1080.16
438.67	1089.05
439.03	1078.99
439.40	1075.71
439.76	1068.92
440.13	1074.54
440.49	1090.69
440.86	1093.50
441.22	1095.60
441.59	1098.18
441.95	1094.20
442.32	1072.43
442.68	1070.56
443.05	1065.18
443.41	1057.45
443.78	1056.05
444.14	1067.28
444.51	1062.60
444.87	1065.65
445.24	1074.77
445.60	1070.33
445.96	1064.48
446.33	1064.94
446.69	1065.41
447.06	1064.24
447.42	1068.69
447.79	1072.20
448.15	1081.56
448.51	1088.58
448.88	1091.63
449.24	1086.24
449.61	1096.31
449.97	1096.54
450.33	1091.39
450.70	1094.67
451.06	1099.82
451.43	1085.54
451.79	1075.01
452.15	1073.14
452.52	1070.33
452.88	1070.33
453.24	1074.54
453.61	1078.75
453.97	1079.92
454.34	1074.07
454.70	1070.33
455.06	1071.03
455.43	1069.16
455.79	1067.05
456.15	1079.46
456.52	1080.86
456.88	1074.77
457.24	1079.69
457.61	1079.69
457.97	1067.52
458.33	1071.26
458.70	1073.60
459.06	1065.88
459.42	1068.69
459.79	1069.39
460.15	1066.58
460.51	1072.43
460.88	1070.80
461.24	1071.50
461.60	1076.18
461.96	1066.35
462.33	1060.96
462.69	1060.50
463.05	1060.96
463.42	1057.92
463.78	1068.92
464.14	1065.41
464.50	1075.01
464.87	1072.20
465.23	1072.20
465.59	1080.39
465.95	1082.03
466.32	1075.94
466.68	1076.65
467.04	1082.03
467.40	1074.31
467.77	1082.03
468.13	1089.52
468.49	1088.35
468.85	1087.18
469.22	1086.71
469.58	1082.73
469.94	1078.28
470.30	1071.50
470.66	1072.43
471.03	1075.24
471.39	1068.92
471.75	1069.16
472.11	1080.16
472.47	1074.07
472.84	1070.33
473.20	1071.97
473.56	1073.37
473.92	1072.43
474.28	1069.16
474.65	1069.62
475.01	1072.43
475.37	1069.39
475.73	1077.11
476.09	1090.92
476.45	1090.69
476.81	1091.16
477.18	1104.50
477.54	1091.16
477.90	1085.07
478.26	1079.22
478.62	1080.39
478.98	1064.71
479.34	1074.77
479.71	1071.26
480.07	1074.07
480.43	1085.07
480.79	1086.24
481.15	1074.77
481.51	1085.31
481.87	1086.71
482.23	1081.09
482.59	1092.09
482.96	1095.84
483.32	1080.86
483.68	1073.60
484.04	1068.92
484.40	1066.11
484.76	1064.94
485.12	1065.41
485.48	1076.41
485.84	1074.77
486.20	1073.60
486.56	1070.33
486.92	1079.22
487.28	1076.88
487.64	1074.31
488.00	1070.09
488.37	1076.18
488.73	1075.24
489.09	1066.82
489.45	1069.86
489.81	1075.01
490.17	1067.52
490.53	1072.20
490.89	1086.48
491.25	1091.63
491.61	1097.01
491.97	1107.07
492.33	1101.22
492.69	1101.92
493.05	1101.92
493.41	1094.20
493.77	1089.99
494.13	1086.48
494.49	1069.62
494.85	1068.45
495.21	1054.65
495.57	1046.69
495.93	1046.45
496.29	1055.35
496.64	1059.09
497.00	1067.28
497.36	1073.84
497.72	1069.86
498.08	1075.24
498.44	1074.77
498.80	1082.73
499.16	1088.12
499.52	1098.18
499.88	1091.39
500.24	1085.77
500.60	1084.37
500.96	1076.41
501.32	1073.84
501.68	1075.94
502.03	1068.45
502.39	1066.58
502.75	1067.28
503.11	1068.92
503.47	1069.39
503.83	1075.71
504.19	1078.75
504.55	1076.88
504.91	1070.56
505.26	1076.41
505.62	1077.35
505.98	1079.92
506.34	1088.35
506.70	1087.41
507.06	1089.52
507.42	1096.07
507.78	1092.56
508.13	1094.67
508.49	1100.75
508.85	1083.67
509.21	1083.20
509.57	1071.50
509.93	1065.88
510.28	1058.16
510.64	1076.41
511.00	1078.05
511.36	1086.48
511.72	1091.39
512.07	1103.09
512.43	1096.78
512.79	1087.88
513.15	1081.56
513.51	1078.28
513.86	1074.31
514.22	1065.41
514.58	1070.33
514.94	1083.67
515.30	1086.94
515.65	1085.31
516.01	1106.37
516.37	1095.60
516.73	1083.90
517.08	1077.11
517.44	1082.50
517.80	1076.65
518.16	1080.86
518.51	1090.22
518.87	1101.92
519.23	1095.37
519.59	1093.73
519.94	1082.03
520.30	1085.31
520.66	1076.18
521.01	1074.77
521.37	1070.80
521.73	1089.05
522.09	1085.77
522.44	1097.01
522.80	1099.12
523.16	1095.60
523.51	1090.69
523.87	1088.82
524.23	1083.67
524.58	1084.37
524.94	1086.01
525.30	1094.90
525.65	1092.09
526.01	1090.69
526.37	1088.82
526.72	1089.52
527.08	1078.75
527.44	1082.26
527.79	1070.56
528.15	1075.71
528.51	1069.62
528.86	1072.43
529.22	1078.05
529.58	1089.99
529.93	1089.05
530.29	1106.14
530.65	1119.48
531.00	1110.82
531.36	1112.46
531.71	1119.48
532.07	1106.14
532.43	1101.46
532.78	1104.03
533.14	1099.58
533.49	1096.07
533.85	1102.39
534.21	1094.43
534.56	1093.50
534.92	1095.60
535.27	1086.71
535.63	1089.75
535.98	1084.14
536.34	1091.63
536.69	1087.88
537.05	1087.65
537.41	1084.84
537.76	1085.54
538.12	1083.43
538.47	1087.65
538.83	1087.18
539.18	1088.82
539.54	1093.97
539.89	1090.92
540.25	1091.63
540.60	1100.99
540.96	1084.84
541.31	1086.01
541.67	1092.56
542.02	1094.67
542.38	1095.84
542.73	1103.80
543.09	1107.07
543.44	1106.61
543.80	1098.41
544.15	1090.92
544.51	1093.97
544.86	1092.80
545.22	1088.35
545.57	1093.50
545.93	1086.71
546.28	1087.41
546.64	1090.22
546.99	1078.99
547.35	1084.84
547.70	1100.05
548.05	1093.26
548.41	1093.73
548.76	1098.65
549.12	1082.26
549.47	1075.01
549.83	1087.18
550.18	1072.20
550.53	1067.75
550.89	1074.31
551.24	1073.14
551.60	1075.71
551.95	1082.50
552.30	1084.37
552.66	1085.07
553.01	1084.84
553.37	1063.31
553.72	1065.18
554.07	1070.56
554.43	1071.03
554.78	1066.11
555.13	1080.16
555.49	1083.20
555.84	1079.46
556.19	1084.60
556.55	1100.75
556.90	1099.35
557.26	1094.43
557.61	1094.90
557.96	1084.60
558.32	1074.31
558.67	1073.84
559.02	1076.41
559.37	1081.33
559.73	1079.46
560.08	1081.80
560.43	1076.41
560.79	1075.94
561.14	1074.77
561.49	1094.20
561.85	1083.20
562.20	1088.58
562.55	1077.82
562.90	1066.82
563.26	1052.07
563.61	1057.92
563.96	1055.58
564.32	1071.73
564.67	1092.09
565.02	1087.88
565.37	1084.14
565.73	1074.77
566.08	1063.54
566.43	1048.79
566.78	1053.94
567.14	1067.28
567.49	1083.90
567.84	1093.97
568.19	1095.37
568.54	1098.65
568.90	1088.12
569.25	1078.28
569.60	1071.03
569.95	1067.05
570.31	1068.22
570.66	1072.20
571.01	1072.20
571.36	1072.20
571.71	1078.52
572.06	1076.18
572.42	1075.94
572.77	1082.03
573.12	1082.26
573.47	1087.41
573.82	1086.01
574.18	1085.07
574.53	1083.20
574.88	1083.43
575.23	1077.82
575.58	1076.88
575.93	1076.41
576.28	1076.18
576.64	1074.31
576.99	1078.99
577.34	1081.33
577.69	1086.94
578.04	1075.94
578.39	1077.82
578.74	1069.62
579.09	1060.50
579.44	1049.50
579.80	1065.88
580.15	1066.11
580.50	1074.07
580.85	1083.90
581.20	1085.77
581.55	1084.37
581.90	1091.86
582.25	1084.84
582.60	1089.05
582.95	1097.95
583.30	1092.56
583.65	1086.94
584.00	1094.67
584.35	1090.22
584.71	1089.99
585.06	1098.65
585.41	1094.43
585.76	1083.43
586.11	1076.88
586.46	1071.97
586.81	1064.94
587.16	1067.99
587.51	1070.56
587.86	1073.60
588.21	1080.63
588.56	1081.80
588.91	1086.94
589.26	1080.63
589.61	1085.07
589.96	1073.84
590.31	1078.05
590.66	1077.58
591.01	1096.54
591.36	1095.60
591.71	1094.90
592.06	1091.86
592.41	1081.09
592.76	1072.67
593.10	1071.50
593.45	1079.46
593.80	1079.92
594.15	1085.77
594.50	1086.01
594.85	1082.26
595.20	1081.56
595.55	1085.31
595.90	1086.94
596.25	1090.69
596.60	1097.01
596.95	1104.50
597.30	1102.16
597.64	1153.88
597.99	1159.97
598.34	1151.31
598.69	1139.84
599.04	1133.05
599.39	1087.65
599.74	1090.69
600.09	1106.37
600.44	1108.95
600.78	1111.99
601.13	1109.88
601.48	1097.01
601.83	1089.99
602.18	1092.09
602.53	1086.48
602.88	1084.84
603.22	1077.58
603.57	1073.84
603.92	1067.75
604.27	1070.33
604.62	1065.18
604.97	1060.03
605.31	1058.86
605.66	1066.35
606.01	1072.43
606.36	1076.88
606.71	1091.86
607.05	1095.84
607.40	1090.69
607.75	1096.31
608.10	1098.18
608.44	1089.99
608.79	1087.41
609.14	1093.03
609.49	1082.97
609.84	1082.97
610.18	1087.18
610.53	1091.86
610.88	1090.46
611.23	1093.03
611.57	1096.07
611.92	1098.88
612.27	1095.37
612.62	1097.95
612.96	1095.37
613.31	1094.43
613.66	1093.26
614.00	1092.56
614.35	1092.09
614.70	1089.52
615.05	1073.60
615.39	1074.07
615.74	1078.28
616.09	1077.11
616.43	1079.69
616.78	1079.92
617.13	1078.28
617.47	1070.33
617.82	1058.86
618.17	1048.79
618.51	1060.73
618.86	1058.62
619.21	1060.26
619.55	1071.26
619.90	1083.43
620.25	1082.26
620.59	1084.60
620.94	1089.99
621.29	1084.14
621.63	1077.82
621.98	1074.77
622.32	1078.52
622.67	1074.07
623.02	1082.03
623.36	1090.22
623.71	1091.16
624.05	1093.50
624.40	1095.14
624.75	1085.31
625.09	1079.92
625.44	1079.69
625.78	1070.80
626.13	1069.16
626.48	1081.80
626.82	1089.29
627.17	1091.39
627.51	1087.65
627.86	1087.88
628.20	1077.82
628.55	1063.31
628.89	1061.67
629.24	1066.82
629.58	1064.01
629.93	1060.50
630.28	1072.90
630.62	1075.71
630.97	1075.24
631.31	1080.86
631.66	1093.03
632.00	1085.77
632.35	1081.56
632.69	1086.24
633.04	1076.41
633.38	1070.80
633.73	1081.09
634.07	1082.97
634.42	1078.75
634.76	1089.52
635.11	1088.12
635.45	1084.14
635.79	1087.88
636.14	1077.58
636.48	1078.28
636.83	1078.99
637.17	1084.60
637.52	1073.14
637.86	1084.14
638.21	1079.22
638.55	1078.75
638.89	1076.41
639.24	1082.03
639.58	1081.80
639.93	1080.63
640.27	1080.16
640.61	1073.60
640.96	1076.18
641.30	1081.80
641.65	1097.71
641.99	1103.80
642.33	1106.14
642.68	1108.48
643.02	1104.03
643.37	1096.78
643.71	1087.18
644.05	1082.97
644.40	1083.43
644.74	1075.24
645.08	1071.26
645.43	1080.86
645.77	1081.80
646.11	1076.41
646.46	1079.46
646.80	1075.71
647.14	1066.35
647.49	1070.56
647.83	1086.48
648.17	1096.78
648.52	1096.07
648.86	1104.26
649.20	1114.33
649.55	1099.35
649.89	1099.82
650.23	1096.07
650.57	1091.86
650.92	1078.75
651.26	1088.82
651.60	1081.80
651.95	1089.05
652.29	1078.28
652.63	1084.37
652.97	1074.31
653.32	1072.20
653.66	1075.01
654.00	1077.35
654.34	1074.07
654.69	1070.09
655.03	1079.46
655.37	1075.48
655.71	1084.14
656.05	1079.22
656.40	1078.75
656.74	1075.94
657.08	1073.14
657.42	1075.24
657.76	1077.11
658.11	1074.31
658.45	1061.67
658.79	1062.14
659.13	1055.82
659.47	1054.41
659.82	1067.05
660.16	1075.71
660.50	1078.28
660.84	1076.88
661.18	1077.11
661.52	1069.86
661.87	1065.65
662.21	1063.31
662.55	1074.31
662.89	1077.82
663.23	1079.46
663.57	1085.77
663.91	1094.90
664.25	1081.80
664.60	1085.54
664.94	1083.90
665.28	1088.35
665.62	1083.43
665.96	1087.88
666.30	1087.18
666.64	1082.03
666.98	1073.60
667.32	1068.45
667.66	1074.07
668.01	1072.20
668.35	1083.90
668.69	1083.90
669.03	1080.63
669.37	1075.48
669.71	1078.28
670.05	1072.67
670.39	1082.50
670.73	1079.69
671.07	1080.39
671.41	1072.20
671.75	1072.43
672.09	1064.71
672.43	1067.99
672.77	1073.84
673.11	1073.84
673.45	1072.20
673.79	1070.33
674.13	1081.80
674.47	1077.58
674.81	1084.84
675.15	1082.03
675.49	1085.31
675.83	1081.56
676.17	1081.80
676.51	1078.52
676.85	1081.80
677.19	1079.69
677.53	1074.77
677.87	1078.75
678.21	1085.54
678.55	1089.29
678.89	1087.18
679.23	1084.60
679.57	1077.58
679.90	1074.31
680.24	1075.71
680.58	1081.80
680.92	1087.18
681.26	1091.86
681.60	1094.20
681.94	1094.67
682.28	1089.05
682.62	1087.88
682.96	1078.28
683.29	1069.39
683.63	1074.77
683.97	1080.16
684.31	1085.31
684.65	1091.63
684.99	1090.92
685.33	1074.31
685.67	1070.80
686.00	1060.96
686.34	1066.11
686.68	1064.48
687.02	1066.82
687.36	1063.77
687.70	1068.22
688.03	1060.50
688.37	1072.20
688.71	1080.39
689.05	1090.46
689.39	1095.60
689.72	1106.37
690.06	1098.88
690.40	1100.29
690.74	1088.12
691.08	1079.92
691.41	1079.46
691.75	1077.35
692.09	1069.39
692.43	1075.48
692.76	1080.63
693.10	1071.73
693.44	1067.28
693.78	1078.99
694.11	1077.82
694.45	1080.86
694.79	1085.54
695.13	1086.48
695.46	1081.80
695.80	1082.97
696.14	1079.69
696.48	1068.45
696.81	1072.90
697.15	1065.88
697.49	1058.86
697.82	1063.77
698.16	1067.52
698.50	1072.43
698.83	1076.88
699.17	1079.92
699.51	1081.09
699.84	1090.46
700.18	1082.03
700.52	1075.01
700.85	1069.62
701.19	1059.56
701.53	1062.60
701.86	1066.35
702.20	1067.99
702.54	1078.28
702.87	1085.77
703.21	1086.01
703.55	1085.31
703.88	1092.09
704.22	1094.43
704.55	1083.43
704.89	1076.88
705.23	1074.07
705.56	1070.09
705.90	1066.58
706.23	1078.75
706.57	1081.33
706.91	1094.20
707.24	1093.50
707.58	1104.26
707.91	1099.35
708.25	1099.12
708.58	1085.54
708.92	1091.86
709.26	1077.11
709.59	1085.77
709.93	1082.73
710.26	1087.65
710.60	1085.07
710.93	1090.22
711.27	1079.92
711.60	1084.84
711.94	1075.48
712.27	1074.77
712.61	1075.24
712.94	1081.09
713.28	1078.99
713.61	1083.43
713.95	1088.12
714.28	1086.71
714.62	1078.05
714.95	1072.67
715.29	1080.86
715.62	1075.24
715.96	1067.05
716.29	1073.84
716.63	1076.18
716.96	1068.22
717.29	1073.84
717.63	1088.35
717.96	1094.90
718.30	1088.12
718.63	1087.88
718.97	1080.86
719.30	1065.41
719.63	1049.96
719.97	1061.20
720.30	1070.56
720.64	1071.50
720.97	1074.77
721.30	1075.94
721.64	1073.60
721.97	1072.20
722.31	1078.52
722.64	1085.07
722.97	1091.63
723.31	1086.94
723.64	1087.65
723.97	1079.22
724.31	1072.43
724.64	1065.41
724.98	1068.22
725.31	1059.33
725.64	1060.96
725.98	1069.39
726.31	1068.92
726.64	1071.73
726.97	1078.75
727.31	1076.88
727.64	1078.75
727.97	1077.58
728.31	1079.92
728.64	1081.33
728.97	1081.80
729.31	1072.20
729.64	1085.07
729.97	1075.48
730.30	1075.48
730.64	1076.41
730.97	1075.71
731.30	1069.16
731.63	1075.24
731.97	1068.92
732.30	1080.16
732.63	1087.41
732.96	1075.94
733.30	1081.56
733.63	1074.77
733.96	1072.43
734.29	1068.69
734.63	1080.63
734.96	1068.69
735.29	1081.56
735.62	1067.28
735.95	1079.92
736.29	1082.97
736.62	1085.07
736.95	1079.92
737.28	1086.94
737.61	1071.03
737.94	1070.09
738.28	1071.03
738.61	1085.77
738.94	1091.39
739.27	1095.60
739.60	1097.95
739.93	1092.80
740.27	1085.77
740.60	1072.90
740.93	1075.94
741.26	1073.14
741.59	1076.18
741.92	1073.14
742.25	1086.48
742.58	1090.69
742.91	1093.03
743.25	1099.12
743.58	1093.26
743.91	1086.71
744.24	1078.28
744.57	1076.65
744.90	1081.09
745.23	1083.20
745.56	1094.90
745.89	1101.92
746.22	1091.63
746.55	1082.50
746.88	1088.58
747.21	1070.56
747.54	1066.82
747.87	1076.65
748.20	1083.67
748.53	1071.73
748.87	1097.95
749.20	1094.67
749.53	1092.80
749.86	1087.41
750.19	1090.22
750.52	1078.75
750.85	1084.84
751.18	1078.75
751.51	1080.16
751.84	1084.84
752.16	1079.69
752.49	1076.65
752.82	1080.63
753.15	1083.43
753.48	1085.07
753.81	1082.73
754.14	1081.80
754.47	1088.12
754.80	1089.99
755.13	1087.41
755.46	1086.24
755.79	1091.16
756.12	1090.69
756.45	1086.24
756.78	1095.84
757.11	1093.73
757.43	1080.39
757.76	1073.84
758.09	1069.86
758.42	1070.09
758.75	1070.80
759.08	1083.20
759.41	1078.05
759.74	1088.82
760.07	1078.05
760.39	1083.20
760.72	1081.80
761.05	1083.67
761.38	1074.07
761.71	1072.90
762.04	1064.24
762.36	1061.43
762.69	1072.67
763.02	1075.71
763.35	1087.65
763.68	1095.37
764.01	1098.41
764.33	1089.05
764.66	1081.80
764.99	1074.54
765.32	1074.77
765.65	1067.28
765.97	1065.88
766.30	1079.92
