SpectraSuite Data File
++++++++++++++++++++++++++++++++++++
Date: Mon Aug 26 10:25:53 PDT 2019
User: corrico
Dark Spectrum Present: No
Reference Spectrum Present: No
Number of Sampled Component Spectra: 1
Spectrometers: USB2+H06089
Integration Time (usec): 10000 (USB2+H06089)
Spectra Averaged: 2 (USB2+H06089)
Boxcar Smoothing: 2 (USB2+H06089)
Correct for Electrical Dark: No (USB2+H06089)
Strobe/Lamp Enabled: No (USB2+H06089)
Correct for Detector Non-linearity: No (USB2+H06089)
Correct for Stray Light: No (USB2+H06089)
Number of Pixels in Processed Spectrum: 2048
>>>>>Begin Processed Spectral Data<<<<<
339.70	1001.75
340.07	1001.75
340.45	979.28
340.82	961.26
341.19	946.28
341.57	923.81
341.94	912.34
342.31	914.68
342.69	920.06
343.06	917.72
343.43	921.23
343.81	912.34
344.18	898.53
344.55	897.83
344.93	896.19
345.30	897.36
345.67	908.13
346.04	924.28
346.42	936.45
346.79	951.66
347.16	961.96
347.54	970.39
347.91	975.77
348.28	976.71
348.65	981.39
349.03	989.81
349.40	1004.32
349.77	1021.41
350.14	1027.73
350.52	1028.43
350.89	1033.35
351.26	1035.22
351.63	1030.07
352.01	1033.81
352.38	1036.86
352.75	1049.50
353.12	1053.94
353.50	1065.41
353.87	1068.69
354.24	1078.99
354.61	1066.58
354.98	1071.50
355.36	1075.94
355.73	1078.75
356.10	1074.07
356.47	1085.31
356.84	1075.71
357.22	1073.60
357.59	1075.94
357.96	1078.52
358.33	1081.33
358.70	1097.01
359.08	1087.88
359.45	1082.97
359.82	1078.99
360.19	1076.18
360.56	1067.99
360.94	1072.20
361.31	1071.26
361.68	1068.69
362.05	1057.92
362.42	1057.92
362.79	1062.84
363.16	1060.26
363.54	1068.45
363.91	1079.22
364.28	1082.73
364.65	1080.39
365.02	1079.46
365.39	1077.11
365.76	1070.56
366.14	1050.43
366.51	1039.90
366.88	1049.73
367.25	1051.37
367.62	1051.84
367.99	1062.84
368.36	1061.43
368.73	1052.07
369.10	1049.50
369.48	1053.94
369.85	1057.69
370.22	1060.96
370.59	1063.31
370.96	1067.75
371.33	1060.96
371.70	1059.56
372.07	1055.11
372.44	1063.54
372.81	1055.58
373.18	1061.20
373.55	1056.75
373.93	1070.56
374.30	1059.09
374.67	1060.50
375.04	1052.30
375.41	1059.33
375.78	1054.18
376.15	1059.33
376.52	1070.33
376.89	1072.90
377.26	1072.90
377.63	1078.52
378.00	1077.35
378.37	1071.97
378.74	1081.33
379.11	1076.41
379.48	1069.39
379.85	1066.82
380.22	1066.58
380.59	1069.16
380.96	1065.65
381.33	1063.54
381.70	1062.60
382.07	1059.09
382.44	1050.67
382.81	1055.11
383.18	1059.56
383.55	1058.16
383.92	1070.09
384.29	1067.99
384.66	1075.24
385.03	1074.07
385.40	1078.99
385.77	1080.63
386.14	1078.75
386.51	1074.77
386.88	1075.24
387.25	1075.01
387.62	1066.11
387.99	1064.94
388.36	1068.45
388.73	1068.22
389.10	1070.56
389.46	1069.62
389.83	1078.28
390.20	1076.88
390.57	1073.60
390.94	1079.92
391.31	1077.58
391.68	1076.18
392.05	1070.33
392.42	1077.58
392.79	1070.09
393.16	1062.37
393.53	1064.94
393.89	1071.97
394.26	1064.71
394.63	1066.35
395.00	1077.82
395.37	1075.94
395.74	1069.16
396.11	1074.54
396.48	1072.67
396.84	1070.09
397.21	1067.05
397.58	1071.03
397.95	1071.50
398.32	1070.80
398.69	1076.18
399.06	1087.18
399.42	1094.43
399.79	1089.75
400.16	1096.54
400.53	1088.82
400.90	1086.24
401.27	1081.56
401.64	1086.71
402.00	1082.03
402.37	1082.50
402.74	1076.88
403.11	1074.54
403.48	1070.09
403.84	1078.28
404.21	1074.31
404.58	1073.14
404.95	1078.05
405.32	1076.65
405.68	1064.01
406.05	1069.62
406.42	1073.60
406.79	1069.86
407.16	1071.50
407.52	1077.35
407.89	1080.16
408.26	1077.82
408.63	1067.52
408.99	1070.33
409.36	1064.24
409.73	1066.11
410.10	1064.24
410.47	1066.82
410.83	1065.41
411.20	1073.37
411.57	1071.97
411.94	1071.26
412.30	1074.77
412.67	1072.90
413.04	1065.65
413.40	1064.94
413.77	1063.77
414.14	1065.65
414.51	1075.24
414.87	1073.84
415.24	1075.01
415.61	1071.97
415.97	1065.65
416.34	1051.60
416.71	1055.58
417.08	1049.50
417.44	1058.86
417.81	1068.45
418.18	1071.73
418.54	1081.33
418.91	1089.52
419.28	1090.92
419.64	1085.77
420.01	1100.05
420.38	1092.80
420.74	1091.63
421.11	1091.39
421.48	1091.63
421.84	1081.09
422.21	1072.90
422.58	1065.88
422.94	1055.82
423.31	1055.82
423.68	1057.69
424.04	1056.05
424.41	1054.88
424.77	1060.73
425.14	1063.77
425.51	1063.07
425.87	1079.46
426.24	1087.88
426.61	1089.99
426.97	1090.69
427.34	1095.84
427.70	1090.69
428.07	1082.26
428.44	1081.80
428.80	1075.48
429.17	1075.48
429.53	1084.84
429.90	1094.67
430.27	1089.75
430.63	1099.35
431.00	1088.82
431.36	1075.71
431.73	1071.97
432.09	1070.09
432.46	1063.07
432.83	1072.43
433.19	1072.90
433.56	1075.94
433.92	1080.86
434.29	1080.39
434.65	1077.11
435.02	1072.90
435.38	1068.22
435.75	1071.03
436.11	1072.67
436.48	1076.88
436.84	1088.12
437.21	1087.88
437.57	1079.46
437.94	1087.88
438.30	1085.77
438.67	1086.94
439.03	1083.90
439.40	1097.71
439.76	1094.20
440.13	1102.63
440.49	1092.33
440.86	1106.14
441.22	1099.82
441.59	1097.24
441.95	1084.84
442.32	1090.46
442.68	1087.18
443.05	1079.92
443.41	1082.03
443.78	1075.24
444.14	1071.50
444.51	1057.45
444.87	1071.03
445.24	1053.48
445.60	1060.03
445.96	1059.33
446.33	1070.33
446.69	1066.11
447.06	1077.58
447.42	1084.37
447.79	1086.94
448.15	1078.99
448.51	1072.90
448.88	1082.03
449.24	1079.46
449.61	1080.86
449.97	1085.31
450.33	1100.05
450.70	1097.24
451.06	1098.41
451.43	1097.48
451.79	1102.63
452.15	1082.03
452.52	1079.69
452.88	1073.37
453.24	1081.09
453.61	1071.50
453.97	1092.09
454.34	1087.65
454.70	1077.58
455.06	1066.11
455.43	1073.14
455.79	1063.77
456.15	1081.33
456.52	1101.22
456.88	1104.50
457.24	1092.56
457.61	1092.09
457.97	1081.09
458.33	1071.97
458.70	1069.86
459.06	1078.05
459.42	1074.54
459.79	1066.82
460.15	1069.16
460.51	1068.92
460.88	1065.65
461.24	1065.41
461.60	1075.71
461.96	1076.41
462.33	1070.80
462.69	1073.37
463.05	1071.73
463.42	1067.52
463.78	1065.88
464.14	1082.26
464.50	1082.73
464.87	1085.54
465.23	1087.65
465.59	1091.16
465.95	1083.43
466.32	1094.90
466.68	1086.24
467.04	1075.24
467.40	1076.41
467.77	1074.54
468.13	1066.11
468.49	1063.77
468.85	1072.67
469.22	1069.16
469.58	1068.22
469.94	1070.09
470.30	1078.28
470.66	1075.48
471.03	1064.71
471.39	1058.86
471.75	1050.90
472.11	1044.11
472.47	1044.11
472.84	1057.45
473.20	1067.05
473.56	1067.52
473.92	1071.26
474.28	1078.05
474.65	1075.94
475.01	1070.80
475.37	1077.11
475.73	1090.22
476.09	1091.16
476.45	1085.07
476.81	1086.48
477.18	1083.90
477.54	1077.35
477.90	1068.69
478.26	1076.41
478.62	1076.18
478.98	1073.14
479.34	1075.01
479.71	1075.71
480.07	1071.26
480.43	1069.16
480.79	1078.99
481.15	1078.05
481.51	1070.56
481.87	1072.67
482.23	1066.58
482.59	1064.01
482.96	1061.20
483.32	1068.69
483.68	1072.90
484.04	1082.26
484.40	1076.88
484.76	1086.48
485.12	1094.67
485.48	1091.86
485.84	1097.48
486.20	1103.09
486.56	1095.14
486.92	1086.48
487.28	1088.12
487.64	1084.84
488.00	1085.31
488.37	1088.12
488.73	1086.71
489.09	1085.31
489.45	1086.94
489.81	1078.28
490.17	1078.28
490.53	1078.99
490.89	1082.50
491.25	1076.65
491.61	1097.01
491.97	1089.99
492.33	1102.63
492.69	1103.09
493.05	1117.14
493.41	1112.69
493.77	1117.61
494.13	1110.35
494.49	1097.01
494.85	1081.09
495.21	1071.26
495.57	1073.14
495.93	1076.18
496.29	1082.26
496.64	1083.90
497.00	1077.82
497.36	1073.60
497.72	1072.90
498.08	1066.82
498.44	1070.80
498.80	1080.63
499.16	1083.20
499.52	1080.16
499.88	1081.33
500.24	1082.50
500.60	1080.39
500.96	1080.16
501.32	1075.71
501.68	1087.65
502.03	1086.94
502.39	1074.31
502.75	1074.77
503.11	1082.50
503.47	1086.01
503.83	1089.29
504.19	1098.41
504.55	1099.58
504.91	1099.82
505.26	1093.03
505.62	1089.52
505.98	1090.92
506.34	1086.24
506.70	1081.33
507.06	1091.86
507.42	1087.41
507.78	1092.33
508.13	1097.24
508.49	1098.65
508.85	1082.73
509.21	1097.71
509.57	1090.69
509.93	1089.75
510.28	1091.63
510.64	1089.75
511.00	1077.35
511.36	1086.01
511.72	1084.37
512.07	1081.09
512.43	1083.67
512.79	1083.20
513.15	1073.60
513.51	1071.03
513.86	1066.58
514.22	1062.14
514.58	1070.09
514.94	1069.39
515.30	1069.62
515.65	1085.31
516.01	1093.03
516.37	1087.65
516.73	1086.71
517.08	1098.65
517.44	1098.18
517.80	1105.90
518.16	1105.90
518.51	1113.86
518.87	1101.69
519.23	1085.07
519.59	1078.52
519.94	1074.77
520.30	1076.41
520.66	1083.67
521.01	1097.01
521.37	1100.75
521.73	1100.75
522.09	1106.61
522.44	1107.31
522.80	1106.14
523.16	1104.03
523.51	1109.88
523.87	1092.56
524.23	1086.01
524.58	1082.50
524.94	1077.82
525.30	1072.20
525.65	1079.92
526.01	1077.58
526.37	1074.54
526.72	1077.82
527.08	1088.82
527.44	1087.41
527.79	1089.75
528.15	1096.07
528.51	1093.03
528.86	1084.37
529.22	1090.92
529.58	1097.48
529.93	1097.95
530.29	1103.56
530.65	1117.14
531.00	1105.44
531.36	1104.73
531.71	1097.01
532.07	1090.22
532.43	1078.05
532.78	1087.41
533.14	1089.52
533.49	1097.48
533.85	1110.82
534.21	1110.35
534.56	1108.95
534.92	1104.50
535.27	1101.22
535.63	1092.33
535.98	1103.56
536.34	1092.80
536.69	1101.22
537.05	1098.88
537.41	1100.29
537.76	1098.18
538.12	1105.20
538.47	1092.80
538.83	1088.82
539.18	1090.22
539.54	1080.63
539.89	1078.52
540.25	1078.99
540.60	1090.22
540.96	1086.48
541.31	1086.94
541.67	1085.77
542.02	1093.73
542.38	1096.78
542.73	1100.52
543.09	1101.92
543.44	1097.48
543.80	1101.22
544.15	1091.16
544.51	1086.48
544.86	1087.18
545.22	1106.14
545.57	1096.31
545.93	1100.05
546.28	1104.97
546.64	1108.71
546.99	1092.56
547.35	1093.03
547.70	1096.31
548.05	1089.29
548.41	1086.94
548.76	1091.86
549.12	1098.41
549.47	1091.63
549.83	1098.88
550.18	1082.03
550.53	1083.43
550.89	1071.73
551.24	1061.43
551.60	1058.86
551.95	1068.69
552.30	1072.43
552.66	1079.22
553.01	1092.33
553.37	1089.75
553.72	1093.50
554.07	1085.07
554.43	1084.14
554.78	1077.58
555.13	1072.90
555.49	1068.22
555.84	1070.09
556.19	1075.01
556.55	1083.67
556.90	1090.69
557.26	1089.99
557.61	1093.97
557.96	1092.09
558.32	1083.43
558.67	1081.09
559.02	1078.75
559.37	1077.35
559.73	1068.92
560.08	1079.22
560.43	1077.35
560.79	1084.60
561.14	1094.67
561.49	1092.56
561.85	1094.90
562.20	1098.18
562.55	1093.50
562.90	1077.58
563.26	1083.67
563.61	1070.56
563.96	1065.41
564.32	1076.41
564.67	1083.43
565.02	1074.77
565.37	1074.77
565.73	1073.84
566.08	1067.75
566.43	1075.71
566.78	1084.60
567.14	1093.03
567.49	1094.90
567.84	1103.56
568.19	1099.12
568.54	1095.60
568.90	1076.65
569.25	1077.35
569.60	1068.22
569.95	1062.37
570.31	1062.84
570.66	1073.84
571.01	1071.97
571.36	1072.43
571.71	1070.33
572.06	1077.58
572.42	1080.16
572.77	1085.54
573.12	1083.20
573.47	1086.48
573.82	1080.39
574.18	1076.65
574.53	1073.14
574.88	1070.80
575.23	1057.22
575.58	1060.03
575.93	1060.96
576.28	1063.77
576.64	1072.90
576.99	1085.31
577.34	1093.50
577.69	1100.75
578.04	1098.88
578.39	1094.67
578.74	1096.78
579.09	1078.99
579.44	1077.82
579.80	1079.69
580.15	1083.43
580.50	1081.33
580.85	1091.16
581.20	1085.07
581.55	1078.99
581.90	1073.14
582.25	1079.46
582.60	1083.90
582.95	1082.03
583.30	1089.05
583.65	1087.41
584.00	1081.56
584.35	1072.67
584.71	1083.20
585.06	1086.48
585.41	1085.54
585.76	1090.92
586.11	1094.20
586.46	1095.60
586.81	1091.16
587.16	1098.65
587.51	1095.14
587.86	1102.63
588.21	1100.52
588.56	1097.24
588.91	1089.75
589.26	1077.11
589.61	1061.20
589.96	1054.41
590.31	1049.26
590.66	1052.07
591.01	1070.09
591.36	1080.16
591.71	1078.52
592.06	1088.82
592.41	1091.63
592.76	1082.26
593.10	1081.56
593.45	1092.09
593.80	1086.24
594.15	1090.92
594.50	1083.43
594.85	1081.33
595.20	1075.94
595.55	1088.82
595.90	1083.20
596.25	1094.20
596.60	1097.48
596.95	1099.12
597.30	1093.97
597.64	1146.86
597.99	1147.80
598.34	1144.76
598.69	1144.99
599.04	1133.05
599.39	1073.84
599.74	1070.33
600.09	1077.58
600.44	1072.43
600.78	1070.80
601.13	1074.31
601.48	1085.07
601.83	1070.80
602.18	1075.71
602.53	1084.84
602.88	1091.86
603.22	1080.86
603.57	1087.41
603.92	1089.05
604.27	1085.54
604.62	1082.97
604.97	1087.88
605.31	1092.80
605.66	1088.82
606.01	1085.54
606.36	1076.88
606.71	1072.67
607.05	1068.92
607.40	1056.75
607.75	1065.18
608.10	1068.22
608.44	1064.24
608.79	1067.75
609.14	1082.26
609.49	1075.24
609.84	1075.94
610.18	1088.82
610.53	1090.46
610.88	1090.22
611.23	1088.82
611.57	1092.33
611.92	1084.37
612.27	1080.86
612.62	1082.73
612.96	1092.80
613.31	1098.41
613.66	1097.48
614.00	1097.48
614.35	1088.58
614.70	1086.71
615.05	1076.18
615.39	1082.03
615.74	1080.16
616.09	1085.77
616.43	1082.26
616.78	1094.20
617.13	1093.03
617.47	1091.63
617.82	1089.99
618.17	1090.46
618.51	1081.56
618.86	1086.94
619.21	1093.03
619.55	1095.84
619.90	1100.05
620.25	1097.24
620.59	1082.03
620.94	1075.01
621.29	1071.03
621.63	1056.52
621.98	1063.07
622.32	1077.35
622.67	1070.09
623.02	1059.56
623.36	1066.58
623.71	1060.96
624.05	1052.30
624.40	1059.33
624.75	1063.54
625.09	1067.05
625.44	1065.18
625.78	1057.22
626.13	1065.65
626.48	1078.05
626.82	1082.03
627.17	1086.24
627.51	1105.44
627.86	1102.16
628.20	1096.54
628.55	1089.99
628.89	1089.52
629.24	1077.58
629.58	1079.22
629.93	1086.48
630.28	1086.48
630.62	1087.41
630.97	1081.09
631.31	1076.88
631.66	1073.37
632.00	1080.86
632.35	1076.88
632.69	1089.05
633.04	1080.16
633.38	1082.26
633.73	1079.22
634.07	1091.39
634.42	1089.99
634.76	1097.71
635.11	1094.67
635.45	1085.77
635.79	1073.14
636.14	1068.22
636.48	1058.62
636.83	1056.99
637.17	1062.37
637.52	1059.56
637.86	1064.71
638.21	1071.73
638.55	1069.62
638.89	1073.14
639.24	1081.33
639.58	1077.58
639.93	1085.54
640.27	1087.41
640.61	1087.41
640.96	1097.95
641.30	1096.78
641.65	1098.65
641.99	1100.99
642.33	1103.56
642.68	1092.80
643.02	1098.88
643.37	1092.80
643.71	1095.37
644.05	1103.80
644.40	1106.61
644.74	1108.71
645.08	1118.54
645.43	1119.24
645.77	1103.56
646.11	1096.07
646.46	1081.80
646.80	1065.18
647.14	1069.62
647.49	1076.65
647.83	1091.16
648.17	1093.97
648.52	1102.16
648.86	1092.56
649.20	1088.12
649.55	1078.05
649.89	1081.33
650.23	1080.63
650.57	1079.92
650.92	1085.77
651.26	1086.94
651.60	1085.07
651.95	1086.48
652.29	1088.35
652.63	1086.01
652.97	1093.03
653.32	1092.33
653.66	1089.52
654.00	1093.97
654.34	1096.78
654.69	1081.09
655.03	1083.43
655.37	1083.90
655.71	1075.01
656.05	1066.58
656.40	1060.96
656.74	1061.90
657.08	1060.96
657.42	1063.54
657.76	1063.77
658.11	1078.28
658.45	1073.37
658.79	1076.88
659.13	1074.77
659.47	1074.77
659.82	1068.45
660.16	1071.26
660.50	1064.24
660.84	1067.28
661.18	1068.69
661.52	1072.90
661.87	1082.73
662.21	1087.18
662.55	1087.18
662.89	1079.92
663.23	1074.54
663.57	1063.07
663.91	1065.18
664.25	1059.79
664.60	1075.24
664.94	1078.28
665.28	1084.37
665.62	1082.73
665.96	1083.90
666.30	1065.88
666.64	1073.14
666.98	1063.77
667.32	1061.67
667.66	1065.18
668.01	1085.54
668.35	1082.26
668.69	1098.88
669.03	1103.33
669.37	1108.48
669.71	1097.95
670.05	1091.16
670.39	1073.84
670.73	1069.62
671.07	1062.60
671.41	1058.62
671.75	1072.20
672.09	1078.75
672.43	1077.11
672.77	1070.56
673.11	1072.20
673.45	1058.39
673.79	1057.92
674.13	1060.50
674.47	1063.31
674.81	1062.84
675.15	1069.86
675.49	1079.69
675.83	1080.63
676.17	1082.50
676.51	1087.88
676.85	1084.84
677.19	1081.56
677.53	1079.22
677.87	1071.97
678.21	1080.39
678.55	1082.26
678.89	1082.26
679.23	1077.11
679.57	1088.82
679.90	1078.99
680.24	1071.26
680.58	1061.67
680.92	1064.24
681.26	1062.14
681.60	1063.07
681.94	1081.33
682.28	1083.67
682.62	1097.48
682.96	1087.18
683.29	1095.14
683.63	1084.14
683.97	1091.16
684.31	1080.16
684.65	1092.33
684.99	1082.50
685.33	1084.84
685.67	1077.11
686.00	1082.97
686.34	1074.31
686.68	1076.65
687.02	1075.01
687.36	1070.33
687.70	1067.28
688.03	1073.14
688.37	1071.50
688.71	1062.37
689.05	1069.39
689.39	1070.56
689.72	1077.11
690.06	1083.43
690.40	1089.99
690.74	1086.71
691.08	1076.41
691.41	1064.48
691.75	1058.62
692.09	1062.37
692.43	1065.18
692.76	1070.09
693.10	1073.84
693.44	1067.75
693.78	1058.62
694.11	1057.22
694.45	1066.58
694.79	1074.07
695.13	1075.94
695.46	1075.71
695.80	1072.43
696.14	1062.84
696.48	1059.33
696.81	1057.45
697.15	1070.80
697.49	1077.35
697.82	1084.37
698.16	1085.31
698.50	1097.48
698.83	1094.43
699.17	1091.39
699.51	1090.69
699.84	1090.69
700.18	1082.03
700.52	1084.84
700.85	1084.60
701.19	1081.56
701.53	1084.14
701.86	1082.03
702.20	1072.20
702.54	1076.18
702.87	1076.41
703.21	1074.77
703.55	1083.43
703.88	1082.26
704.22	1074.54
704.55	1075.94
704.89	1077.35
705.23	1075.94
705.56	1076.18
705.90	1094.67
706.23	1093.03
706.57	1087.41
706.91	1084.37
707.24	1099.82
707.58	1089.99
707.91	1083.43
708.25	1091.63
708.58	1088.82
708.92	1074.07
709.26	1074.31
709.59	1075.71
709.93	1065.41
710.26	1068.69
710.60	1072.20
710.93	1079.69
711.27	1073.84
711.60	1082.50
711.94	1085.77
712.27	1094.20
712.61	1086.48
712.94	1097.95
713.28	1103.80
713.61	1097.48
713.95	1084.84
714.28	1081.80
714.62	1074.77
714.95	1059.56
715.29	1060.96
715.62	1073.60
715.96	1074.07
716.29	1074.54
716.63	1076.18
716.96	1082.26
717.29	1075.94
717.63	1075.94
717.96	1072.67
718.30	1076.41
718.63	1073.14
718.97	1069.86
719.30	1070.09
719.63	1070.09
719.97	1065.18
720.30	1061.90
720.64	1069.39
720.97	1069.16
721.30	1088.58
721.64	1098.88
721.97	1089.99
722.31	1088.35
722.64	1088.12
722.97	1075.94
723.31	1074.77
723.64	1079.69
723.97	1082.03
724.31	1076.41
724.64	1074.07
724.98	1060.96
725.31	1075.48
725.64	1076.65
725.98	1091.63
726.31	1093.73
726.64	1094.43
726.97	1086.71
727.31	1080.86
727.64	1070.33
727.97	1064.24
728.31	1080.16
728.64	1078.28
728.97	1077.11
729.31	1078.75
729.64	1081.33
729.97	1080.16
730.30	1079.22
730.64	1066.58
730.97	1065.18
731.30	1069.62
731.63	1060.50
731.97	1052.77
732.30	1074.07
732.63	1077.82
732.96	1073.37
733.30	1069.16
733.63	1082.26
733.96	1071.26
734.29	1066.82
734.63	1070.33
734.96	1073.37
735.29	1065.18
735.62	1065.65
735.95	1073.37
736.29	1074.54
736.62	1084.37
736.95	1082.97
737.28	1080.63
737.61	1067.99
737.94	1070.09
738.28	1060.50
738.61	1067.28
738.94	1081.33
739.27	1092.80
739.60	1094.43
739.93	1102.63
740.27	1109.41
740.60	1107.78
740.93	1097.71
741.26	1090.22
741.59	1086.71
741.92	1083.20
742.25	1073.60
742.58	1083.20
742.91	1086.01
743.25	1089.75
743.58	1082.73
743.91	1086.71
744.24	1074.54
744.57	1075.71
744.90	1057.92
745.23	1063.54
745.56	1064.01
745.89	1078.75
746.22	1073.60
746.55	1079.46
746.88	1080.39
747.21	1081.80
747.54	1082.50
747.87	1093.26
748.20	1097.24
748.53	1096.78
748.87	1099.82
749.20	1090.22
749.53	1081.80
749.86	1076.41
750.19	1078.75
750.52	1071.50
750.85	1076.41
751.18	1088.12
751.51	1096.78
751.84	1084.14
752.16	1084.14
752.49	1087.18
752.82	1073.37
753.15	1078.28
753.48	1081.09
753.81	1085.31
754.14	1084.14
754.47	1092.09
754.80	1093.03
755.13	1105.44
755.46	1105.20
755.79	1098.88
756.12	1099.12
756.45	1091.86
756.78	1087.18
757.11	1078.05
757.43	1074.07
757.76	1071.50
758.09	1077.35
758.42	1070.33
758.75	1073.60
759.08	1081.80
759.41	1085.07
759.74	1081.80
760.07	1082.97
760.39	1087.65
760.72	1081.33
761.05	1080.86
761.38	1072.43
761.71	1070.80
762.04	1075.24
762.36	1073.84
762.69	1080.16
763.02	1088.58
763.35	1093.50
763.68	1078.75
764.01	1087.65
764.33	1074.07
764.66	1076.65
764.99	1074.31
765.32	1078.75
765.65	1081.33
765.97	1080.86
766.30	1076.88
