SpectraSuite Data File
++++++++++++++++++++++++++++++++++++
Date: Mon Aug 26 10:25:50 PDT 2019
User: corrico
Dark Spectrum Present: No
Reference Spectrum Present: No
Number of Sampled Component Spectra: 1
Spectrometers: USB2+H06089
Integration Time (usec): 10000 (USB2+H06089)
Spectra Averaged: 2 (USB2+H06089)
Boxcar Smoothing: 2 (USB2+H06089)
Correct for Electrical Dark: No (USB2+H06089)
Strobe/Lamp Enabled: No (USB2+H06089)
Correct for Detector Non-linearity: No (USB2+H06089)
Correct for Stray Light: No (USB2+H06089)
Number of Pixels in Processed Spectrum: 2048
>>>>>Begin Processed Spectral Data<<<<<
339.70	1041.54
340.07	1041.54
340.45	997.30
340.82	980.22
341.19	954.94
341.57	927.09
341.94	919.13
342.31	917.02
342.69	904.62
343.06	902.51
343.43	898.30
343.81	898.06
344.18	905.32
344.55	916.79
344.93	918.43
345.30	935.04
345.67	941.60
346.04	947.21
346.42	948.85
346.79	958.22
347.16	958.68
347.54	969.22
347.91	983.26
348.28	987.94
348.65	1003.39
349.03	1014.39
349.40	1016.49
349.77	1018.60
350.14	1033.11
350.52	1036.16
350.89	1038.96
351.26	1049.26
351.63	1059.79
352.01	1063.54
352.38	1062.60
352.75	1069.39
353.12	1064.71
353.50	1064.24
353.87	1059.79
354.24	1064.01
354.61	1063.31
354.98	1068.69
355.36	1065.88
355.73	1067.99
356.10	1073.37
356.47	1072.67
356.84	1067.75
357.22	1064.94
357.59	1068.92
357.96	1056.75
358.33	1052.77
358.70	1056.52
359.08	1060.73
359.45	1058.16
359.82	1071.73
360.19	1084.37
360.56	1082.26
360.94	1084.60
361.31	1078.28
361.68	1069.62
362.05	1061.67
362.42	1067.05
362.79	1059.33
363.16	1065.65
363.54	1066.82
363.91	1073.14
364.28	1073.14
364.65	1072.20
365.02	1066.11
365.39	1074.07
365.76	1064.01
366.14	1056.28
366.51	1058.39
366.88	1064.48
367.25	1058.39
367.62	1068.92
367.99	1073.84
368.36	1084.60
368.73	1089.99
369.10	1088.58
369.48	1086.24
369.85	1085.31
370.22	1079.92
370.59	1072.90
370.96	1079.92
371.33	1072.67
371.70	1066.82
372.07	1063.54
372.44	1066.11
372.81	1054.88
373.18	1059.56
373.55	1063.07
373.93	1061.90
374.30	1064.94
374.67	1070.80
375.04	1068.69
375.41	1076.18
375.78	1077.35
376.15	1072.90
376.52	1068.92
376.89	1075.71
377.26	1066.82
377.63	1067.28
378.00	1062.84
378.37	1059.79
378.74	1048.09
379.11	1055.82
379.48	1060.73
379.85	1067.28
380.22	1074.54
380.59	1077.35
380.96	1073.37
381.33	1075.71
381.70	1063.07
382.07	1061.67
382.44	1063.31
382.81	1061.20
383.18	1049.96
383.55	1059.79
383.92	1047.39
384.29	1043.64
384.66	1048.33
385.03	1056.28
385.40	1051.37
385.77	1071.26
386.14	1077.82
386.51	1073.60
386.88	1068.92
387.25	1080.16
387.62	1074.54
387.99	1070.33
388.36	1071.97
388.73	1063.31
389.10	1055.58
389.46	1059.56
389.83	1063.07
390.20	1062.84
390.57	1075.48
390.94	1075.48
391.31	1067.52
391.68	1065.41
392.05	1068.45
392.42	1058.39
392.79	1057.69
393.16	1054.18
393.53	1059.09
393.89	1058.62
394.26	1070.09
394.63	1073.84
395.00	1079.92
395.37	1082.03
395.74	1082.03
396.11	1078.75
396.48	1079.46
396.84	1076.18
397.21	1075.48
397.58	1069.86
397.95	1071.03
398.32	1073.14
398.69	1078.99
399.06	1068.69
399.42	1074.31
399.79	1063.54
400.16	1065.88
400.53	1067.05
400.90	1070.33
401.27	1060.26
401.64	1069.86
402.00	1067.05
402.37	1065.88
402.74	1070.80
403.11	1083.90
403.48	1088.35
403.84	1081.56
404.21	1087.65
404.58	1085.77
404.95	1077.82
405.32	1072.43
405.68	1082.50
406.05	1070.09
406.42	1069.62
406.79	1077.82
407.16	1077.82
407.52	1073.60
407.89	1075.24
408.26	1075.71
408.63	1080.39
408.99	1094.67
409.36	1092.09
409.73	1096.54
410.10	1096.54
410.47	1079.92
410.83	1075.48
411.20	1075.71
411.57	1071.73
411.94	1070.80
412.30	1081.33
412.67	1073.37
413.04	1082.97
413.40	1083.20
413.77	1093.50
414.14	1097.01
414.51	1102.16
414.87	1098.88
415.24	1088.82
415.61	1081.33
415.97	1082.50
416.34	1063.07
416.71	1052.30
417.08	1063.54
417.44	1058.39
417.81	1045.52
418.18	1053.71
418.54	1052.07
418.91	1051.13
419.28	1050.67
419.64	1060.26
420.01	1057.69
420.38	1072.20
420.74	1077.35
421.11	1075.94
421.48	1071.26
421.84	1079.46
422.21	1076.88
422.58	1073.37
422.94	1078.28
423.31	1076.41
423.68	1082.26
424.04	1071.97
424.41	1068.92
424.77	1064.24
425.14	1071.26
425.51	1066.58
425.87	1066.11
426.24	1063.31
426.61	1070.80
426.97	1070.33
427.34	1062.84
427.70	1059.33
428.07	1071.03
428.44	1064.24
428.80	1049.50
429.17	1046.92
429.53	1053.94
429.90	1051.60
430.27	1052.07
430.63	1071.50
431.00	1082.97
431.36	1081.56
431.73	1077.58
432.09	1085.77
432.46	1079.92
432.83	1077.11
433.19	1079.22
433.56	1082.73
433.92	1081.33
434.29	1072.67
434.65	1073.14
435.02	1073.60
435.38	1076.41
435.75	1072.67
436.11	1082.26
436.48	1075.24
436.84	1076.88
437.21	1073.37
437.57	1070.80
437.94	1056.05
438.30	1057.22
438.67	1042.01
439.03	1049.26
439.40	1051.84
439.76	1063.31
440.13	1068.69
440.49	1083.67
440.86	1077.35
441.22	1078.75
441.59	1078.75
441.95	1081.33
442.32	1084.14
442.68	1071.26
443.05	1072.20
443.41	1081.33
443.78	1087.18
444.14	1091.39
444.51	1104.73
444.87	1100.75
445.24	1089.52
445.60	1075.71
445.96	1075.01
446.33	1080.86
446.69	1092.33
447.06	1086.71
447.42	1085.77
447.79	1086.24
448.15	1079.92
448.51	1073.37
448.88	1081.56
449.24	1085.07
449.61	1082.73
449.97	1078.28
450.33	1075.01
450.70	1079.22
451.06	1078.52
451.43	1078.75
451.79	1081.33
452.15	1083.43
452.52	1083.43
452.88	1094.43
453.24	1097.95
453.61	1093.97
453.97	1099.82
454.34	1101.69
454.70	1085.54
455.06	1074.31
455.43	1071.50
455.79	1067.75
456.15	1070.33
456.52	1075.48
456.88	1066.11
457.24	1069.16
457.61	1070.33
457.97	1055.58
458.33	1060.50
458.70	1078.05
459.06	1078.52
459.42	1082.26
459.79	1086.01
460.15	1082.73
460.51	1085.31
460.88	1101.92
461.24	1098.41
461.60	1105.20
461.96	1101.46
462.33	1092.33
462.69	1080.63
463.05	1089.75
463.42	1092.33
463.78	1101.92
464.14	1096.78
464.50	1094.90
464.87	1079.22
465.23	1071.73
465.59	1066.82
465.95	1076.41
466.32	1073.60
466.68	1074.54
467.04	1074.54
467.40	1075.24
467.77	1068.69
468.13	1080.86
468.49	1080.16
468.85	1073.60
469.22	1080.63
469.58	1086.48
469.94	1076.18
470.30	1078.28
470.66	1082.50
471.03	1077.82
471.39	1075.01
471.75	1075.71
472.11	1077.35
472.47	1075.24
472.84	1075.48
473.20	1075.01
473.56	1073.37
473.92	1068.22
474.28	1071.73
474.65	1072.90
475.01	1079.92
475.37	1080.39
475.73	1089.75
476.09	1088.58
476.45	1086.48
476.81	1074.31
477.18	1069.16
477.54	1057.22
477.90	1057.45
478.26	1055.58
478.62	1063.07
478.98	1064.24
479.34	1076.18
479.71	1071.73
480.07	1072.67
480.43	1070.09
480.79	1083.43
481.15	1077.11
481.51	1085.54
481.87	1096.31
482.23	1100.75
482.59	1097.71
482.96	1093.73
483.32	1098.65
483.68	1085.54
484.04	1081.09
484.40	1070.80
484.76	1070.09
485.12	1063.77
485.48	1062.37
485.84	1071.03
486.20	1067.05
486.56	1077.58
486.92	1081.33
487.28	1085.54
487.64	1084.84
488.00	1097.24
488.37	1097.01
488.73	1098.88
489.09	1097.71
489.45	1088.12
489.81	1082.97
490.17	1087.65
490.53	1083.43
490.89	1086.24
491.25	1090.22
491.61	1087.18
491.97	1076.18
492.33	1083.90
492.69	1083.90
493.05	1078.28
493.41	1091.86
493.77	1092.09
494.13	1092.80
494.49	1090.69
494.85	1099.82
495.21	1094.43
495.57	1095.14
495.93	1091.86
496.29	1089.05
496.64	1086.01
497.00	1083.43
497.36	1086.94
497.72	1077.58
498.08	1075.71
498.44	1065.41
498.80	1067.99
499.16	1062.14
499.52	1064.71
499.88	1067.28
500.24	1070.56
500.60	1081.56
500.96	1087.18
501.32	1087.88
501.68	1088.12
502.03	1098.65
502.39	1092.09
502.75	1085.31
503.11	1086.24
503.47	1091.86
503.83	1083.20
504.19	1074.07
504.55	1074.77
504.91	1079.46
505.26	1075.48
505.62	1073.60
505.98	1079.92
506.34	1078.05
506.70	1072.90
507.06	1074.54
507.42	1079.22
507.78	1064.71
508.13	1074.77
508.49	1079.46
508.85	1088.58
509.21	1081.56
509.57	1096.07
509.93	1096.54
510.28	1096.07
510.64	1081.80
511.00	1094.43
511.36	1088.82
511.72	1087.41
512.07	1090.92
512.43	1100.99
512.79	1092.09
513.15	1097.95
513.51	1098.88
513.86	1097.95
514.22	1088.35
514.58	1102.86
514.94	1104.73
515.30	1095.84
515.65	1088.58
516.01	1089.52
516.37	1073.84
516.73	1069.86
517.08	1078.52
517.44	1073.84
517.80	1077.35
518.16	1087.88
518.51	1089.99
518.87	1090.46
519.23	1092.56
519.59	1084.84
519.94	1080.39
520.30	1080.86
520.66	1080.86
521.01	1087.65
521.37	1096.07
521.73	1100.52
522.09	1096.54
522.44	1091.63
522.80	1082.73
523.16	1083.43
523.51	1086.24
523.87	1091.16
524.23	1094.20
524.58	1096.54
524.94	1098.41
525.30	1092.80
525.65	1085.77
526.01	1089.75
526.37	1093.50
526.72	1086.71
527.08	1087.41
527.44	1085.31
527.79	1076.88
528.15	1080.86
528.51	1082.73
528.86	1093.26
529.22	1106.84
529.58	1111.75
529.93	1111.05
530.29	1118.78
530.65	1103.56
531.00	1092.33
531.36	1088.58
531.71	1088.35
532.07	1072.43
532.43	1075.71
532.78	1083.43
533.14	1083.43
533.49	1079.69
533.85	1091.63
534.21	1091.39
534.56	1077.82
534.92	1074.77
535.27	1078.05
535.63	1078.28
535.98	1077.82
536.34	1090.22
536.69	1098.41
537.05	1094.90
537.41	1084.84
537.76	1092.09
538.12	1082.50
538.47	1070.80
538.83	1074.54
539.18	1073.60
539.54	1063.54
539.89	1071.03
540.25	1076.65
540.60	1074.54
540.96	1085.31
541.31	1085.07
541.67	1086.48
542.02	1092.80
542.38	1089.29
542.73	1085.31
543.09	1088.58
543.44	1090.92
543.80	1085.07
544.15	1093.26
544.51	1095.60
544.86	1097.01
545.22	1092.80
545.57	1086.71
545.93	1089.99
546.28	1092.56
546.64	1085.07
546.99	1075.01
547.35	1085.07
547.70	1075.94
548.05	1074.77
548.41	1086.24
548.76	1101.46
549.12	1101.46
549.47	1100.29
549.83	1099.12
550.18	1095.14
550.53	1091.16
550.89	1086.71
551.24	1086.01
551.60	1089.29
551.95	1093.73
552.30	1082.03
552.66	1082.26
553.01	1085.77
553.37	1082.03
553.72	1076.41
554.07	1086.94
554.43	1101.22
554.78	1091.86
555.13	1100.29
555.49	1094.67
555.84	1083.90
556.19	1075.48
556.55	1075.71
556.90	1070.09
557.26	1081.56
557.61	1095.14
557.96	1083.90
558.32	1092.33
558.67	1087.41
559.02	1080.39
559.37	1071.26
559.73	1072.67
560.08	1068.69
560.43	1067.28
560.79	1060.03
561.14	1065.88
561.49	1067.28
561.85	1069.39
562.20	1064.24
562.55	1079.92
562.90	1080.86
563.26	1087.18
563.61	1097.95
563.96	1111.99
564.32	1103.80
564.67	1094.43
565.02	1089.52
565.37	1079.46
565.73	1062.37
566.08	1054.18
566.43	1055.82
566.78	1058.62
567.14	1063.31
567.49	1071.50
567.84	1085.07
568.19	1094.90
568.54	1095.60
568.90	1086.01
569.25	1089.05
569.60	1084.14
569.95	1072.20
570.31	1073.60
570.66	1073.14
571.01	1073.37
571.36	1072.90
571.71	1078.28
572.06	1085.31
572.42	1089.52
572.77	1084.60
573.12	1087.65
573.47	1086.01
573.82	1075.94
574.18	1067.99
574.53	1071.97
574.88	1064.71
575.23	1064.94
575.58	1063.54
575.93	1071.97
576.28	1075.48
576.64	1085.07
576.99	1097.71
577.34	1101.22
577.69	1097.71
578.04	1088.58
578.39	1081.56
578.74	1064.94
579.09	1060.50
579.44	1063.07
579.80	1071.97
580.15	1079.92
580.50	1084.14
580.85	1082.97
581.20	1093.73
581.55	1086.24
581.90	1077.58
582.25	1083.20
582.60	1085.31
582.95	1069.16
583.30	1074.31
583.65	1067.99
584.00	1057.92
584.35	1055.11
584.71	1065.88
585.06	1063.31
585.41	1075.48
585.76	1078.75
586.11	1078.52
586.46	1074.07
586.81	1075.48
587.16	1065.88
587.51	1070.33
587.86	1063.54
588.21	1058.16
588.56	1051.13
588.91	1056.28
589.26	1056.28
589.61	1069.62
589.96	1082.26
590.31	1088.82
590.66	1091.39
591.01	1089.29
591.36	1091.39
591.71	1083.67
592.06	1081.56
592.41	1087.88
592.76	1089.52
593.10	1087.18
593.45	1091.86
593.80	1099.12
594.15	1091.16
594.50	1094.67
594.85	1098.65
595.20	1092.80
595.55	1088.58
595.90	1095.14
596.25	1084.84
596.60	1078.99
596.95	1085.54
597.30	1096.07
597.64	1146.63
597.99	1155.99
598.34	1160.44
598.69	1159.03
599.04	1151.54
599.39	1103.80
599.74	1101.69
600.09	1096.07
600.44	1099.35
600.78	1090.92
601.13	1084.37
601.48	1082.97
601.83	1086.24
602.18	1080.16
602.53	1084.60
602.88	1078.99
603.22	1078.75
603.57	1079.46
603.92	1085.31
604.27	1092.80
604.62	1094.20
604.97	1092.09
605.31	1083.67
605.66	1078.05
606.01	1070.56
606.36	1072.90
606.71	1071.26
607.05	1084.14
607.40	1075.01
607.75	1079.92
608.10	1079.46
608.44	1082.50
608.79	1075.48
609.14	1081.09
609.49	1072.90
609.84	1077.82
610.18	1091.86
610.53	1095.60
610.88	1099.35
611.23	1106.61
611.57	1102.86
611.92	1098.18
612.27	1094.20
612.62	1087.65
612.96	1088.35
613.31	1095.14
613.66	1091.86
614.00	1098.88
614.35	1099.58
614.70	1097.71
615.05	1089.05
615.39	1086.94
615.74	1083.43
616.09	1086.94
616.43	1088.12
616.78	1089.99
617.13	1091.86
617.47	1093.50
617.82	1097.24
618.17	1097.24
618.51	1093.03
618.86	1087.18
619.21	1085.07
619.55	1075.24
619.90	1075.24
620.25	1071.50
620.59	1075.71
620.94	1078.99
621.29	1088.12
621.63	1086.01
621.98	1094.90
622.32	1088.58
622.67	1082.03
623.02	1085.77
623.36	1080.39
623.71	1077.82
624.05	1089.05
624.40	1096.31
624.75	1104.03
625.09	1105.67
625.44	1113.39
625.78	1104.03
626.13	1104.50
626.48	1077.11
626.82	1080.16
627.17	1072.67
627.51	1066.58
627.86	1061.20
628.20	1074.07
628.55	1078.99
628.89	1069.62
629.24	1077.11
629.58	1077.11
629.93	1071.73
630.28	1070.80
630.62	1087.41
630.97	1094.20
631.31	1096.78
631.66	1099.12
632.00	1091.86
632.35	1083.67
632.69	1084.60
633.04	1067.99
633.38	1074.07
633.73	1076.65
634.07	1065.65
634.42	1060.73
634.76	1069.16
635.11	1064.48
635.45	1071.50
635.79	1083.67
636.14	1084.37
636.48	1092.33
636.83	1092.56
637.17	1082.97
637.52	1082.97
637.86	1075.48
638.21	1077.58
638.55	1082.03
638.89	1080.39
639.24	1078.28
639.58	1078.99
639.93	1073.60
640.27	1071.26
640.61	1071.26
640.96	1071.73
641.30	1066.58
641.65	1070.80
641.99	1075.71
642.33	1078.28
642.68	1081.33
643.02	1095.37
643.37	1092.33
643.71	1077.35
644.05	1066.82
644.40	1074.07
644.74	1063.54
645.08	1056.99
645.43	1052.77
645.77	1065.65
646.11	1056.05
646.46	1058.62
646.80	1068.92
647.14	1078.28
647.49	1073.84
647.83	1072.90
648.17	1077.82
648.52	1063.31
648.86	1066.35
649.20	1075.71
649.55	1076.88
649.89	1071.03
650.23	1087.18
650.57	1087.65
650.92	1083.67
651.26	1083.90
651.60	1086.94
651.95	1085.31
652.29	1092.33
652.63	1085.77
652.97	1090.69
653.32	1092.56
653.66	1078.75
654.00	1069.86
654.34	1077.58
654.69	1081.09
655.03	1077.58
655.37	1085.77
655.71	1080.63
656.05	1081.80
656.40	1076.41
656.74	1071.97
657.08	1074.07
657.42	1086.01
657.76	1079.22
658.11	1082.26
658.45	1094.90
658.79	1093.03
659.13	1097.24
659.47	1097.71
659.82	1090.92
660.16	1081.80
660.50	1082.97
660.84	1074.54
661.18	1075.71
661.52	1077.58
661.87	1077.11
662.21	1068.22
662.55	1068.22
662.89	1077.35
663.23	1071.03
663.57	1070.33
663.91	1075.94
664.25	1072.67
664.60	1067.28
664.94	1075.94
665.28	1086.48
665.62	1090.46
665.96	1089.29
666.30	1084.84
666.64	1084.60
666.98	1075.24
667.32	1077.35
667.66	1084.14
668.01	1083.90
668.35	1078.05
668.69	1081.80
669.03	1087.65
669.37	1098.41
669.71	1102.16
670.05	1107.07
670.39	1111.75
670.73	1101.69
671.07	1084.14
671.41	1090.46
671.75	1093.50
672.09	1081.56
672.43	1074.77
672.77	1093.50
673.11	1097.95
673.45	1086.71
673.79	1084.84
674.13	1083.90
674.47	1075.71
674.81	1061.43
675.15	1075.01
675.49	1082.73
675.83	1091.39
676.17	1077.82
676.51	1080.16
676.85	1071.97
677.19	1070.80
677.53	1064.24
677.87	1071.97
678.21	1068.69
678.55	1076.65
678.89	1077.11
679.23	1080.63
679.57	1075.24
679.90	1076.18
680.24	1078.75
680.58	1082.50
680.92	1081.09
681.26	1082.26
681.60	1087.41
681.94	1082.26
682.28	1082.97
682.62	1083.43
682.96	1089.52
683.29	1092.33
683.63	1089.05
683.97	1085.77
684.31	1091.39
684.65	1088.12
684.99	1087.65
685.33	1088.58
685.67	1093.26
686.00	1089.75
686.34	1089.75
686.68	1083.20
687.02	1078.99
687.36	1073.60
687.70	1071.26
688.03	1063.07
688.37	1062.37
688.71	1064.94
689.05	1069.16
689.39	1067.05
689.72	1073.60
690.06	1078.05
690.40	1070.80
690.74	1063.54
691.08	1073.14
691.41	1082.03
691.75	1080.16
692.09	1087.18
692.43	1093.73
692.76	1085.31
693.10	1082.50
693.44	1087.41
693.78	1085.54
694.11	1087.65
694.45	1096.78
694.79	1094.20
695.13	1092.80
695.46	1097.48
695.80	1087.41
696.14	1090.69
696.48	1093.97
696.81	1083.67
697.15	1088.35
697.49	1084.84
697.82	1075.71
698.16	1071.73
698.50	1084.14
698.83	1070.09
699.17	1071.03
699.51	1080.39
699.84	1077.82
700.18	1078.05
700.52	1086.48
700.85	1093.26
701.19	1084.84
701.53	1090.69
701.86	1080.39
702.20	1069.86
702.54	1062.60
702.87	1062.84
703.21	1063.77
703.55	1070.33
703.88	1079.92
704.22	1084.84
704.55	1082.50
704.89	1082.50
705.23	1082.50
705.56	1094.90
705.90	1098.18
706.23	1098.18
706.57	1092.33
706.91	1084.14
707.24	1069.16
707.58	1071.97
707.91	1071.73
708.25	1082.26
708.58	1089.52
708.92	1097.01
709.26	1083.43
709.59	1093.73
709.93	1083.67
710.26	1085.07
710.60	1082.50
710.93	1087.88
711.27	1085.54
711.60	1089.05
711.94	1085.77
712.27	1081.80
712.61	1084.14
712.94	1078.05
713.28	1077.11
713.61	1076.65
713.95	1076.18
714.28	1074.54
714.62	1079.69
714.95	1081.56
715.29	1079.92
715.62	1086.01
715.96	1096.54
716.29	1092.33
716.63	1098.88
716.96	1101.22
717.29	1094.67
717.63	1074.77
717.96	1065.88
718.30	1054.65
718.63	1048.33
718.97	1042.47
719.30	1049.03
719.63	1049.73
719.97	1050.90
720.30	1053.48
720.64	1067.05
720.97	1069.62
721.30	1077.35
721.64	1078.75
721.97	1082.97
722.31	1075.94
722.64	1083.90
722.97	1079.46
723.31	1081.33
723.64	1081.80
723.97	1078.28
724.31	1072.43
724.64	1082.50
724.98	1067.05
725.31	1060.96
725.64	1068.69
725.98	1068.22
726.31	1065.41
726.64	1077.11
726.97	1085.07
727.31	1084.37
727.64	1086.24
727.97	1075.94
728.31	1076.65
728.64	1063.77
728.97	1057.45
729.31	1056.05
729.64	1058.62
729.97	1054.18
730.30	1053.01
730.64	1059.79
730.97	1056.99
731.30	1063.31
731.63	1075.94
731.97	1084.84
732.30	1086.94
732.63	1088.82
732.96	1089.05
733.30	1081.56
733.63	1090.92
733.96	1086.94
734.29	1089.05
734.63	1087.65
734.96	1080.86
735.29	1079.69
735.62	1072.90
735.95	1078.28
736.29	1073.14
736.62	1080.86
736.95	1071.50
737.28	1077.82
737.61	1066.11
737.94	1068.69
738.28	1074.31
738.61	1076.41
738.94	1073.84
739.27	1080.86
739.60	1087.65
739.93	1082.73
740.27	1084.37
740.60	1091.86
740.93	1086.24
741.26	1084.37
741.59	1076.88
741.92	1074.77
742.25	1071.97
742.58	1079.46
742.91	1075.71
743.25	1083.90
743.58	1095.14
743.91	1093.73
744.24	1090.92
744.57	1082.73
744.90	1087.65
745.23	1076.18
745.56	1072.90
745.89	1071.73
746.22	1084.84
746.55	1083.20
746.88	1078.05
747.21	1073.60
747.54	1082.03
747.87	1080.16
748.20	1072.20
748.53	1073.14
748.87	1079.22
749.20	1075.71
749.53	1061.20
749.86	1064.01
750.19	1067.52
750.52	1066.58
750.85	1068.69
751.18	1080.86
751.51	1082.26
751.84	1091.16
752.16	1090.69
752.49	1096.31
752.82	1090.69
753.15	1087.65
753.48	1081.80
753.81	1082.73
754.14	1073.84
754.47	1082.03
754.80	1090.22
755.13	1094.90
755.46	1097.95
755.79	1093.73
756.12	1098.65
756.45	1093.97
756.78	1086.94
757.11	1094.43
757.43	1099.12
757.76	1088.58
758.09	1086.48
758.42	1086.48
758.75	1075.48
759.08	1073.37
759.41	1075.94
759.74	1077.82
760.07	1081.56
760.39	1074.31
760.72	1079.22
761.05	1086.01
761.38	1079.69
761.71	1076.65
762.04	1092.80
762.36	1091.16
762.69	1090.69
763.02	1089.99
763.35	1094.67
763.68	1083.43
764.01	1083.90
764.33	1077.82
764.66	1085.31
764.99	1081.56
765.32	1089.99
765.65	1094.67
765.97	1089.05
766.30	1091.39
