SpectraSuite Data File
++++++++++++++++++++++++++++++++++++
Date: Mon Aug 26 10:25:53 PDT 2019
User: corrico
Dark Spectrum Present: No
Reference Spectrum Present: No
Number of Sampled Component Spectra: 1
Spectrometers: USB2+H06089
Integration Time (usec): 10000 (USB2+H06089)
Spectra Averaged: 2 (USB2+H06089)
Boxcar Smoothing: 2 (USB2+H06089)
Correct for Electrical Dark: No (USB2+H06089)
Strobe/Lamp Enabled: No (USB2+H06089)
Correct for Detector Non-linearity: No (USB2+H06089)
Correct for Stray Light: No (USB2+H06089)
Number of Pixels in Processed Spectrum: 2048
>>>>>Begin Processed Spectral Data<<<<<
339.70	1026.32
340.07	1026.32
340.45	995.66
340.82	978.34
341.19	960.79
341.57	933.87
341.94	928.26
342.31	911.87
342.69	895.72
343.06	892.91
343.43	891.04
343.81	886.36
344.18	895.72
344.55	910.47
344.93	916.55
345.30	924.28
345.67	937.38
346.04	938.09
346.42	938.09
346.79	943.94
347.16	953.53
347.54	958.22
347.91	972.02
348.28	981.62
348.65	994.96
349.03	1000.34
349.40	1006.90
349.77	1016.73
350.14	1033.11
350.52	1028.67
350.89	1044.82
351.26	1060.03
351.63	1053.94
352.01	1052.77
352.38	1059.79
352.75	1048.79
353.12	1053.01
353.50	1071.97
353.87	1078.52
354.24	1084.14
354.61	1097.01
354.98	1095.84
355.36	1088.58
355.73	1086.71
356.10	1087.41
356.47	1091.16
356.84	1089.29
357.22	1092.80
357.59	1100.29
357.96	1099.82
358.33	1095.60
358.70	1091.16
359.08	1084.84
359.45	1084.84
359.82	1074.77
360.19	1076.88
360.56	1076.88
360.94	1081.09
361.31	1074.07
361.68	1080.39
362.05	1071.97
362.42	1077.82
362.79	1078.28
363.16	1068.92
363.54	1071.03
363.91	1067.52
364.28	1062.60
364.65	1064.24
365.02	1076.18
365.39	1074.07
365.76	1077.35
366.14	1079.92
366.51	1073.60
366.88	1066.58
367.25	1060.96
367.62	1073.37
367.99	1064.01
368.36	1060.50
368.73	1064.94
369.10	1079.22
369.48	1064.94
369.85	1068.92
370.22	1067.99
370.59	1060.73
370.96	1043.64
371.33	1049.26
371.70	1054.65
372.07	1057.22
372.44	1068.45
372.81	1067.99
373.18	1075.01
373.55	1068.69
373.93	1066.58
374.30	1060.03
374.67	1072.90
375.04	1064.48
375.41	1065.41
375.78	1076.41
376.15	1084.60
376.52	1086.01
376.89	1091.16
377.26	1096.54
377.63	1097.24
378.00	1084.60
378.37	1079.46
378.74	1072.67
379.11	1075.48
379.48	1083.20
379.85	1082.50
380.22	1083.67
380.59	1080.86
380.96	1074.31
381.33	1061.90
381.70	1065.65
382.07	1055.58
382.44	1057.45
382.81	1061.90
383.18	1067.05
383.55	1065.18
383.92	1073.84
384.29	1086.71
384.66	1075.94
385.03	1060.50
385.40	1058.39
385.77	1054.65
386.14	1046.92
386.51	1049.26
386.88	1064.71
387.25	1071.03
387.62	1074.31
387.99	1067.05
388.36	1079.69
388.73	1072.67
389.10	1071.73
389.46	1068.92
389.83	1072.67
390.20	1065.65
390.57	1058.39
390.94	1053.01
391.31	1046.22
391.68	1042.47
392.05	1047.39
392.42	1062.37
392.79	1070.33
393.16	1075.24
393.53	1080.86
393.89	1068.45
394.26	1059.79
394.63	1065.41
395.00	1067.75
395.37	1069.16
395.74	1082.26
396.11	1079.92
396.48	1071.97
396.84	1075.48
397.21	1076.88
397.58	1059.09
397.95	1058.39
398.32	1059.79
398.69	1072.90
399.06	1068.69
399.42	1080.63
399.79	1089.29
400.16	1085.31
400.53	1065.88
400.90	1067.75
401.27	1063.07
401.64	1049.96
402.00	1053.94
402.37	1054.18
402.74	1053.24
403.11	1064.71
403.48	1071.97
403.84	1075.94
404.21	1093.03
404.58	1088.58
404.95	1080.63
405.32	1087.65
405.68	1084.60
406.05	1065.88
406.42	1073.60
406.79	1070.56
407.16	1063.54
407.52	1058.16
407.89	1069.39
408.26	1065.18
408.63	1071.97
408.99	1070.09
409.36	1079.69
409.73	1078.52
410.10	1083.43
410.47	1082.26
410.83	1075.71
411.20	1073.60
411.57	1064.48
411.94	1065.41
412.30	1062.60
412.67	1073.60
413.04	1071.73
413.40	1074.07
413.77	1067.05
414.14	1059.09
414.51	1053.71
414.87	1049.73
415.24	1057.69
415.61	1066.11
415.97	1079.22
416.34	1090.69
416.71	1092.56
417.08	1086.24
417.44	1081.09
417.81	1077.82
418.18	1063.77
418.54	1061.43
418.91	1055.58
419.28	1061.67
419.64	1068.69
420.01	1083.20
420.38	1095.37
420.74	1093.97
421.11	1091.86
421.48	1081.80
421.84	1077.58
422.21	1068.69
422.58	1080.86
422.94	1088.12
423.31	1086.01
423.68	1086.01
424.04	1089.99
424.41	1084.14
424.77	1066.82
425.14	1076.88
425.51	1076.41
425.87	1074.07
426.24	1073.84
426.61	1077.35
426.97	1064.71
427.34	1060.03
427.70	1053.71
428.07	1058.16
428.44	1054.41
428.80	1057.69
429.17	1059.09
429.53	1058.62
429.90	1050.43
430.27	1054.88
430.63	1059.56
431.00	1053.71
431.36	1054.88
431.73	1056.52
432.09	1062.60
432.46	1053.71
432.83	1053.94
433.19	1063.77
433.56	1060.73
433.92	1062.60
434.29	1065.18
434.65	1071.73
435.02	1067.05
435.38	1075.24
435.75	1071.50
436.11	1089.05
436.48	1098.18
436.84	1098.88
437.21	1103.56
437.57	1105.20
437.94	1087.65
438.30	1083.90
438.67	1092.33
439.03	1095.37
439.40	1087.18
439.76	1090.92
440.13	1082.73
440.49	1077.58
440.86	1062.60
441.22	1073.84
441.59	1071.73
441.95	1088.12
442.32	1088.82
442.68	1103.80
443.05	1095.14
443.41	1102.16
443.78	1089.05
444.14	1084.60
444.51	1084.14
444.87	1077.35
445.24	1069.16
445.60	1073.37
445.96	1070.09
446.33	1063.77
446.69	1070.09
447.06	1075.71
447.42	1066.58
447.79	1066.35
448.15	1065.65
448.51	1066.58
448.88	1065.18
449.24	1071.26
449.61	1068.92
449.97	1071.03
450.33	1070.56
450.70	1074.54
451.06	1071.73
451.43	1072.20
451.79	1072.67
452.15	1075.48
452.52	1074.07
452.88	1078.75
453.24	1072.90
453.61	1074.31
453.97	1074.54
454.34	1072.43
454.70	1076.41
455.06	1079.46
455.43	1069.86
455.79	1072.43
456.15	1077.82
456.52	1077.11
456.88	1082.97
457.24	1093.26
457.61	1094.43
457.97	1090.69
458.33	1079.22
458.70	1083.67
459.06	1079.69
459.42	1076.18
459.79	1083.43
460.15	1097.48
460.51	1094.67
460.88	1089.52
461.24	1092.09
461.60	1093.26
461.96	1086.24
462.33	1079.69
462.69	1079.46
463.05	1080.39
463.42	1066.35
463.78	1056.52
464.14	1071.03
464.50	1071.73
464.87	1063.07
465.23	1067.52
465.59	1072.90
465.95	1058.39
466.32	1077.82
466.68	1084.84
467.04	1084.60
467.40	1088.58
467.77	1103.80
468.13	1090.92
468.49	1090.22
468.85	1089.75
469.22	1091.39
469.58	1080.16
469.94	1079.46
470.30	1080.39
470.66	1080.39
471.03	1076.18
471.39	1071.26
471.75	1068.92
472.11	1063.77
472.47	1070.33
472.84	1066.58
473.20	1071.26
473.56	1068.45
473.92	1073.14
474.28	1066.82
474.65	1074.07
475.01	1077.82
475.37	1086.71
475.73	1093.50
476.09	1092.56
476.45	1100.29
476.81	1090.46
477.18	1089.29
477.54	1073.84
477.90	1074.07
478.26	1071.26
478.62	1080.16
478.98	1072.20
479.34	1076.18
479.71	1078.05
480.07	1072.90
480.43	1066.58
480.79	1071.26
481.15	1072.90
481.51	1062.14
481.87	1064.71
482.23	1069.62
482.59	1074.07
482.96	1069.86
483.32	1076.88
483.68	1071.73
484.04	1072.43
484.40	1067.52
484.76	1068.69
485.12	1069.39
485.48	1076.65
485.84	1081.80
486.20	1078.52
486.56	1085.54
486.92	1085.07
487.28	1081.09
487.64	1072.20
488.00	1081.80
488.37	1073.14
488.73	1069.62
489.09	1069.86
489.45	1068.22
489.81	1071.03
490.17	1073.84
490.53	1078.05
490.89	1084.14
491.25	1090.46
491.61	1081.33
491.97	1088.58
492.33	1092.56
492.69	1080.63
493.05	1071.97
493.41	1080.39
493.77	1077.11
494.13	1073.84
494.49	1074.31
494.85	1082.26
495.21	1080.16
495.57	1085.31
495.93	1083.43
496.29	1087.18
496.64	1087.88
497.00	1082.73
497.36	1078.99
497.72	1082.03
498.08	1086.71
498.44	1082.50
498.80	1080.86
499.16	1078.52
499.52	1077.58
499.88	1075.01
500.24	1080.63
500.60	1090.69
500.96	1101.22
501.32	1108.01
501.68	1106.61
502.03	1107.54
502.39	1091.86
502.75	1085.07
503.11	1071.03
503.47	1072.67
503.83	1073.84
504.19	1076.65
504.55	1062.37
504.91	1076.65
505.26	1076.88
505.62	1070.56
505.98	1071.26
506.34	1082.26
506.70	1073.84
507.06	1084.37
507.42	1089.52
507.78	1092.33
508.13	1088.12
508.49	1091.16
508.85	1071.73
509.21	1065.65
509.57	1067.52
509.93	1065.65
510.28	1063.77
510.64	1080.16
511.00	1086.94
511.36	1084.84
511.72	1086.48
512.07	1088.82
512.43	1082.97
512.79	1080.63
513.15	1082.26
513.51	1081.09
513.86	1076.41
514.22	1069.86
514.58	1079.22
514.94	1081.56
515.30	1093.26
515.65	1091.63
516.01	1101.22
516.37	1093.73
516.73	1084.37
517.08	1083.43
517.44	1083.20
517.80	1083.67
518.16	1078.99
518.51	1085.07
518.87	1067.28
519.23	1078.28
519.59	1061.90
519.94	1067.99
520.30	1071.50
520.66	1097.01
521.01	1094.90
521.37	1109.41
521.73	1109.41
522.09	1106.14
522.44	1094.43
522.80	1090.46
523.16	1098.18
523.51	1097.95
523.87	1107.78
524.23	1111.75
524.58	1117.14
524.94	1107.54
525.30	1107.07
525.65	1100.29
526.01	1101.22
526.37	1095.60
526.72	1089.99
527.08	1089.99
527.44	1097.24
527.79	1096.78
528.15	1100.05
528.51	1101.22
528.86	1104.26
529.22	1092.09
529.58	1089.29
529.93	1087.18
530.29	1093.50
530.65	1088.82
531.00	1093.50
531.36	1088.58
531.71	1096.31
532.07	1089.05
532.43	1081.33
532.78	1079.46
533.14	1086.48
533.49	1075.01
533.85	1080.86
534.21	1088.58
534.56	1089.99
534.92	1087.41
535.27	1086.71
535.63	1089.05
535.98	1092.33
536.34	1096.78
536.69	1088.82
537.05	1090.46
537.41	1089.99
537.76	1085.31
538.12	1074.77
538.47	1086.01
538.83	1086.01
539.18	1086.48
539.54	1087.41
539.89	1093.50
540.25	1086.24
540.60	1090.22
540.96	1084.14
541.31	1086.94
541.67	1086.94
542.02	1085.54
542.38	1098.88
542.73	1108.24
543.09	1102.86
543.44	1108.24
543.80	1115.97
544.15	1113.16
544.51	1105.90
544.86	1108.95
545.22	1109.65
545.57	1110.12
545.93	1096.31
546.28	1092.09
546.64	1100.99
546.99	1091.16
547.35	1083.90
547.70	1085.77
548.05	1080.63
548.41	1081.80
548.76	1089.99
549.12	1088.58
549.47	1089.99
549.83	1100.52
550.18	1091.86
550.53	1080.86
550.89	1084.84
551.24	1078.52
551.60	1069.39
551.95	1064.71
552.30	1058.39
552.66	1060.03
553.01	1064.48
553.37	1060.73
553.72	1067.52
554.07	1073.60
554.43	1071.97
554.78	1073.84
555.13	1084.14
555.49	1069.86
555.84	1080.86
556.19	1090.46
556.55	1091.16
556.90	1081.56
557.26	1091.39
557.61	1085.54
557.96	1070.09
558.32	1061.20
558.67	1070.09
559.02	1075.71
559.37	1064.94
559.73	1071.26
560.08	1086.48
560.43	1086.24
560.79	1074.31
561.14	1080.16
561.49	1084.37
561.85	1087.18
562.20	1088.82
562.55	1090.22
562.90	1101.22
563.26	1087.41
563.61	1073.60
563.96	1073.14
564.32	1082.50
564.67	1072.43
565.02	1081.33
565.37	1085.07
565.73	1085.31
566.08	1077.82
566.43	1082.97
566.78	1083.90
567.14	1083.43
567.49	1077.58
567.84	1080.39
568.19	1082.03
568.54	1071.26
568.90	1064.01
569.25	1070.80
569.60	1071.50
569.95	1071.26
570.31	1092.09
570.66	1092.33
571.01	1100.29
571.36	1100.52
571.71	1098.41
572.06	1094.90
572.42	1110.12
572.77	1093.50
573.12	1087.65
573.47	1084.60
573.82	1077.11
574.18	1067.52
574.53	1073.14
574.88	1076.88
575.23	1076.88
575.58	1075.48
575.93	1076.18
576.28	1078.28
576.64	1073.14
576.99	1072.20
577.34	1077.58
577.69	1075.94
578.04	1077.11
578.39	1082.26
578.74	1082.73
579.09	1079.69
579.44	1089.05
579.80	1087.88
580.15	1087.88
580.50	1085.31
580.85	1075.24
581.20	1072.20
581.55	1067.52
581.90	1063.54
582.25	1073.37
582.60	1082.03
582.95	1078.52
583.30	1071.97
583.65	1072.67
584.00	1063.54
584.35	1055.82
584.71	1058.86
585.06	1073.84
585.41	1067.75
585.76	1071.97
586.11	1084.60
586.46	1075.94
586.81	1073.14
587.16	1078.28
587.51	1075.94
587.86	1074.31
588.21	1085.31
588.56	1088.35
588.91	1093.73
589.26	1096.07
589.61	1097.01
589.96	1088.12
590.31	1094.20
590.66	1093.97
591.01	1091.63
591.36	1085.07
591.71	1089.75
592.06	1081.56
592.41	1086.24
592.76	1087.65
593.10	1087.65
593.45	1082.26
593.80	1076.18
594.15	1076.88
594.50	1075.71
594.85	1071.03
595.20	1071.73
595.55	1079.92
595.90	1067.28
596.25	1076.65
596.60	1087.41
596.95	1089.52
597.30	1090.69
597.64	1145.22
597.99	1139.84
598.34	1139.84
598.69	1138.67
599.04	1135.86
599.39	1090.92
599.74	1086.71
600.09	1075.24
600.44	1077.11
600.78	1069.16
601.13	1062.14
601.48	1072.67
601.83	1078.52
602.18	1078.05
602.53	1089.52
602.88	1083.67
603.22	1076.65
603.57	1077.58
603.92	1084.84
604.27	1068.22
604.62	1079.22
604.97	1074.31
605.31	1089.99
605.66	1085.07
606.01	1093.26
606.36	1097.24
606.71	1103.56
607.05	1097.24
607.40	1096.54
607.75	1104.03
608.10	1094.43
608.44	1092.56
608.79	1083.67
609.14	1084.60
609.49	1081.80
609.84	1086.94
610.18	1092.56
610.53	1097.71
610.88	1095.37
611.23	1089.52
611.57	1081.33
611.92	1087.18
612.27	1080.39
612.62	1087.65
612.96	1086.71
613.31	1096.78
613.66	1090.46
614.00	1104.50
614.35	1095.14
614.70	1099.82
615.05	1096.07
615.39	1086.71
615.74	1077.82
616.09	1076.88
616.43	1077.58
616.78	1080.16
617.13	1086.71
617.47	1080.16
617.82	1082.50
618.17	1078.99
618.51	1082.03
618.86	1081.33
619.21	1083.43
619.55	1083.90
619.90	1076.88
620.25	1070.56
620.59	1065.18
620.94	1066.35
621.29	1072.67
621.63	1090.46
621.98	1090.92
622.32	1091.16
622.67	1092.09
623.02	1086.94
623.36	1082.97
623.71	1080.63
624.05	1077.35
624.40	1073.60
624.75	1076.41
625.09	1076.41
625.44	1076.18
625.78	1077.58
626.13	1084.37
626.48	1079.92
626.82	1070.33
627.17	1068.69
627.51	1076.18
627.86	1068.45
628.20	1068.22
628.55	1076.18
628.89	1082.03
629.24	1072.90
629.58	1075.94
629.93	1077.58
630.28	1071.73
630.62	1073.37
630.97	1082.73
631.31	1087.65
631.66	1098.88
632.00	1105.44
632.35	1097.48
632.69	1079.92
633.04	1079.22
633.38	1069.86
633.73	1073.84
634.07	1087.18
634.42	1103.33
634.76	1100.52
635.11	1088.35
635.45	1083.67
635.79	1079.46
636.14	1079.46
636.48	1076.41
636.83	1089.75
637.17	1089.05
637.52	1087.65
637.86	1087.65
638.21	1091.16
638.55	1095.14
638.89	1088.82
639.24	1087.65
639.58	1088.35
639.93	1079.92
640.27	1068.92
640.61	1070.80
640.96	1077.82
641.30	1072.67
641.65	1078.99
641.99	1088.58
642.33	1089.05
642.68	1081.80
643.02	1090.46
643.37	1093.97
643.71	1085.77
644.05	1086.71
644.40	1090.46
644.74	1085.77
645.08	1084.60
645.43	1097.24
645.77	1099.58
646.11	1092.33
646.46	1090.22
646.80	1099.35
647.14	1087.41
647.49	1072.90
647.83	1086.24
648.17	1090.69
648.52	1081.33
648.86	1085.31
649.20	1103.33
649.55	1097.24
649.89	1093.97
650.23	1089.99
650.57	1080.63
650.92	1072.43
651.26	1070.09
651.60	1072.90
651.95	1075.71
652.29	1077.82
652.63	1082.26
652.97	1079.46
653.32	1071.73
653.66	1075.94
654.00	1090.92
654.34	1086.71
654.69	1090.69
655.03	1102.39
655.37	1087.88
655.71	1075.48
656.05	1071.73
656.40	1075.24
656.74	1061.20
657.08	1075.48
657.42	1074.77
657.76	1078.99
658.11	1078.75
658.45	1086.94
658.79	1079.92
659.13	1086.24
659.47	1085.31
659.82	1071.97
660.16	1064.48
660.50	1068.22
660.84	1068.92
661.18	1065.18
661.52	1070.33
661.87	1076.88
662.21	1078.52
662.55	1071.03
662.89	1076.88
663.23	1077.82
663.57	1076.88
663.91	1079.92
664.25	1078.75
664.60	1080.39
664.94	1074.07
665.28	1083.90
665.62	1082.73
665.96	1085.77
666.30	1077.58
666.64	1087.65
666.98	1080.86
667.32	1078.52
667.66	1074.77
668.01	1090.46
668.35	1086.01
668.69	1085.77
669.03	1087.41
669.37	1094.20
669.71	1091.63
670.05	1095.60
670.39	1090.22
670.73	1093.03
671.07	1087.18
671.41	1083.20
671.75	1071.50
672.09	1077.35
672.43	1075.94
672.77	1085.31
673.11	1087.18
673.45	1094.67
673.79	1098.65
674.13	1097.48
674.47	1095.37
674.81	1094.67
675.15	1095.14
675.49	1094.90
675.83	1090.92
676.17	1095.60
676.51	1102.86
676.85	1102.39
677.19	1100.29
677.53	1103.56
677.87	1092.33
678.21	1074.07
678.55	1065.18
678.89	1054.88
679.23	1046.92
679.57	1051.37
679.90	1062.37
680.24	1073.60
680.58	1084.60
680.92	1091.86
681.26	1097.24
681.60	1092.56
681.94	1085.31
682.28	1083.20
682.62	1075.01
682.96	1060.73
683.29	1069.16
683.63	1078.75
683.97	1081.80
684.31	1081.80
684.65	1088.35
684.99	1080.39
685.33	1082.26
685.67	1065.41
686.00	1068.45
686.34	1073.37
686.68	1072.43
687.02	1068.69
687.36	1086.01
687.70	1095.60
688.03	1097.01
688.37	1102.39
688.71	1097.71
689.05	1091.86
689.39	1075.94
689.72	1064.94
690.06	1057.92
690.40	1064.24
690.74	1067.05
691.08	1072.43
691.41	1080.39
691.75	1077.82
692.09	1078.75
692.43	1065.65
692.76	1073.60
693.10	1073.60
693.44	1076.65
693.78	1074.77
694.11	1074.77
694.45	1077.35
694.79	1074.54
695.13	1076.65
695.46	1072.20
695.80	1082.26
696.14	1075.94
696.48	1072.90
696.81	1075.48
697.15	1082.97
697.49	1071.73
697.82	1071.97
698.16	1071.97
698.50	1063.54
698.83	1054.18
699.17	1068.69
699.51	1067.52
699.84	1067.28
700.18	1073.14
700.52	1081.56
700.85	1074.31
701.19	1075.71
701.53	1077.82
701.86	1079.46
702.20	1072.43
702.54	1075.94
702.87	1066.82
703.21	1065.65
703.55	1059.33
703.88	1063.77
704.22	1060.03
704.55	1069.16
704.89	1077.35
705.23	1085.07
705.56	1080.63
705.90	1076.65
706.23	1078.28
706.57	1080.16
706.91	1088.35
707.24	1086.24
707.58	1087.18
707.91	1087.65
708.25	1079.22
708.58	1072.67
708.92	1080.16
709.26	1083.20
709.59	1077.35
709.93	1075.71
710.26	1065.18
710.60	1068.92
710.93	1075.94
711.27	1082.73
711.60	1083.67
711.94	1086.01
712.27	1081.33
712.61	1078.75
712.94	1064.71
713.28	1066.58
713.61	1071.73
713.95	1069.16
714.28	1065.65
714.62	1077.35
714.95	1076.41
715.29	1074.54
715.62	1074.77
715.96	1080.86
716.29	1076.41
716.63	1078.99
716.96	1081.80
717.29	1083.67
717.63	1087.65
717.96	1096.31
718.30	1103.56
718.63	1103.80
718.97	1100.52
719.30	1096.78
719.63	1092.56
719.97	1093.97
720.30	1102.86
720.64	1110.58
720.97	1107.54
721.30	1106.61
721.64	1092.80
721.97	1079.22
722.31	1070.09
722.64	1061.67
722.97	1068.45
723.31	1067.99
723.64	1063.31
723.97	1062.84
724.31	1068.92
724.64	1063.54
724.98	1066.35
725.31	1076.18
725.64	1077.11
725.98	1083.43
726.31	1091.39
726.64	1096.07
726.97	1094.43
727.31	1096.78
727.64	1096.78
727.97	1083.67
728.31	1080.39
728.64	1074.54
728.97	1079.92
729.31	1076.88
729.64	1086.94
729.97	1086.94
730.30	1091.16
730.64	1083.43
730.97	1090.22
731.30	1086.24
731.63	1087.41
731.97	1093.73
732.30	1103.33
732.63	1093.73
732.96	1093.73
733.30	1088.82
733.63	1090.22
733.96	1085.31
734.29	1082.26
734.63	1077.11
734.96	1078.28
735.29	1080.16
735.62	1084.14
735.95	1094.20
736.29	1107.07
736.62	1109.18
736.95	1102.16
737.28	1099.82
737.61	1096.07
737.94	1089.99
738.28	1094.20
738.61	1096.31
738.94	1095.37
739.27	1085.54
739.60	1086.71
739.93	1088.82
740.27	1081.80
740.60	1082.03
740.93	1090.69
741.26	1086.94
741.59	1082.73
741.92	1091.39
742.25	1087.88
742.58	1075.94
742.91	1073.84
743.25	1069.62
743.58	1063.77
743.91	1062.37
744.24	1072.43
744.57	1066.35
744.90	1070.56
745.23	1081.09
745.56	1086.48
745.89	1087.41
746.22	1090.22
746.55	1087.41
746.88	1079.46
747.21	1076.18
747.54	1071.50
747.87	1075.24
748.20	1080.63
748.53	1082.26
748.87	1081.09
749.20	1095.37
749.53	1094.20
749.86	1085.54
750.19	1079.92
750.52	1087.88
750.85	1069.16
751.18	1069.62
751.51	1078.99
751.84	1071.26
752.16	1070.80
752.49	1076.41
752.82	1075.01
753.15	1068.22
753.48	1078.99
753.81	1066.35
754.14	1071.03
754.47	1073.14
754.80	1072.43
755.13	1068.45
755.46	1075.71
755.79	1078.52
756.12	1084.14
756.45	1093.03
756.78	1098.65
757.11	1099.35
757.43	1090.92
757.76	1086.94
758.09	1088.82
758.42	1092.56
758.75	1094.67
759.08	1096.07
759.41	1092.80
759.74	1081.56
760.07	1074.31
760.39	1064.94
760.72	1073.37
761.05	1075.48
761.38	1085.31
761.71	1082.73
762.04	1092.56
762.36	1086.24
762.69	1093.03
763.02	1084.60
763.35	1083.90
763.68	1081.80
764.01	1084.84
764.33	1083.20
764.66	1088.35
764.99	1102.39
765.32	1099.12
765.65	1089.99
765.97	1087.18
766.30	1092.56
