SpectraSuite Data File
++++++++++++++++++++++++++++++++++++
Date: Mon Aug 26 10:25:54 PDT 2019
User: corrico
Dark Spectrum Present: No
Reference Spectrum Present: No
Number of Sampled Component Spectra: 1
Spectrometers: USB2+H06089
Integration Time (usec): 10000 (USB2+H06089)
Spectra Averaged: 2 (USB2+H06089)
Boxcar Smoothing: 2 (USB2+H06089)
Correct for Electrical Dark: No (USB2+H06089)
Strobe/Lamp Enabled: No (USB2+H06089)
Correct for Detector Non-linearity: No (USB2+H06089)
Correct for Stray Light: No (USB2+H06089)
Number of Pixels in Processed Spectrum: 2048
>>>>>Begin Processed Spectral Data<<<<<
339.70	1067.28
340.07	1067.28
340.45	1022.11
340.82	994.26
341.19	963.83
341.57	932.94
341.94	920.53
342.31	906.02
342.69	899.23
343.06	893.62
343.43	897.60
343.81	896.89
344.18	903.68
344.55	914.68
344.93	920.06
345.30	917.26
345.67	931.77
346.04	941.83
346.42	943.94
346.79	957.75
347.16	971.32
347.54	970.39
347.91	977.88
348.28	988.64
348.65	998.47
349.03	1007.60
349.40	1023.28
349.77	1033.58
350.14	1037.79
350.52	1037.09
350.89	1037.79
351.26	1039.90
351.63	1042.24
352.01	1045.52
352.38	1049.96
352.75	1059.79
353.12	1058.62
353.50	1062.60
353.87	1065.41
354.24	1069.16
354.61	1073.14
354.98	1082.50
355.36	1089.05
355.73	1090.92
356.10	1092.09
356.47	1089.99
356.84	1089.05
357.22	1083.90
357.59	1086.48
357.96	1088.58
358.33	1088.12
358.70	1087.88
359.08	1091.86
359.45	1085.77
359.82	1088.12
360.19	1077.58
360.56	1069.16
360.94	1065.18
361.31	1058.62
361.68	1044.35
362.05	1053.24
362.42	1065.65
362.79	1060.50
363.16	1068.45
363.54	1074.77
363.91	1064.48
364.28	1049.96
364.65	1061.43
365.02	1060.26
365.39	1061.20
365.76	1071.03
366.14	1086.94
366.51	1076.41
366.88	1085.07
367.25	1085.07
367.62	1084.37
367.99	1079.92
368.36	1077.11
368.73	1074.07
369.10	1068.22
369.48	1067.52
369.85	1064.24
370.22	1074.77
370.59	1072.20
370.96	1079.69
371.33	1074.54
371.70	1068.92
372.07	1058.39
372.44	1056.05
372.81	1051.13
373.18	1054.18
373.55	1059.09
373.93	1072.20
374.30	1076.88
374.67	1088.82
375.04	1086.01
375.41	1092.33
375.78	1075.94
376.15	1065.41
376.52	1053.71
376.89	1059.09
377.26	1047.16
377.63	1052.54
378.00	1055.58
378.37	1053.24
378.74	1055.82
379.11	1068.92
379.48	1072.43
379.85	1082.26
380.22	1087.18
380.59	1080.86
380.96	1079.92
381.33	1078.28
381.70	1065.88
382.07	1066.35
382.44	1064.71
382.81	1049.96
383.18	1053.01
383.55	1059.79
383.92	1061.43
384.29	1064.94
384.66	1077.58
385.03	1074.07
385.40	1082.50
385.77	1087.65
386.14	1093.03
386.51	1082.73
386.88	1075.94
387.25	1066.11
387.62	1054.41
387.99	1051.84
388.36	1057.22
388.73	1068.45
389.10	1069.86
389.46	1081.09
389.83	1081.56
390.20	1082.03
390.57	1077.11
390.94	1077.82
391.31	1073.84
391.68	1067.05
392.05	1059.09
392.42	1067.52
392.79	1063.31
393.16	1059.09
393.53	1070.09
393.89	1075.01
394.26	1065.65
394.63	1074.07
395.00	1077.82
395.37	1059.09
395.74	1057.69
396.11	1063.77
396.48	1058.62
396.84	1064.24
397.21	1075.71
397.58	1078.99
397.95	1076.18
398.32	1072.43
398.69	1075.94
399.06	1076.88
399.42	1080.39
399.79	1075.01
400.16	1077.82
400.53	1066.35
400.90	1064.48
401.27	1064.24
401.64	1068.22
402.00	1077.11
402.37	1087.65
402.74	1081.80
403.11	1071.26
403.48	1069.39
403.84	1067.05
404.21	1056.28
404.58	1059.33
404.95	1062.37
405.32	1062.84
405.68	1061.43
406.05	1060.73
406.42	1061.20
406.79	1061.20
407.16	1064.24
407.52	1060.50
407.89	1065.65
408.26	1077.58
408.63	1081.80
408.99	1076.65
409.36	1075.01
409.73	1068.22
410.10	1057.45
410.47	1049.73
410.83	1051.13
411.20	1054.65
411.57	1064.71
411.94	1066.11
412.30	1075.48
412.67	1071.73
413.04	1066.35
413.40	1055.35
413.77	1055.35
414.14	1051.84
414.51	1060.50
414.87	1072.43
415.24	1081.33
415.61	1097.01
415.97	1094.20
416.34	1090.92
416.71	1081.80
417.08	1082.73
417.44	1067.05
417.81	1076.18
418.18	1078.75
418.54	1085.07
418.91	1071.03
419.28	1059.33
419.64	1056.05
420.01	1059.56
420.38	1058.16
420.74	1065.41
421.11	1073.84
421.48	1079.46
421.84	1071.03
422.21	1075.94
422.58	1074.77
422.94	1083.90
423.31	1077.11
423.68	1094.43
424.04	1102.39
424.41	1115.27
424.77	1105.67
425.14	1112.22
425.51	1110.12
425.87	1086.01
426.24	1082.26
426.61	1081.80
426.97	1084.84
427.34	1078.99
427.70	1082.50
428.07	1063.54
428.44	1069.16
428.80	1050.20
429.17	1039.20
429.53	1047.86
429.90	1060.26
430.27	1063.77
430.63	1071.50
431.00	1068.45
431.36	1063.77
431.73	1072.67
432.09	1072.90
432.46	1074.07
432.83	1085.07
433.19	1089.75
433.56	1082.50
433.92	1085.07
434.29	1078.05
434.65	1084.14
435.02	1079.46
435.38	1075.71
435.75	1066.35
436.11	1077.58
436.48	1069.86
436.84	1070.09
437.21	1080.16
437.57	1071.26
437.94	1065.65
438.30	1063.31
438.67	1058.16
439.03	1063.77
439.40	1076.65
439.76	1085.54
440.13	1089.52
440.49	1100.52
440.86	1093.73
441.22	1097.01
441.59	1091.63
441.95	1086.71
442.32	1089.29
442.68	1093.97
443.05	1093.97
443.41	1087.65
443.78	1094.20
444.14	1084.84
444.51	1075.24
444.87	1078.99
445.24	1086.71
445.60	1089.05
445.96	1093.26
446.33	1087.41
446.69	1079.22
447.06	1076.41
447.42	1076.88
447.79	1070.56
448.15	1079.69
448.51	1086.24
448.88	1097.48
449.24	1090.69
449.61	1089.52
449.97	1093.97
450.33	1091.86
450.70	1082.73
451.06	1085.07
451.43	1092.56
451.79	1091.16
452.15	1093.97
452.52	1096.31
452.88	1077.82
453.24	1078.28
453.61	1069.16
453.97	1064.71
454.34	1061.43
454.70	1086.71
455.06	1088.35
455.43	1089.05
455.79	1090.69
456.15	1095.60
456.52	1098.18
456.88	1097.71
457.24	1104.73
457.61	1100.29
457.97	1093.73
458.33	1083.90
458.70	1078.99
459.06	1067.75
459.42	1070.33
459.79	1065.41
460.15	1066.35
460.51	1060.03
460.88	1066.35
461.24	1064.48
461.60	1077.82
461.96	1085.07
462.33	1088.82
462.69	1081.80
463.05	1081.09
463.42	1065.88
463.78	1054.65
464.14	1059.79
464.50	1067.05
464.87	1075.48
465.23	1087.18
465.59	1087.88
465.95	1089.99
466.32	1100.29
466.68	1094.43
467.04	1091.16
467.40	1097.71
467.77	1093.26
468.13	1084.14
468.49	1082.26
468.85	1078.28
469.22	1071.73
469.58	1076.88
469.94	1075.24
470.30	1070.09
470.66	1075.01
471.03	1082.73
471.39	1075.48
471.75	1077.58
472.11	1079.22
472.47	1073.60
472.84	1065.65
473.20	1060.73
473.56	1064.71
473.92	1073.84
474.28	1077.58
474.65	1085.07
475.01	1095.14
475.37	1083.67
475.73	1077.11
476.09	1078.28
476.45	1072.90
476.81	1074.54
477.18	1074.31
477.54	1069.62
477.90	1075.94
478.26	1064.48
478.62	1061.20
478.98	1071.73
479.34	1077.11
479.71	1073.14
480.07	1091.86
480.43	1093.97
480.79	1087.65
481.15	1088.35
481.51	1085.54
481.87	1072.90
482.23	1066.82
482.59	1071.26
482.96	1072.90
483.32	1076.18
483.68	1082.50
484.04	1085.77
484.40	1083.43
484.76	1076.65
485.12	1067.99
485.48	1068.45
485.84	1064.71
486.20	1066.11
486.56	1073.14
486.92	1084.60
487.28	1082.73
487.64	1087.18
488.00	1087.41
488.37	1087.88
488.73	1091.86
489.09	1093.73
489.45	1102.16
489.81	1097.95
490.17	1094.90
490.53	1079.92
490.89	1076.88
491.25	1060.50
491.61	1063.77
491.97	1068.92
492.33	1071.97
492.69	1069.86
493.05	1085.54
493.41	1089.99
493.77	1077.35
494.13	1076.18
494.49	1077.35
494.85	1078.52
495.21	1078.05
495.57	1089.29
495.93	1091.86
496.29	1093.03
496.64	1081.33
497.00	1074.31
497.36	1070.56
497.72	1072.43
498.08	1075.94
498.44	1075.94
498.80	1082.03
499.16	1086.01
499.52	1086.71
499.88	1087.65
500.24	1091.63
500.60	1092.56
500.96	1089.99
501.32	1089.99
501.68	1082.26
502.03	1080.16
502.39	1082.97
502.75	1084.60
503.11	1084.14
503.47	1098.65
503.83	1100.99
504.19	1096.78
504.55	1099.12
504.91	1106.61
505.26	1100.05
505.62	1107.54
505.98	1111.99
506.34	1111.52
506.70	1101.22
507.06	1100.99
507.42	1099.35
507.78	1100.05
508.13	1098.18
508.49	1104.50
508.85	1101.69
509.21	1100.52
509.57	1089.52
509.93	1086.71
510.28	1082.73
510.64	1080.63
511.00	1079.22
511.36	1086.24
511.72	1088.58
512.07	1091.86
512.43	1100.29
512.79	1102.39
513.15	1098.65
513.51	1094.20
513.86	1097.95
514.22	1087.18
514.58	1078.52
514.94	1072.90
515.30	1080.39
515.65	1089.52
516.01	1096.07
516.37	1106.61
516.73	1114.33
517.08	1111.75
517.44	1099.12
517.80	1096.07
518.16	1095.60
518.51	1097.48
518.87	1100.29
519.23	1095.84
519.59	1098.65
519.94	1099.12
520.30	1092.56
520.66	1091.39
521.01	1087.18
521.37	1086.48
521.73	1085.31
522.09	1083.43
522.44	1081.56
522.80	1098.41
523.16	1095.14
523.51	1083.43
523.87	1090.22
524.23	1088.82
524.58	1076.65
524.94	1084.14
525.30	1090.22
525.65	1099.58
526.01	1107.78
526.37	1108.24
526.72	1107.07
527.08	1107.07
527.44	1101.22
527.79	1092.09
528.15	1099.58
528.51	1100.29
528.86	1096.78
529.22	1095.60
529.58	1105.67
529.93	1097.01
530.29	1091.39
530.65	1084.60
531.00	1095.60
531.36	1096.07
531.71	1103.80
532.07	1104.03
532.43	1117.14
532.78	1105.67
533.14	1106.61
533.49	1106.37
533.85	1113.16
534.21	1109.41
534.56	1110.35
534.92	1103.56
535.27	1102.39
535.63	1098.65
535.98	1093.73
536.34	1084.37
536.69	1071.97
537.05	1074.54
537.41	1081.33
537.76	1092.56
538.12	1096.54
538.47	1105.44
538.83	1101.22
539.18	1091.63
539.54	1089.52
539.89	1085.54
540.25	1088.35
540.60	1084.14
540.96	1084.84
541.31	1086.24
541.67	1098.41
542.02	1102.39
542.38	1110.12
542.73	1111.99
543.09	1104.73
543.44	1101.46
543.80	1102.16
544.15	1102.16
544.51	1100.75
544.86	1101.22
545.22	1100.29
545.57	1087.65
545.93	1078.52
546.28	1076.18
546.64	1077.58
546.99	1083.43
547.35	1094.43
547.70	1095.84
548.05	1103.09
548.41	1104.97
548.76	1095.84
549.12	1089.52
549.47	1092.09
549.83	1092.09
550.18	1085.77
550.53	1082.97
550.89	1089.05
551.24	1085.54
551.60	1079.69
551.95	1086.01
552.30	1089.52
552.66	1071.26
553.01	1079.69
553.37	1075.24
553.72	1073.84
554.07	1076.88
554.43	1097.48
554.78	1082.50
555.13	1087.18
555.49	1088.58
555.84	1089.99
556.19	1081.33
556.55	1089.52
556.90	1085.07
557.26	1076.41
557.61	1075.01
557.96	1072.90
558.32	1066.58
558.67	1072.43
559.02	1073.14
559.37	1064.71
559.73	1061.67
560.08	1064.24
560.43	1066.35
560.79	1078.99
561.14	1071.26
561.49	1078.52
561.85	1081.80
562.20	1077.82
562.55	1071.50
562.90	1080.63
563.26	1075.71
563.61	1070.56
563.96	1071.26
564.32	1071.26
564.67	1077.58
565.02	1084.60
565.37	1087.65
565.73	1088.12
566.08	1086.71
566.43	1090.69
566.78	1086.48
567.14	1086.71
567.49	1090.22
567.84	1097.01
568.19	1088.82
568.54	1090.22
568.90	1094.43
569.25	1092.33
569.60	1087.65
569.95	1083.67
570.31	1087.41
570.66	1085.31
571.01	1088.58
571.36	1088.12
571.71	1094.67
572.06	1091.86
572.42	1086.94
572.77	1079.22
573.12	1073.60
573.47	1075.71
573.82	1072.90
574.18	1083.90
574.53	1081.56
574.88	1082.26
575.23	1071.26
575.58	1074.54
575.93	1068.69
576.28	1076.65
576.64	1080.16
576.99	1085.54
577.34	1076.88
577.69	1075.01
578.04	1071.97
578.39	1068.92
578.74	1072.90
579.09	1075.94
579.44	1083.90
579.80	1088.12
580.15	1093.50
580.50	1094.43
580.85	1097.71
581.20	1090.92
581.55	1086.24
581.90	1081.09
582.25	1070.33
582.60	1058.86
582.95	1063.31
583.30	1063.77
583.65	1066.35
584.00	1062.37
584.35	1066.82
584.71	1063.77
585.06	1068.92
585.41	1065.18
585.76	1066.35
586.11	1070.80
586.46	1071.73
586.81	1070.56
587.16	1072.20
587.51	1083.90
587.86	1089.52
588.21	1088.82
588.56	1076.41
588.91	1073.14
589.26	1075.48
589.61	1078.75
589.96	1077.11
590.31	1084.37
590.66	1081.80
591.01	1075.24
591.36	1063.07
591.71	1072.43
592.06	1079.22
592.41	1088.12
592.76	1095.37
593.10	1101.92
593.45	1093.03
593.80	1088.35
594.15	1084.37
594.50	1076.65
594.85	1081.33
595.20	1087.65
595.55	1086.24
595.90	1093.26
596.25	1100.05
596.60	1100.05
596.95	1096.07
597.30	1104.73
597.64	1156.93
597.99	1159.74
598.34	1155.05
598.69	1152.95
599.04	1144.29
599.39	1086.94
599.74	1080.16
600.09	1083.20
600.44	1077.82
600.78	1081.80
601.13	1077.58
601.48	1080.16
601.83	1081.80
602.18	1090.46
602.53	1089.29
602.88	1088.12
603.22	1082.73
603.57	1085.31
603.92	1085.77
604.27	1085.07
604.62	1096.54
604.97	1097.71
605.31	1095.37
605.66	1089.75
606.01	1089.05
606.36	1078.99
606.71	1086.48
607.05	1087.88
607.40	1087.65
607.75	1080.39
608.10	1091.16
608.44	1078.52
608.79	1071.97
609.14	1069.16
609.49	1079.22
609.84	1078.75
610.18	1090.69
610.53	1089.05
610.88	1093.03
611.23	1096.31
611.57	1088.58
611.92	1088.58
612.27	1095.60
612.62	1102.63
612.96	1098.41
613.31	1101.46
613.66	1094.67
614.00	1082.03
614.35	1072.20
614.70	1067.05
615.05	1067.75
615.39	1070.09
615.74	1071.26
616.09	1079.22
616.43	1087.41
616.78	1092.33
617.13	1097.01
617.47	1106.37
617.82	1099.82
618.17	1086.01
618.51	1079.22
618.86	1070.80
619.21	1076.18
619.55	1086.01
619.90	1095.37
620.25	1098.41
620.59	1097.71
620.94	1089.05
621.29	1077.58
621.63	1071.50
621.98	1065.65
622.32	1071.50
622.67	1066.11
623.02	1078.99
623.36	1091.16
623.71	1093.73
624.05	1089.05
624.40	1094.43
624.75	1084.60
625.09	1073.84
625.44	1064.94
625.78	1060.50
626.13	1059.79
626.48	1066.82
626.82	1067.52
627.17	1084.60
627.51	1099.35
627.86	1097.48
628.20	1092.09
628.55	1094.67
628.89	1086.01
629.24	1083.90
629.58	1091.16
629.93	1097.71
630.28	1093.50
630.62	1101.92
630.97	1100.05
631.31	1094.43
631.66	1090.46
632.00	1100.05
632.35	1095.14
632.69	1091.63
633.04	1095.60
633.38	1091.63
633.73	1077.82
634.07	1088.12
634.42	1095.60
634.76	1090.69
635.11	1103.09
635.45	1108.48
635.79	1098.65
636.14	1085.77
636.48	1082.73
636.83	1073.14
637.17	1081.33
637.52	1074.54
637.86	1084.37
638.21	1085.31
638.55	1078.52
638.89	1067.28
639.24	1071.73
639.58	1073.37
639.93	1078.05
640.27	1081.56
640.61	1080.86
640.96	1078.99
641.30	1072.20
641.65	1071.03
641.99	1075.48
642.33	1076.65
642.68	1076.41
643.02	1070.80
643.37	1054.18
643.71	1053.01
644.05	1058.16
644.40	1059.33
644.74	1071.50
645.08	1093.50
645.43	1091.39
645.77	1086.48
646.11	1083.20
646.46	1078.05
646.80	1080.16
647.14	1086.71
647.49	1093.26
647.83	1094.67
648.17	1097.01
648.52	1089.29
648.86	1077.35
649.20	1075.01
649.55	1070.33
649.89	1068.45
650.23	1059.56
650.57	1059.56
650.92	1060.50
651.26	1075.48
651.60	1068.92
651.95	1086.48
652.29	1093.97
652.63	1095.60
652.97	1087.65
653.32	1098.65
653.66	1086.24
654.00	1073.37
654.34	1074.31
654.69	1083.20
655.03	1073.84
655.37	1079.92
655.71	1088.35
656.05	1085.77
656.40	1072.67
656.74	1077.58
657.08	1072.20
657.42	1083.90
657.76	1087.88
658.11	1090.46
658.45	1086.24
658.79	1093.73
659.13	1084.84
659.47	1086.48
659.82	1095.37
660.16	1100.29
660.50	1089.29
660.84	1088.58
661.18	1084.84
661.52	1073.14
661.87	1066.58
662.21	1079.69
662.55	1088.12
662.89	1089.75
663.23	1082.73
663.57	1092.80
663.91	1082.03
664.25	1064.24
664.60	1060.26
664.94	1076.18
665.28	1074.31
665.62	1082.03
665.96	1099.58
666.30	1093.97
666.64	1085.07
666.98	1081.80
667.32	1074.54
667.66	1066.58
668.01	1061.67
668.35	1057.22
668.69	1056.52
669.03	1063.77
669.37	1056.52
669.71	1064.94
670.05	1071.97
670.39	1086.48
670.73	1078.99
671.07	1084.84
671.41	1086.94
671.75	1086.94
672.09	1067.75
672.43	1063.07
672.77	1065.65
673.11	1068.69
673.45	1074.07
673.79	1079.22
674.13	1095.14
674.47	1102.86
674.81	1093.26
675.15	1089.52
675.49	1097.24
675.83	1086.48
676.17	1064.01
676.51	1071.97
676.85	1076.88
677.19	1074.54
677.53	1086.48
677.87	1094.90
678.21	1092.09
678.55	1093.97
678.89	1093.73
679.23	1093.97
679.57	1090.92
679.90	1091.39
680.24	1084.84
680.58	1085.31
680.92	1076.41
681.26	1074.07
681.60	1075.24
681.94	1075.48
682.28	1070.33
682.62	1072.90
682.96	1083.90
683.29	1081.09
683.63	1078.52
683.97	1075.94
684.31	1066.58
684.65	1061.20
684.99	1067.75
685.33	1066.58
685.67	1067.28
686.00	1076.41
686.34	1075.94
686.68	1069.86
687.02	1075.24
687.36	1072.67
687.70	1072.90
688.03	1084.60
688.37	1087.65
688.71	1098.88
689.05	1097.24
689.39	1096.31
689.72	1089.99
690.06	1095.60
690.40	1082.26
690.74	1086.01
691.08	1077.82
691.41	1073.37
691.75	1055.58
692.09	1056.28
692.43	1064.71
692.76	1067.99
693.10	1066.35
693.44	1077.58
693.78	1075.94
694.11	1072.20
694.45	1079.69
694.79	1084.14
695.13	1080.39
695.46	1075.94
695.80	1069.39
696.14	1063.07
696.48	1070.09
696.81	1069.39
697.15	1066.11
697.49	1064.71
697.82	1058.16
698.16	1056.05
698.50	1053.48
698.83	1060.03
699.17	1066.11
699.51	1076.88
699.84	1074.31
700.18	1082.97
700.52	1089.52
700.85	1085.77
701.19	1077.35
701.53	1075.48
701.86	1083.43
702.20	1082.26
702.54	1090.92
702.87	1098.41
703.21	1102.63
703.55	1097.48
703.88	1086.01
704.22	1080.16
704.55	1080.86
704.89	1084.60
705.23	1081.09
705.56	1092.33
705.90	1092.09
706.23	1088.35
706.57	1087.65
706.91	1087.65
707.24	1084.60
707.58	1074.54
707.91	1076.18
708.25	1071.03
708.58	1058.39
708.92	1066.35
709.26	1071.97
709.59	1075.24
709.93	1069.39
710.26	1079.46
710.60	1074.07
710.93	1076.41
711.27	1071.97
711.60	1077.11
711.94	1073.84
712.27	1081.33
712.61	1083.90
712.94	1090.22
713.28	1086.24
713.61	1083.67
713.95	1070.56
714.28	1077.35
714.62	1068.69
714.95	1070.56
715.29	1087.88
715.62	1097.01
715.96	1083.43
716.29	1081.56
716.63	1074.77
716.96	1061.43
717.29	1064.94
717.63	1074.31
717.96	1080.16
718.30	1082.03
718.63	1085.77
718.97	1078.99
719.30	1075.01
719.63	1074.54
719.97	1077.58
720.30	1082.73
720.64	1074.07
720.97	1072.67
721.30	1072.67
721.64	1085.31
721.97	1080.39
722.31	1087.41
722.64	1089.99
722.97	1089.52
723.31	1078.75
723.64	1073.84
723.97	1070.09
724.31	1070.33
724.64	1074.77
724.98	1080.39
725.31	1084.84
725.64	1093.97
725.98	1096.31
726.31	1095.14
726.64	1096.54
726.97	1098.41
727.31	1102.63
727.64	1101.69
727.97	1098.88
728.31	1091.86
728.64	1092.33
728.97	1075.48
729.31	1082.26
729.64	1086.01
729.97	1089.75
730.30	1082.97
730.64	1087.65
730.97	1081.33
731.30	1075.48
731.63	1075.48
731.97	1082.03
732.30	1089.75
732.63	1084.84
732.96	1082.03
733.30	1079.22
733.63	1083.67
733.96	1085.77
734.29	1083.43
734.63	1089.05
734.96	1092.80
735.29	1091.39
735.62	1083.43
735.95	1090.46
736.29	1093.50
736.62	1086.48
736.95	1081.09
737.28	1081.56
737.61	1065.41
737.94	1062.14
738.28	1059.09
738.61	1059.33
738.94	1056.99
739.27	1070.09
739.60	1073.37
739.93	1089.99
740.27	1090.92
740.60	1089.29
740.93	1089.75
741.26	1078.99
741.59	1067.52
741.92	1064.94
742.25	1070.56
742.58	1069.39
742.91	1087.18
743.25	1091.86
743.58	1095.14
743.91	1092.56
744.24	1088.58
744.57	1072.67
744.90	1080.63
745.23	1069.86
745.56	1062.14
745.89	1064.24
746.22	1070.56
746.55	1063.54
746.88	1068.92
747.21	1071.97
747.54	1080.39
747.87	1079.22
748.20	1075.01
748.53	1086.48
748.87	1090.92
749.20	1080.63
749.53	1082.97
749.86	1087.18
750.19	1076.41
750.52	1085.77
750.85	1092.33
751.18	1090.69
751.51	1091.16
751.84	1093.03
752.16	1084.60
752.49	1086.01
752.82	1085.31
753.15	1083.20
753.48	1085.77
753.81	1083.67
754.14	1081.09
754.47	1081.09
754.80	1083.67
755.13	1080.63
755.46	1086.01
755.79	1083.67
756.12	1087.65
756.45	1080.63
756.78	1084.84
757.11	1080.39
757.43	1084.37
757.76	1080.16
758.09	1081.56
758.42	1077.35
758.75	1074.77
759.08	1071.50
759.41	1073.14
759.74	1082.26
760.07	1085.07
760.39	1081.56
760.72	1078.99
761.05	1078.52
761.38	1073.37
761.71	1071.03
762.04	1078.99
762.36	1081.80
762.69	1079.92
763.02	1077.35
763.35	1079.46
763.68	1069.62
764.01	1071.73
764.33	1068.45
764.66	1067.75
764.99	1070.33
765.32	1086.24
765.65	1082.50
765.97	1086.48
766.30	1089.75
