SpectraSuite Data File
++++++++++++++++++++++++++++++++++++
Date: Mon Aug 26 10:25:53 PDT 2019
User: corrico
Dark Spectrum Present: No
Reference Spectrum Present: No
Number of Sampled Component Spectra: 1
Spectrometers: USB2+H06089
Integration Time (usec): 10000 (USB2+H06089)
Spectra Averaged: 2 (USB2+H06089)
Boxcar Smoothing: 2 (USB2+H06089)
Correct for Electrical Dark: No (USB2+H06089)
Strobe/Lamp Enabled: No (USB2+H06089)
Correct for Detector Non-linearity: No (USB2+H06089)
Correct for Stray Light: No (USB2+H06089)
Number of Pixels in Processed Spectrum: 2048
>>>>>Begin Processed Spectral Data<<<<<
339.70	1015.79
340.07	1015.79
340.45	989.34
340.82	966.41
341.19	943.70
341.57	920.06
341.94	907.66
342.31	894.32
342.69	887.77
343.06	875.59
343.43	875.59
343.81	887.77
344.18	885.89
344.55	888.00
344.93	899.23
345.30	909.06
345.67	911.64
346.04	932.47
346.42	950.49
346.79	965.71
347.16	971.56
347.54	971.32
347.91	971.79
348.28	976.24
348.65	986.54
349.03	994.73
349.40	1013.45
349.77	1016.26
350.14	1025.39
350.52	1029.13
350.89	1031.24
351.26	1032.18
351.63	1045.28
352.01	1053.01
352.38	1068.69
352.75	1075.48
353.12	1084.84
353.50	1088.82
353.87	1097.48
354.24	1086.48
354.61	1082.73
354.98	1075.48
355.36	1071.26
355.73	1070.33
356.10	1071.50
356.47	1084.14
356.84	1081.80
357.22	1088.58
357.59	1079.22
357.96	1082.50
358.33	1080.63
358.70	1078.75
359.08	1067.75
359.45	1065.88
359.82	1054.65
360.19	1048.79
360.56	1052.54
360.94	1064.24
361.31	1075.01
361.68	1079.69
362.05	1078.99
362.42	1085.77
362.79	1082.26
363.16	1076.18
363.54	1082.97
363.91	1082.73
364.28	1072.20
364.65	1070.09
365.02	1073.60
365.39	1064.71
365.76	1065.65
366.14	1072.67
366.51	1074.07
366.88	1076.41
367.25	1082.50
367.62	1082.73
367.99	1084.14
368.36	1075.24
368.73	1068.22
369.10	1069.62
369.48	1071.50
369.85	1069.86
370.22	1075.48
370.59	1067.05
370.96	1066.82
371.33	1068.69
371.70	1072.20
372.07	1066.58
372.44	1070.09
372.81	1071.73
373.18	1064.71
373.55	1059.79
373.93	1060.73
374.30	1066.35
374.67	1060.73
375.04	1063.07
375.41	1067.05
375.78	1069.16
376.15	1065.41
376.52	1060.03
376.89	1056.05
377.26	1060.50
377.63	1064.48
378.00	1064.24
378.37	1073.37
378.74	1087.18
379.11	1078.75
379.48	1073.14
379.85	1072.90
380.22	1069.86
380.59	1067.75
380.96	1078.05
381.33	1084.37
381.70	1095.14
382.07	1097.48
382.44	1083.90
382.81	1066.82
383.18	1066.35
383.55	1045.52
383.92	1039.43
384.29	1047.16
384.66	1060.26
385.03	1071.03
385.40	1076.88
385.77	1075.71
386.14	1070.80
386.51	1059.09
386.88	1043.88
387.25	1048.09
387.62	1054.18
387.99	1057.45
388.36	1064.94
388.73	1071.73
389.10	1078.05
389.46	1085.77
389.83	1084.60
390.20	1085.31
390.57	1086.48
390.94	1087.65
391.31	1078.52
391.68	1071.50
392.05	1072.20
392.42	1073.14
392.79	1067.28
393.16	1070.09
393.53	1084.60
393.89	1084.84
394.26	1077.58
394.63	1087.88
395.00	1087.18
395.37	1087.41
395.74	1079.69
396.11	1086.94
396.48	1083.90
396.84	1075.94
397.21	1073.37
397.58	1080.39
397.95	1078.05
398.32	1078.75
398.69	1089.75
399.06	1087.41
399.42	1083.90
399.79	1084.84
400.16	1075.01
400.53	1071.73
400.90	1078.05
401.27	1081.33
401.64	1078.52
402.00	1081.09
402.37	1084.84
402.74	1085.77
403.11	1082.97
403.48	1090.46
403.84	1086.48
404.21	1082.73
404.58	1073.14
404.95	1067.99
405.32	1057.22
405.68	1063.77
406.05	1058.86
406.42	1066.11
406.79	1069.39
407.16	1074.07
407.52	1069.86
407.89	1070.09
408.26	1065.18
408.63	1069.39
408.99	1058.39
409.36	1064.01
409.73	1066.11
410.10	1071.26
410.47	1070.33
410.83	1081.33
411.20	1076.65
411.57	1079.46
411.94	1080.86
412.30	1078.52
412.67	1080.39
413.04	1087.41
413.40	1088.58
413.77	1080.16
414.14	1078.05
414.51	1074.07
414.87	1068.45
415.24	1063.07
415.61	1054.18
415.97	1057.92
416.34	1056.75
416.71	1059.33
417.08	1065.18
417.44	1076.65
417.81	1072.67
418.18	1074.54
418.54	1067.05
418.91	1059.33
419.28	1057.22
419.64	1060.96
420.01	1064.71
420.38	1066.58
420.74	1071.03
421.11	1076.65
421.48	1080.39
421.84	1076.18
422.21	1081.33
422.58	1076.88
422.94	1065.88
423.31	1065.88
423.68	1065.41
424.04	1060.03
424.41	1062.14
424.77	1070.80
425.14	1069.62
425.51	1071.50
425.87	1076.88
426.24	1082.97
426.61	1080.16
426.97	1080.16
427.34	1077.11
427.70	1081.09
428.07	1080.86
428.44	1087.41
428.80	1083.20
429.17	1089.29
429.53	1082.73
429.90	1079.22
430.27	1072.43
430.63	1072.67
431.00	1070.80
431.36	1074.54
431.73	1076.18
432.09	1072.43
432.46	1071.73
432.83	1072.43
433.19	1080.39
433.56	1086.24
433.92	1083.67
434.29	1089.29
434.65	1082.97
435.02	1077.58
435.38	1072.67
435.75	1080.63
436.11	1077.11
436.48	1078.52
436.84	1067.52
437.21	1072.20
437.57	1079.46
437.94	1084.37
438.30	1085.07
438.67	1096.07
439.03	1091.16
439.40	1089.99
439.76	1094.67
440.13	1101.22
440.49	1088.82
440.86	1087.41
441.22	1075.71
441.59	1063.77
441.95	1055.35
442.32	1063.54
442.68	1071.97
443.05	1075.48
443.41	1077.58
443.78	1079.92
444.14	1077.82
444.51	1074.31
444.87	1077.82
445.24	1083.43
445.60	1086.48
445.96	1093.26
446.33	1090.92
446.69	1091.86
447.06	1092.80
447.42	1099.35
447.79	1097.71
448.15	1102.63
448.51	1099.12
448.88	1086.94
449.24	1080.16
449.61	1068.69
449.97	1056.05
450.33	1061.67
450.70	1068.22
451.06	1066.58
451.43	1078.28
451.79	1087.18
452.15	1082.73
452.52	1082.97
452.88	1085.07
453.24	1078.05
453.61	1081.56
453.97	1080.39
454.34	1077.82
454.70	1082.73
455.06	1088.12
455.43	1076.88
455.79	1076.65
456.15	1075.24
456.52	1071.03
456.88	1075.71
457.24	1086.71
457.61	1096.78
457.97	1100.75
458.33	1099.35
458.70	1102.63
459.06	1090.92
459.42	1086.24
459.79	1083.43
460.15	1090.22
460.51	1074.31
460.88	1089.75
461.24	1082.03
461.60	1082.73
461.96	1074.31
462.33	1079.92
462.69	1067.52
463.05	1077.82
463.42	1068.69
463.78	1062.60
464.14	1060.73
464.50	1065.65
464.87	1060.73
465.23	1077.58
465.59	1082.97
465.95	1080.86
466.32	1081.33
466.68	1082.26
467.04	1083.43
467.40	1081.09
467.77	1085.77
468.13	1090.69
468.49	1088.35
468.85	1071.03
469.22	1082.03
469.58	1073.84
469.94	1056.28
470.30	1059.79
470.66	1065.88
471.03	1061.20
471.39	1064.01
471.75	1068.92
472.11	1064.01
472.47	1072.67
472.84	1062.84
473.20	1063.31
473.56	1071.97
473.92	1067.28
474.28	1060.50
474.65	1066.35
475.01	1073.37
475.37	1069.39
475.73	1081.09
476.09	1085.54
476.45	1084.60
476.81	1078.28
477.18	1074.31
477.54	1066.58
477.90	1057.22
478.26	1051.84
478.62	1060.96
478.98	1068.69
479.34	1073.37
479.71	1076.18
480.07	1082.26
480.43	1075.01
480.79	1068.45
481.15	1056.52
481.51	1068.69
481.87	1072.20
482.23	1079.69
482.59	1085.54
482.96	1092.56
483.32	1087.18
483.68	1087.41
484.04	1085.77
484.40	1085.31
484.76	1075.24
485.12	1078.75
485.48	1074.54
485.84	1066.58
486.20	1059.33
486.56	1069.62
486.92	1061.43
487.28	1068.92
487.64	1068.69
488.00	1069.16
488.37	1069.39
488.73	1068.22
489.09	1069.16
489.45	1070.80
489.81	1080.16
490.17	1080.86
490.53	1090.22
490.89	1081.80
491.25	1080.39
491.61	1073.14
491.97	1078.28
492.33	1067.52
492.69	1073.37
493.05	1079.92
493.41	1084.84
493.77	1083.90
494.13	1090.69
494.49	1098.88
494.85	1108.48
495.21	1107.31
495.57	1104.50
495.93	1103.33
496.29	1095.60
496.64	1085.54
497.00	1084.84
497.36	1083.67
497.72	1075.94
498.08	1066.82
498.44	1067.05
498.80	1068.69
499.16	1065.65
499.52	1068.69
499.88	1074.07
500.24	1079.22
500.60	1080.86
500.96	1082.73
501.32	1076.41
501.68	1070.56
502.03	1062.84
502.39	1056.99
502.75	1066.82
503.11	1082.03
503.47	1092.80
503.83	1090.46
504.19	1090.69
504.55	1083.43
504.91	1076.41
505.26	1078.28
505.62	1086.24
505.98	1090.22
506.34	1090.69
506.70	1095.84
507.06	1093.03
507.42	1077.82
507.78	1078.28
508.13	1077.58
508.49	1074.77
508.85	1078.05
509.21	1084.60
509.57	1082.26
509.93	1087.41
510.28	1091.86
510.64	1086.24
511.00	1091.39
511.36	1092.09
511.72	1085.31
512.07	1082.50
512.43	1089.05
512.79	1095.14
513.15	1099.12
513.51	1102.39
513.86	1101.92
514.22	1097.24
514.58	1096.54
514.94	1093.26
515.30	1094.43
515.65	1095.60
516.01	1099.82
516.37	1084.60
516.73	1069.86
517.08	1068.45
517.44	1076.18
517.80	1078.75
518.16	1083.90
518.51	1093.03
518.87	1099.58
519.23	1096.78
519.59	1086.48
519.94	1083.43
520.30	1094.90
520.66	1085.54
521.01	1081.80
521.37	1090.92
521.73	1091.86
522.09	1089.52
522.44	1097.01
522.80	1086.71
523.16	1082.73
523.51	1090.92
523.87	1087.41
524.23	1081.80
524.58	1092.33
524.94	1090.46
525.30	1087.65
525.65	1082.26
526.01	1077.11
526.37	1074.54
526.72	1074.54
527.08	1077.35
527.44	1085.07
527.79	1100.29
528.15	1095.84
528.51	1091.39
528.86	1091.63
529.22	1079.69
529.58	1065.41
529.93	1073.14
530.29	1085.31
530.65	1081.56
531.00	1088.58
531.36	1093.50
531.71	1097.71
532.07	1087.18
532.43	1096.54
532.78	1099.58
533.14	1096.54
533.49	1091.16
533.85	1089.05
534.21	1083.90
534.56	1080.16
534.92	1081.33
535.27	1080.16
535.63	1095.14
535.98	1098.41
536.34	1113.39
536.69	1120.18
537.05	1126.03
537.41	1115.03
537.76	1106.61
538.12	1096.31
538.47	1094.20
538.83	1082.73
539.18	1078.05
539.54	1085.54
539.89	1089.99
540.25	1090.92
540.60	1100.52
540.96	1100.29
541.31	1101.69
541.67	1100.05
542.02	1099.35
542.38	1092.56
542.73	1097.01
543.09	1100.05
543.44	1099.12
543.80	1098.88
544.15	1093.03
544.51	1093.73
544.86	1083.43
545.22	1074.31
545.57	1072.90
545.93	1089.29
546.28	1092.09
546.64	1087.41
546.99	1098.18
547.35	1094.90
547.70	1087.65
548.05	1083.43
548.41	1092.56
548.76	1092.80
549.12	1090.69
549.47	1093.97
549.83	1098.41
550.18	1093.97
550.53	1088.35
550.89	1084.14
551.24	1084.60
551.60	1084.37
551.95	1086.94
552.30	1085.54
552.66	1099.35
553.01	1101.22
553.37	1104.97
553.72	1096.31
554.07	1099.35
554.43	1089.52
554.78	1089.99
555.13	1078.28
555.49	1081.09
555.84	1076.65
556.19	1080.16
556.55	1077.11
556.90	1079.22
557.26	1075.48
557.61	1071.03
557.96	1072.43
558.32	1067.28
558.67	1065.18
559.02	1075.94
559.37	1081.80
559.73	1078.05
560.08	1081.09
560.43	1078.99
560.79	1078.05
561.14	1075.01
561.49	1080.16
561.85	1072.67
562.20	1076.88
562.55	1071.50
562.90	1073.60
563.26	1073.37
563.61	1081.56
563.96	1087.41
564.32	1088.12
564.67	1085.77
565.02	1077.82
565.37	1074.54
565.73	1077.58
566.08	1078.99
566.43	1087.41
566.78	1089.99
567.14	1088.12
567.49	1085.07
567.84	1078.28
568.19	1075.48
568.54	1078.28
568.90	1075.01
569.25	1075.94
569.60	1088.35
569.95	1082.03
570.31	1077.58
570.66	1085.31
571.01	1086.01
571.36	1077.11
571.71	1081.80
572.06	1091.16
572.42	1086.24
572.77	1076.18
573.12	1075.24
573.47	1075.48
573.82	1071.50
574.18	1080.16
574.53	1081.33
574.88	1082.50
575.23	1078.28
575.58	1075.24
575.93	1056.75
576.28	1064.71
576.64	1070.33
576.99	1076.88
577.34	1079.46
577.69	1088.82
578.04	1079.46
578.39	1084.14
578.74	1082.73
579.09	1088.58
579.44	1081.56
579.80	1077.35
580.15	1071.03
580.50	1069.39
580.85	1055.35
581.20	1065.18
581.55	1067.75
581.90	1067.99
582.25	1070.80
582.60	1075.71
582.95	1076.65
583.30	1079.22
583.65	1085.31
584.00	1071.26
584.35	1067.28
584.71	1064.71
585.06	1064.94
585.41	1059.33
585.76	1073.37
586.11	1070.80
586.46	1065.41
586.81	1069.86
587.16	1068.22
587.51	1063.77
587.86	1069.39
588.21	1072.67
588.56	1069.62
588.91	1066.82
589.26	1064.94
589.61	1071.03
589.96	1078.75
590.31	1085.31
590.66	1085.31
591.01	1091.63
591.36	1096.07
591.71	1090.22
592.06	1087.88
592.41	1086.71
592.76	1089.29
593.10	1077.35
593.45	1089.52
593.80	1083.90
594.15	1081.56
594.50	1072.43
594.85	1079.92
595.20	1076.18
595.55	1077.11
595.90	1078.75
596.25	1086.01
596.60	1085.77
596.95	1077.82
597.30	1080.63
597.64	1139.14
597.99	1135.39
598.34	1133.29
598.69	1134.69
599.04	1134.22
599.39	1077.58
599.74	1083.90
600.09	1088.12
600.44	1089.05
600.78	1092.09
601.13	1090.69
601.48	1080.63
601.83	1084.37
602.18	1084.37
602.53	1071.97
602.88	1078.52
603.22	1080.16
603.57	1070.56
603.92	1060.96
604.27	1079.92
604.62	1081.33
604.97	1086.24
605.31	1089.75
605.66	1094.43
606.01	1081.80
606.36	1073.84
606.71	1071.73
607.05	1067.28
607.40	1060.50
607.75	1064.24
608.10	1061.20
608.44	1052.77
608.79	1058.16
609.14	1066.58
609.49	1056.52
609.84	1070.56
610.18	1087.18
610.53	1097.24
610.88	1099.82
611.23	1105.20
611.57	1107.54
611.92	1099.12
612.27	1085.54
612.62	1083.90
612.96	1085.07
613.31	1077.58
613.66	1085.31
614.00	1087.18
614.35	1090.22
614.70	1097.48
615.05	1108.71
615.39	1103.33
615.74	1105.67
616.09	1106.14
616.43	1104.97
616.78	1087.88
617.13	1089.99
617.47	1090.69
617.82	1093.03
618.17	1081.80
618.51	1084.37
618.86	1086.24
619.21	1082.03
619.55	1082.73
619.90	1093.26
620.25	1088.35
620.59	1085.77
620.94	1078.52
621.29	1072.20
621.63	1061.67
621.98	1071.73
622.32	1077.58
622.67	1084.84
623.02	1082.26
623.36	1092.80
623.71	1098.65
624.05	1077.82
624.40	1073.84
624.75	1071.97
625.09	1072.43
625.44	1060.03
625.78	1071.50
626.13	1073.84
626.48	1078.05
626.82	1071.50
627.17	1069.16
627.51	1076.65
627.86	1086.01
628.20	1094.43
628.55	1089.75
628.89	1101.46
629.24	1086.71
629.58	1071.03
629.93	1060.03
630.28	1060.50
630.62	1055.11
630.97	1062.84
631.31	1069.16
631.66	1071.50
632.00	1080.39
632.35	1079.92
632.69	1081.80
633.04	1077.11
633.38	1081.80
633.73	1077.11
634.07	1070.80
634.42	1065.65
634.76	1075.01
635.11	1075.71
635.45	1071.97
635.79	1075.94
636.14	1079.92
636.48	1079.92
636.83	1067.75
637.17	1070.09
637.52	1066.82
637.86	1059.33
638.21	1060.50
638.55	1071.03
638.89	1069.86
639.24	1073.60
639.58	1075.94
639.93	1064.01
640.27	1063.77
640.61	1069.39
640.96	1077.82
641.30	1075.01
641.65	1080.16
641.99	1079.92
642.33	1075.94
642.68	1078.28
643.02	1086.94
643.37	1095.14
643.71	1099.35
644.05	1110.35
644.40	1097.01
644.74	1101.92
645.08	1095.37
645.43	1091.86
645.77	1081.09
646.11	1081.80
646.46	1075.94
646.80	1077.82
647.14	1071.03
647.49	1072.90
647.83	1072.67
648.17	1069.39
648.52	1063.54
648.86	1062.84
649.20	1065.41
649.55	1066.11
649.89	1065.41
650.23	1064.48
650.57	1072.90
650.92	1071.03
651.26	1075.48
651.60	1078.05
651.95	1091.63
652.29	1083.20
652.63	1081.33
652.97	1077.35
653.32	1081.33
653.66	1077.11
654.00	1091.86
654.34	1098.41
654.69	1099.12
655.03	1097.95
655.37	1096.78
655.71	1076.65
656.05	1072.20
656.40	1066.35
656.74	1074.54
657.08	1073.37
657.42	1081.80
657.76	1083.90
658.11	1090.92
658.45	1082.50
658.79	1076.41
659.13	1078.28
659.47	1071.97
659.82	1076.41
660.16	1077.58
660.50	1075.94
660.84	1075.24
661.18	1085.77
661.52	1085.31
661.87	1079.46
662.21	1077.11
662.55	1077.58
662.89	1072.20
663.23	1066.35
663.57	1066.82
663.91	1071.73
664.25	1066.58
664.60	1057.45
664.94	1064.71
665.28	1071.73
665.62	1075.71
665.96	1086.71
666.30	1098.88
666.64	1099.35
666.98	1089.29
667.32	1083.90
667.66	1074.31
668.01	1070.56
668.35	1060.50
668.69	1065.65
669.03	1075.01
669.37	1088.82
669.71	1095.60
670.05	1103.56
670.39	1110.82
670.73	1108.95
671.07	1094.67
671.41	1082.26
671.75	1069.86
672.09	1057.92
672.43	1064.24
672.77	1066.82
673.11	1073.37
673.45	1082.26
673.79	1082.97
674.13	1075.01
674.47	1069.86
674.81	1065.65
675.15	1075.01
675.49	1082.97
675.83	1087.18
676.17	1093.03
676.51	1097.48
676.85	1083.67
677.19	1069.62
677.53	1064.01
677.87	1058.62
678.21	1049.96
678.55	1058.86
678.89	1071.50
679.23	1074.77
679.57	1072.67
679.90	1082.50
680.24	1069.86
680.58	1065.65
680.92	1067.52
681.26	1071.97
681.60	1075.24
681.94	1083.43
682.28	1087.88
682.62	1091.39
682.96	1097.24
683.29	1096.54
683.63	1088.82
683.97	1080.16
684.31	1073.14
684.65	1061.90
684.99	1053.94
685.33	1055.82
685.67	1060.73
686.00	1059.79
686.34	1070.33
686.68	1075.01
687.02	1080.86
687.36	1076.41
687.70	1077.82
688.03	1071.97
688.37	1074.31
688.71	1073.37
689.05	1075.71
689.39	1076.65
689.72	1076.18
690.06	1070.56
690.40	1075.48
690.74	1083.90
691.08	1075.71
691.41	1078.75
691.75	1075.94
692.09	1067.99
692.43	1062.14
692.76	1068.45
693.10	1071.26
693.44	1070.33
693.78	1078.05
694.11	1086.24
694.45	1085.54
694.79	1082.26
695.13	1081.56
695.46	1083.20
695.80	1072.90
696.14	1066.35
696.48	1067.28
696.81	1076.88
697.15	1075.48
697.49	1082.97
697.82	1090.22
698.16	1088.12
698.50	1081.33
698.83	1075.01
699.17	1065.18
699.51	1061.67
699.84	1068.22
700.18	1079.69
700.52	1099.58
700.85	1099.12
701.19	1104.26
701.53	1110.35
701.86	1101.22
702.20	1091.39
702.54	1090.22
702.87	1093.03
703.21	1075.71
703.55	1078.05
703.88	1070.56
704.22	1075.94
704.55	1068.22
704.89	1074.31
705.23	1076.65
705.56	1078.99
705.90	1082.97
706.23	1087.88
706.57	1092.09
706.91	1085.54
707.24	1085.07
707.58	1075.94
707.91	1076.41
708.25	1072.67
708.58	1074.77
708.92	1064.71
709.26	1073.60
709.59	1060.50
709.93	1055.58
710.26	1063.07
710.60	1072.43
710.93	1058.62
711.27	1072.90
711.60	1087.88
711.94	1086.01
712.27	1076.41
712.61	1092.09
712.94	1082.26
713.28	1065.65
713.61	1069.16
713.95	1081.09
714.28	1074.54
714.62	1086.48
714.95	1091.16
715.29	1087.65
715.62	1083.67
715.96	1078.52
716.29	1070.33
716.63	1066.58
716.96	1057.92
717.29	1057.69
717.63	1062.60
717.96	1065.18
718.30	1073.60
718.63	1079.69
718.97	1075.94
719.30	1084.37
719.63	1076.88
719.97	1071.97
720.30	1068.69
720.64	1071.73
720.97	1068.92
721.30	1084.84
721.64	1093.73
721.97	1093.97
722.31	1091.39
722.64	1086.01
722.97	1072.20
723.31	1063.31
723.64	1060.73
723.97	1068.92
724.31	1069.39
724.64	1075.48
724.98	1074.54
725.31	1087.41
725.64	1070.33
725.98	1070.33
726.31	1070.56
726.64	1077.58
726.97	1062.84
727.31	1079.22
727.64	1077.58
727.97	1075.48
728.31	1069.86
728.64	1082.50
728.97	1074.77
729.31	1084.60
729.64	1086.24
729.97	1081.80
730.30	1074.07
730.64	1078.75
730.97	1077.82
731.30	1077.82
731.63	1078.75
731.97	1080.16
732.30	1078.05
732.63	1066.58
732.96	1060.50
733.30	1071.73
733.63	1075.01
733.96	1070.80
734.29	1069.86
734.63	1080.86
734.96	1071.97
735.29	1067.99
735.62	1078.28
735.95	1086.24
736.29	1078.52
736.62	1092.09
736.95	1083.43
737.28	1079.69
737.61	1072.43
737.94	1069.86
738.28	1053.48
738.61	1064.48
738.94	1054.41
739.27	1056.52
739.60	1057.45
739.93	1065.65
740.27	1059.79
740.60	1066.11
740.93	1075.71
741.26	1073.37
741.59	1067.05
741.92	1068.22
742.25	1066.35
742.58	1054.88
742.91	1055.82
743.25	1067.75
743.58	1082.26
743.91	1081.33
744.24	1076.65
744.57	1073.84
744.90	1072.20
745.23	1067.28
745.56	1069.62
745.89	1086.48
746.22	1095.60
746.55	1085.54
746.88	1080.16
747.21	1086.71
747.54	1086.94
747.87	1081.33
748.20	1077.58
748.53	1066.82
748.87	1060.26
749.20	1050.90
749.53	1056.05
749.86	1063.77
750.19	1074.77
750.52	1075.24
750.85	1071.26
751.18	1073.84
751.51	1075.48
751.84	1069.62
752.16	1077.35
752.49	1078.99
752.82	1078.75
753.15	1082.73
753.48	1082.73
753.81	1070.09
754.14	1078.75
754.47	1070.33
754.80	1073.60
755.13	1080.39
755.46	1075.94
755.79	1076.18
756.12	1091.16
756.45	1077.82
756.78	1076.65
757.11	1095.60
757.43	1091.86
757.76	1079.92
758.09	1092.33
758.42	1088.35
758.75	1073.60
759.08	1072.90
759.41	1071.73
759.74	1067.52
760.07	1063.54
760.39	1063.77
760.72	1063.07
761.05	1064.94
761.38	1059.79
761.71	1058.86
762.04	1065.41
762.36	1067.05
762.69	1067.75
763.02	1067.99
763.35	1082.73
763.68	1082.26
764.01	1086.48
764.33	1095.14
764.66	1091.39
764.99	1091.63
765.32	1095.37
765.65	1097.95
765.97	1085.07
766.30	1095.60
