SpectraSuite Data File
++++++++++++++++++++++++++++++++++++
Date: Mon Aug 26 10:25:53 PDT 2019
User: corrico
Dark Spectrum Present: No
Reference Spectrum Present: No
Number of Sampled Component Spectra: 1
Spectrometers: USB2+H06089
Integration Time (usec): 10000 (USB2+H06089)
Spectra Averaged: 2 (USB2+H06089)
Boxcar Smoothing: 2 (USB2+H06089)
Correct for Electrical Dark: No (USB2+H06089)
Strobe/Lamp Enabled: No (USB2+H06089)
Correct for Detector Non-linearity: No (USB2+H06089)
Correct for Stray Light: No (USB2+H06089)
Number of Pixels in Processed Spectrum: 2048
>>>>>Begin Processed Spectral Data<<<<<
339.70	1031.01
340.07	1031.01
340.45	988.41
340.82	972.49
341.19	954.70
341.57	935.75
341.94	931.77
342.31	927.79
342.69	910.94
343.06	893.85
343.43	884.72
343.81	881.91
344.18	874.66
344.55	888.00
344.93	899.23
345.30	906.02
345.67	925.45
346.04	939.96
346.42	954.00
346.79	969.92
347.16	975.77
347.54	982.56
347.91	984.90
348.28	982.32
348.65	982.56
349.03	991.68
349.40	994.26
349.77	1014.39
350.14	1020.01
350.52	1030.77
350.89	1031.47
351.26	1031.24
351.63	1024.22
352.01	1028.43
352.38	1023.98
352.75	1041.54
353.12	1052.07
353.50	1064.48
353.87	1076.65
354.24	1078.52
354.61	1074.31
354.98	1080.39
355.36	1075.24
355.73	1075.48
356.10	1076.41
356.47	1076.88
356.84	1073.60
357.22	1075.71
357.59	1073.60
357.96	1075.24
358.33	1084.60
358.70	1077.35
359.08	1084.37
359.45	1084.60
359.82	1090.92
360.19	1086.01
360.56	1078.05
360.94	1077.11
361.31	1080.86
361.68	1073.84
362.05	1064.24
362.42	1073.84
362.79	1072.43
363.16	1064.71
363.54	1078.28
363.91	1084.60
364.28	1090.92
364.65	1091.63
365.02	1087.88
365.39	1073.37
365.76	1071.50
366.14	1067.52
366.51	1064.48
366.88	1057.69
367.25	1065.18
367.62	1057.45
367.99	1058.39
368.36	1060.03
368.73	1065.41
369.10	1061.20
369.48	1066.11
369.85	1061.90
370.22	1047.86
370.59	1040.37
370.96	1047.86
371.33	1047.62
371.70	1043.64
372.07	1048.09
372.44	1058.86
372.81	1050.20
373.18	1064.24
373.55	1069.39
373.93	1073.84
374.30	1079.22
374.67	1083.20
375.04	1075.01
375.41	1064.01
375.78	1064.94
376.15	1052.54
376.52	1048.79
376.89	1041.07
377.26	1059.79
377.63	1073.37
378.00	1089.05
378.37	1092.80
378.74	1101.22
379.11	1095.14
379.48	1083.43
379.85	1080.63
380.22	1086.94
380.59	1074.07
380.96	1075.48
381.33	1079.46
381.70	1069.62
382.07	1061.43
382.44	1072.90
382.81	1072.43
383.18	1068.22
383.55	1067.52
383.92	1068.69
384.29	1067.75
384.66	1063.31
385.03	1057.22
385.40	1057.45
385.77	1057.45
386.14	1057.45
386.51	1062.60
386.88	1074.54
387.25	1077.58
387.62	1073.84
387.99	1072.67
388.36	1064.48
388.73	1062.37
389.10	1059.33
389.46	1065.41
389.83	1064.24
390.20	1073.60
390.57	1070.33
390.94	1071.97
391.31	1072.67
391.68	1077.11
392.05	1067.05
392.42	1061.90
392.79	1063.31
393.16	1057.22
393.53	1044.11
393.89	1045.05
394.26	1045.52
394.63	1055.11
395.00	1051.84
395.37	1062.37
395.74	1066.11
396.11	1067.52
396.48	1063.31
396.84	1076.41
397.21	1073.84
397.58	1081.09
397.95	1086.01
398.32	1077.82
398.69	1068.69
399.06	1069.86
399.42	1068.45
399.79	1066.35
400.16	1076.65
400.53	1083.67
400.90	1087.41
401.27	1081.80
401.64	1086.48
402.00	1081.33
402.37	1081.80
402.74	1085.31
403.11	1084.37
403.48	1074.07
403.84	1076.88
404.21	1066.35
404.58	1068.45
404.95	1071.26
405.32	1066.11
405.68	1068.92
406.05	1074.31
406.42	1068.69
406.79	1065.18
407.16	1074.54
407.52	1075.24
407.89	1078.52
408.26	1079.46
408.63	1083.20
408.99	1087.65
409.36	1081.09
409.73	1080.39
410.10	1082.03
410.47	1072.90
410.83	1068.69
411.20	1071.03
411.57	1068.45
411.94	1061.67
412.30	1069.86
412.67	1070.56
413.04	1075.71
413.40	1074.07
413.77	1079.22
414.14	1075.24
414.51	1069.39
414.87	1067.52
415.24	1072.20
415.61	1063.54
415.97	1076.18
416.34	1079.46
416.71	1078.28
417.08	1086.01
417.44	1088.35
417.81	1081.56
418.18	1078.99
418.54	1079.22
418.91	1079.92
419.28	1086.71
419.64	1084.60
420.01	1088.35
420.38	1079.69
420.74	1078.52
421.11	1072.43
421.48	1075.71
421.84	1080.63
422.21	1092.33
422.58	1082.73
422.94	1082.73
423.31	1073.84
423.68	1068.92
424.04	1053.71
424.41	1051.84
424.77	1051.13
425.14	1056.75
425.51	1060.50
425.87	1069.86
426.24	1067.28
426.61	1066.11
426.97	1072.20
427.34	1070.56
427.70	1067.99
428.07	1069.62
428.44	1076.18
428.80	1073.60
429.17	1073.14
429.53	1075.71
429.90	1071.03
430.27	1066.11
430.63	1063.77
431.00	1062.84
431.36	1061.67
431.73	1071.03
432.09	1074.54
432.46	1073.37
432.83	1071.03
433.19	1073.37
433.56	1078.75
433.92	1083.20
434.29	1089.29
434.65	1098.18
435.02	1100.05
435.38	1097.24
435.75	1096.54
436.11	1090.69
436.48	1083.90
436.84	1075.01
437.21	1071.03
437.57	1061.67
437.94	1060.26
438.30	1056.05
438.67	1061.20
439.03	1062.37
439.40	1067.99
439.76	1066.11
440.13	1069.62
440.49	1080.63
440.86	1089.29
441.22	1096.07
441.59	1099.12
441.95	1094.67
442.32	1081.09
442.68	1068.45
443.05	1052.30
443.41	1057.22
443.78	1068.22
444.14	1072.43
444.51	1073.60
444.87	1080.39
445.24	1076.88
445.60	1068.22
445.96	1061.43
446.33	1071.26
446.69	1075.24
447.06	1072.90
447.42	1079.22
447.79	1084.84
448.15	1068.69
448.51	1066.35
448.88	1078.05
449.24	1083.67
449.61	1078.75
449.97	1081.33
450.33	1087.88
450.70	1080.63
451.06	1078.75
451.43	1085.77
451.79	1094.43
452.15	1093.73
452.52	1085.31
452.88	1080.63
453.24	1085.77
453.61	1087.41
453.97	1077.82
454.34	1072.43
454.70	1071.97
455.06	1064.71
455.43	1068.22
455.79	1063.77
456.15	1067.75
456.52	1060.73
456.88	1065.65
457.24	1053.24
457.61	1052.77
457.97	1060.26
458.33	1063.77
458.70	1050.67
459.06	1057.69
459.42	1071.50
459.79	1068.45
460.15	1070.09
460.51	1076.88
460.88	1077.58
461.24	1072.67
461.60	1071.50
461.96	1077.35
462.33	1077.58
462.69	1072.67
463.05	1066.35
463.42	1069.86
463.78	1072.20
464.14	1073.60
464.50	1070.09
464.87	1077.11
465.23	1079.92
465.59	1081.09
465.95	1067.99
466.32	1070.80
466.68	1071.03
467.04	1074.31
467.40	1069.16
467.77	1082.03
468.13	1087.18
468.49	1084.60
468.85	1071.03
469.22	1063.77
469.58	1058.62
469.94	1052.54
470.30	1051.60
470.66	1053.01
471.03	1053.01
471.39	1057.22
471.75	1059.79
472.11	1059.09
472.47	1070.80
472.84	1076.18
473.20	1083.90
473.56	1085.54
473.92	1094.67
474.28	1094.90
474.65	1090.92
475.01	1079.92
475.37	1080.63
475.73	1074.07
476.09	1069.39
476.45	1072.90
476.81	1086.48
477.18	1083.20
477.54	1084.60
477.90	1087.18
478.26	1081.80
478.62	1066.58
478.98	1077.58
479.34	1078.52
479.71	1070.80
480.07	1066.35
480.43	1075.01
480.79	1059.79
481.15	1054.88
481.51	1060.96
481.87	1074.07
482.23	1067.75
482.59	1072.43
482.96	1076.65
483.32	1074.77
483.68	1072.90
484.04	1074.07
484.40	1076.41
484.76	1071.97
485.12	1081.80
485.48	1074.54
485.84	1074.54
486.20	1069.16
486.56	1071.97
486.92	1064.01
487.28	1067.05
487.64	1067.28
488.00	1072.90
488.37	1069.39
488.73	1071.50
489.09	1071.50
489.45	1072.67
489.81	1074.77
490.17	1087.41
490.53	1084.84
490.89	1093.26
491.25	1089.52
491.61	1079.46
491.97	1077.35
492.33	1078.28
492.69	1074.54
493.05	1077.58
493.41	1084.84
493.77	1079.46
494.13	1086.01
494.49	1088.35
494.85	1088.82
495.21	1084.37
495.57	1080.63
495.93	1082.97
496.29	1078.05
496.64	1081.33
497.00	1088.58
497.36	1084.60
497.72	1066.35
498.08	1068.22
498.44	1060.03
498.80	1051.60
499.16	1058.86
499.52	1072.67
499.88	1070.56
500.24	1074.54
500.60	1077.58
500.96	1083.20
501.32	1070.33
501.68	1070.80
502.03	1075.48
502.39	1079.69
502.75	1076.65
503.11	1085.54
503.47	1083.90
503.83	1076.65
504.19	1072.43
504.55	1072.20
504.91	1078.52
505.26	1080.86
505.62	1092.56
505.98	1086.71
506.34	1082.50
506.70	1074.77
507.06	1076.65
507.42	1083.90
507.78	1099.35
508.13	1108.95
508.49	1102.16
508.85	1102.16
509.21	1091.86
509.57	1078.99
509.93	1072.43
510.28	1082.73
510.64	1079.22
511.00	1072.20
511.36	1078.75
511.72	1082.03
512.07	1079.92
512.43	1085.54
512.79	1095.60
513.15	1094.20
513.51	1092.33
513.86	1092.09
514.22	1102.16
514.58	1099.82
514.94	1099.82
515.30	1093.73
515.65	1093.26
516.01	1077.82
516.37	1074.54
516.73	1082.73
517.08	1080.63
517.44	1080.16
517.80	1085.54
518.16	1081.33
518.51	1072.67
518.87	1083.90
519.23	1090.46
519.59	1093.26
519.94	1099.35
520.30	1103.80
520.66	1110.12
521.01	1100.29
521.37	1098.65
521.73	1099.82
522.09	1099.12
522.44	1095.14
522.80	1103.33
523.16	1102.16
523.51	1098.65
523.87	1102.16
524.23	1103.33
524.58	1100.29
524.94	1097.48
525.30	1102.86
525.65	1096.07
526.01	1093.03
526.37	1093.50
526.72	1093.03
527.08	1084.60
527.44	1094.20
527.79	1092.33
528.15	1084.14
528.51	1081.09
528.86	1095.84
529.22	1082.73
529.58	1084.14
529.93	1091.16
530.29	1096.78
530.65	1086.94
531.00	1108.95
531.36	1108.24
531.71	1111.52
532.07	1120.41
532.43	1119.95
532.78	1110.35
533.14	1109.18
533.49	1110.58
533.85	1102.86
534.21	1102.39
534.56	1094.20
534.92	1093.50
535.27	1081.09
535.63	1085.54
535.98	1075.48
536.34	1078.99
536.69	1085.31
537.05	1092.56
537.41	1084.14
537.76	1097.01
538.12	1103.80
538.47	1102.16
538.83	1097.01
539.18	1107.07
539.54	1105.44
539.89	1098.65
540.25	1093.50
540.60	1101.46
540.96	1094.90
541.31	1098.18
541.67	1095.37
542.02	1095.37
542.38	1087.65
542.73	1085.54
543.09	1086.94
543.44	1091.39
543.80	1094.90
544.15	1096.31
544.51	1091.39
544.86	1087.65
545.22	1089.75
545.57	1096.07
545.93	1102.16
546.28	1108.48
546.64	1108.01
546.99	1102.16
547.35	1087.18
547.70	1081.56
548.05	1084.37
548.41	1081.80
548.76	1087.88
549.12	1087.65
549.47	1084.37
549.83	1081.80
550.18	1085.07
550.53	1073.37
550.89	1078.28
551.24	1081.09
551.60	1082.26
551.95	1076.41
552.30	1082.73
552.66	1080.86
553.01	1077.35
553.37	1079.22
553.72	1082.73
554.07	1090.92
554.43	1099.12
554.78	1095.84
555.13	1092.33
555.49	1083.67
555.84	1074.31
556.19	1066.58
556.55	1087.41
556.90	1095.37
557.26	1094.43
557.61	1096.78
557.96	1095.60
558.32	1079.92
558.67	1070.56
559.02	1072.90
559.37	1069.86
559.73	1071.50
560.08	1072.67
560.43	1065.41
560.79	1072.43
561.14	1074.54
561.49	1078.52
561.85	1084.14
562.20	1092.33
562.55	1085.54
562.90	1083.43
563.26	1075.01
563.61	1075.71
563.96	1079.46
564.32	1083.90
564.67	1078.05
565.02	1078.99
565.37	1064.71
565.73	1054.41
566.08	1057.69
566.43	1067.05
566.78	1067.28
567.14	1081.09
567.49	1094.67
567.84	1086.01
568.19	1083.43
568.54	1087.65
568.90	1084.14
569.25	1090.46
569.60	1108.71
569.95	1112.22
570.31	1112.46
570.66	1109.18
571.01	1088.12
571.36	1079.46
571.71	1074.54
572.06	1074.31
572.42	1078.05
572.77	1082.97
573.12	1078.05
573.47	1081.56
573.82	1082.26
574.18	1077.58
574.53	1076.88
574.88	1083.67
575.23	1078.52
575.58	1086.71
575.93	1088.58
576.28	1084.14
576.64	1079.92
576.99	1073.14
577.34	1052.77
577.69	1053.24
578.04	1056.75
578.39	1058.16
578.74	1071.03
579.09	1086.48
579.44	1090.46
579.80	1087.88
580.15	1081.09
580.50	1076.18
580.85	1071.26
581.20	1060.26
581.55	1061.90
581.90	1069.16
582.25	1069.16
582.60	1067.52
582.95	1080.16
583.30	1084.14
583.65	1088.35
584.00	1088.82
584.35	1088.35
584.71	1088.12
585.06	1093.97
585.41	1089.29
585.76	1094.20
586.11	1096.54
586.46	1091.39
586.81	1090.69
587.16	1084.60
587.51	1077.35
587.86	1073.37
588.21	1080.16
588.56	1070.56
588.91	1080.16
589.26	1089.29
589.61	1099.12
589.96	1096.07
590.31	1103.09
590.66	1104.73
591.01	1100.29
591.36	1099.82
591.71	1095.60
592.06	1096.31
592.41	1078.52
592.76	1073.84
593.10	1064.94
593.45	1061.67
593.80	1053.94
594.15	1077.11
594.50	1082.26
594.85	1085.77
595.20	1093.73
595.55	1100.05
595.90	1089.99
596.25	1088.12
596.60	1081.33
596.95	1076.65
597.30	1068.22
597.64	1122.05
597.99	1125.80
598.34	1139.84
598.69	1138.44
599.04	1142.18
599.39	1092.09
599.74	1089.99
600.09	1076.18
600.44	1076.65
600.78	1075.24
601.13	1070.09
601.48	1071.50
601.83	1079.46
602.18	1078.05
602.53	1082.26
602.88	1086.01
603.22	1080.16
603.57	1081.56
603.92	1077.58
604.27	1078.52
604.62	1075.24
604.97	1079.69
605.31	1075.01
605.66	1082.03
606.01	1086.71
606.36	1080.16
606.71	1083.67
607.05	1083.20
607.40	1083.20
607.75	1084.14
608.10	1079.69
608.44	1077.58
608.79	1076.65
609.14	1087.41
609.49	1085.54
609.84	1096.07
610.18	1088.35
610.53	1086.48
610.88	1085.77
611.23	1078.05
611.57	1078.05
611.92	1073.60
612.27	1086.94
612.62	1077.82
612.96	1079.92
613.31	1081.56
613.66	1088.12
614.00	1083.67
614.35	1093.50
614.70	1090.92
615.05	1083.43
615.39	1081.80
615.74	1078.99
616.09	1068.92
616.43	1067.05
616.78	1081.09
617.13	1081.56
617.47	1079.46
617.82	1080.16
618.17	1082.73
618.51	1067.52
618.86	1072.67
619.21	1069.16
619.55	1067.05
619.90	1073.37
620.25	1076.88
620.59	1078.75
620.94	1077.11
621.29	1071.97
621.63	1065.18
621.98	1069.16
622.32	1066.82
622.67	1075.94
623.02	1082.50
623.36	1086.24
623.71	1078.28
624.05	1080.39
624.40	1078.99
624.75	1080.63
625.09	1075.24
625.44	1083.90
625.78	1076.41
626.13	1080.86
626.48	1064.24
626.82	1064.01
627.17	1060.73
627.51	1070.56
627.86	1065.88
628.20	1075.01
628.55	1082.03
628.89	1086.48
629.24	1076.18
629.58	1063.07
629.93	1064.94
630.28	1067.28
630.62	1069.16
630.97	1076.65
631.31	1083.20
631.66	1093.73
632.00	1088.35
632.35	1083.67
632.69	1079.92
633.04	1082.26
633.38	1078.52
633.73	1072.43
634.07	1068.92
634.42	1066.35
634.76	1080.39
635.11	1078.75
635.45	1075.71
635.79	1075.94
636.14	1086.01
636.48	1073.14
636.83	1071.03
637.17	1084.14
637.52	1082.73
637.86	1084.60
638.21	1083.43
638.55	1089.52
638.89	1088.82
639.24	1101.46
639.58	1089.99
639.93	1092.09
640.27	1095.84
640.61	1102.16
640.96	1095.84
641.30	1094.43
641.65	1094.43
641.99	1087.18
642.33	1087.65
642.68	1080.86
643.02	1084.84
643.37	1075.71
643.71	1075.71
644.05	1067.52
644.40	1067.52
644.74	1066.58
645.08	1086.71
645.43	1082.26
645.77	1069.62
646.11	1076.41
646.46	1081.33
646.80	1067.52
647.14	1060.96
647.49	1061.43
647.83	1055.58
648.17	1050.20
648.52	1048.56
648.86	1059.33
649.20	1069.86
649.55	1077.58
649.89	1083.90
650.23	1089.05
650.57	1090.22
650.92	1085.07
651.26	1083.43
651.60	1085.54
651.95	1084.37
652.29	1087.41
652.63	1090.22
652.97	1090.22
653.32	1085.07
653.66	1083.43
654.00	1080.16
654.34	1082.26
654.69	1076.88
655.03	1067.99
655.37	1075.48
655.71	1074.77
656.05	1076.18
656.40	1089.05
656.74	1104.50
657.08	1096.31
657.42	1096.07
657.76	1097.01
658.11	1086.48
658.45	1084.84
658.79	1088.35
659.13	1078.52
659.47	1067.52
659.82	1063.31
660.16	1058.39
660.50	1063.77
660.84	1068.22
661.18	1086.48
661.52	1084.37
661.87	1087.41
662.21	1082.73
662.55	1087.18
662.89	1075.01
663.23	1080.63
663.57	1075.71
663.91	1078.99
664.25	1071.03
664.60	1068.69
664.94	1053.24
665.28	1055.35
665.62	1057.69
665.96	1068.45
666.30	1073.60
666.64	1091.86
666.98	1086.94
667.32	1069.86
667.66	1061.90
668.01	1065.41
668.35	1058.86
668.69	1067.99
669.03	1076.18
669.37	1079.22
669.71	1086.94
670.05	1087.65
670.39	1091.86
670.73	1093.73
671.07	1097.48
671.41	1082.73
671.75	1083.43
672.09	1066.35
672.43	1064.94
672.77	1062.84
673.11	1060.03
673.45	1070.09
673.79	1078.28
674.13	1081.09
674.47	1085.31
674.81	1086.48
675.15	1066.11
675.49	1065.41
675.83	1067.28
676.17	1072.90
676.51	1084.37
676.85	1101.46
677.19	1100.05
677.53	1101.69
677.87	1091.16
678.21	1073.37
678.55	1073.37
678.89	1073.14
679.23	1058.16
679.57	1068.22
679.90	1080.16
680.24	1073.84
680.58	1075.01
680.92	1093.03
681.26	1087.18
681.60	1080.63
681.94	1083.67
682.28	1080.16
682.62	1070.56
682.96	1068.45
683.29	1068.69
683.63	1073.60
683.97	1071.97
684.31	1068.92
684.65	1068.69
684.99	1082.50
685.33	1076.88
685.67	1082.97
686.00	1091.86
686.34	1087.41
686.68	1075.01
687.02	1082.26
687.36	1083.20
687.70	1071.03
688.03	1085.77
688.37	1096.07
688.71	1085.31
689.05	1079.69
689.39	1086.01
689.72	1078.05
690.06	1072.67
690.40	1081.80
690.74	1091.39
691.08	1091.63
691.41	1089.05
691.75	1083.67
692.09	1078.05
692.43	1078.75
692.76	1073.60
693.10	1069.62
693.44	1084.37
693.78	1097.24
694.11	1087.65
694.45	1092.56
694.79	1095.14
695.13	1082.03
695.46	1066.82
695.80	1072.43
696.14	1070.80
696.48	1063.07
696.81	1059.09
697.15	1065.65
697.49	1072.67
697.82	1073.60
698.16	1082.03
698.50	1083.67
698.83	1077.58
699.17	1063.07
699.51	1063.07
699.84	1056.52
700.18	1063.07
700.52	1068.22
700.85	1078.52
701.19	1082.73
701.53	1086.94
701.86	1078.28
702.20	1072.90
702.54	1071.03
702.87	1068.92
703.21	1067.28
703.55	1074.54
703.88	1073.37
704.22	1066.11
704.55	1072.90
704.89	1074.31
705.23	1068.69
705.56	1073.60
705.90	1079.69
706.23	1075.48
706.57	1090.22
706.91	1099.35
707.24	1103.80
707.58	1098.65
707.91	1094.43
708.25	1081.33
708.58	1075.94
708.92	1070.56
709.26	1071.97
709.59	1069.16
709.93	1060.96
710.26	1060.50
710.60	1062.37
710.93	1065.18
711.27	1072.20
711.60	1084.37
711.94	1092.09
712.27	1085.07
712.61	1075.48
712.94	1079.92
713.28	1079.69
713.61	1070.80
713.95	1073.60
714.28	1083.67
714.62	1072.90
714.95	1069.86
715.29	1079.22
715.62	1085.07
715.96	1085.54
716.29	1092.56
716.63	1099.58
716.96	1097.24
717.29	1092.33
717.63	1091.63
717.96	1083.67
718.30	1079.69
718.63	1078.52
718.97	1084.14
719.30	1078.28
719.63	1079.22
719.97	1078.05
720.30	1075.94
720.64	1078.99
720.97	1082.03
721.30	1080.16
721.64	1075.94
721.97	1081.80
722.31	1070.33
722.64	1071.73
722.97	1086.24
723.31	1081.33
723.64	1073.37
723.97	1082.73
724.31	1085.31
724.64	1080.16
724.98	1093.73
725.31	1094.20
725.64	1086.48
725.98	1085.77
726.31	1086.01
726.64	1085.31
726.97	1085.07
727.31	1084.14
727.64	1072.43
727.97	1078.99
728.31	1076.18
728.64	1086.48
728.97	1091.16
729.31	1105.90
729.64	1093.50
729.97	1089.52
730.30	1076.88
730.64	1072.43
730.97	1065.41
731.30	1065.41
731.63	1066.82
731.97	1067.28
732.30	1065.18
732.63	1061.67
732.96	1065.65
733.30	1068.69
733.63	1071.97
733.96	1073.14
734.29	1087.41
734.63	1082.26
734.96	1081.33
735.29	1080.39
735.62	1081.80
735.95	1072.90
736.29	1079.22
736.62	1067.28
736.95	1065.65
737.28	1067.75
737.61	1064.48
737.94	1060.50
738.28	1075.71
738.61	1077.11
738.94	1084.60
739.27	1087.41
739.60	1091.39
739.93	1092.33
740.27	1097.01
740.60	1088.82
740.93	1089.05
741.26	1093.97
741.59	1089.29
741.92	1082.97
742.25	1087.65
742.58	1085.77
742.91	1084.84
743.25	1085.54
743.58	1080.63
743.91	1071.97
744.24	1078.05
744.57	1070.09
744.90	1072.43
745.23	1082.97
745.56	1096.78
745.89	1098.65
746.22	1102.16
746.55	1098.88
746.88	1107.31
747.21	1100.29
747.54	1096.31
747.87	1094.90
748.20	1096.78
748.53	1084.37
748.87	1082.73
749.20	1074.07
749.53	1065.41
749.86	1060.73
750.19	1066.58
750.52	1071.97
750.85	1071.03
751.18	1071.26
751.51	1069.39
751.84	1062.84
752.16	1053.48
752.49	1064.24
752.82	1068.22
753.15	1056.99
753.48	1064.71
753.81	1068.22
754.14	1069.39
754.47	1066.58
754.80	1081.56
755.13	1081.56
755.46	1089.29
755.79	1090.92
756.12	1096.78
756.45	1101.92
756.78	1095.37
757.11	1089.29
757.43	1075.48
757.76	1077.11
758.09	1080.63
758.42	1078.99
758.75	1078.99
759.08	1082.50
759.41	1086.48
759.74	1083.20
760.07	1093.50
760.39	1087.88
760.72	1091.16
761.05	1089.52
761.38	1088.35
761.71	1076.88
762.04	1081.09
762.36	1082.73
762.69	1082.26
763.02	1078.05
763.35	1079.46
763.68	1081.33
764.01	1080.63
764.33	1077.82
764.66	1084.37
764.99	1082.50
765.32	1080.39
765.65	1084.60
765.97	1089.52
766.30	1075.71
