SpectraSuite Data File
++++++++++++++++++++++++++++++++++++
Date: Mon Aug 26 10:25:50 PDT 2019
User: corrico
Dark Spectrum Present: No
Reference Spectrum Present: No
Number of Sampled Component Spectra: 1
Spectrometers: USB2+H06089
Integration Time (usec): 10000 (USB2+H06089)
Spectra Averaged: 2 (USB2+H06089)
Boxcar Smoothing: 2 (USB2+H06089)
Correct for Electrical Dark: No (USB2+H06089)
Strobe/Lamp Enabled: No (USB2+H06089)
Correct for Detector Non-linearity: No (USB2+H06089)
Correct for Stray Light: No (USB2+H06089)
Number of Pixels in Processed Spectrum: 2048
>>>>>Begin Processed Spectral Data<<<<<
339.70	1035.69
340.07	1035.69
340.45	1004.09
340.82	976.00
341.19	951.43
341.57	932.00
341.94	912.34
342.31	899.47
342.69	900.17
343.06	899.23
343.43	899.00
343.81	899.47
344.18	908.83
344.55	917.26
344.93	918.66
345.30	931.07
345.67	946.75
346.04	945.11
346.42	953.07
346.79	958.92
347.16	950.73
347.54	964.07
347.91	977.64
348.28	976.47
348.65	1001.52
349.03	1026.79
349.40	1028.90
349.77	1045.28
350.14	1054.88
350.52	1043.64
350.89	1041.54
351.26	1035.22
351.63	1041.54
352.01	1052.07
352.38	1066.35
352.75	1059.56
353.12	1072.67
353.50	1064.94
353.87	1061.67
354.24	1062.14
354.61	1067.28
354.98	1070.33
355.36	1065.65
355.73	1074.54
356.10	1065.18
356.47	1060.26
356.84	1064.48
357.22	1068.45
357.59	1067.28
357.96	1080.86
358.33	1089.75
358.70	1091.39
359.08	1095.37
359.45	1089.29
359.82	1078.99
360.19	1074.31
360.56	1075.94
360.94	1086.48
361.31	1083.67
361.68	1088.12
362.05	1089.05
362.42	1084.60
362.79	1077.11
363.16	1087.88
363.54	1081.33
363.91	1081.33
364.28	1076.18
364.65	1077.35
365.02	1075.71
365.39	1082.73
365.76	1075.01
366.14	1073.37
366.51	1070.80
366.88	1070.33
367.25	1071.03
367.62	1070.33
367.99	1078.05
368.36	1081.56
368.73	1081.33
369.10	1082.73
369.48	1100.99
369.85	1096.54
370.22	1093.26
370.59	1092.33
370.96	1088.12
371.33	1075.71
371.70	1076.65
372.07	1065.18
372.44	1063.54
372.81	1062.14
373.18	1071.26
373.55	1068.69
373.93	1075.71
374.30	1069.39
374.67	1073.60
375.04	1061.20
375.41	1070.33
375.78	1073.37
376.15	1075.01
376.52	1068.69
376.89	1075.94
377.26	1075.71
377.63	1076.65
378.00	1081.09
378.37	1086.94
378.74	1092.80
379.11	1086.48
379.48	1080.39
379.85	1083.20
380.22	1083.90
380.59	1079.22
380.96	1071.50
381.33	1076.88
381.70	1067.99
382.07	1060.03
382.44	1059.79
382.81	1073.84
383.18	1075.94
383.55	1073.84
383.92	1083.20
384.29	1083.67
384.66	1072.43
385.03	1068.69
385.40	1077.82
385.77	1073.37
386.14	1075.01
386.51	1073.37
386.88	1076.41
387.25	1069.62
387.62	1070.09
387.99	1071.97
388.36	1090.22
388.73	1079.69
389.10	1082.97
389.46	1082.97
389.83	1078.28
390.20	1066.82
390.57	1078.05
390.94	1078.28
391.31	1078.99
391.68	1072.43
392.05	1066.82
392.42	1055.82
392.79	1049.50
393.16	1053.24
393.53	1063.31
393.89	1069.62
394.26	1077.11
394.63	1088.12
395.00	1093.97
395.37	1091.16
395.74	1085.31
396.11	1080.63
396.48	1077.82
396.84	1068.45
397.21	1080.16
397.58	1091.39
397.95	1105.90
398.32	1098.18
398.69	1093.73
399.06	1081.09
399.42	1079.92
399.79	1072.43
400.16	1076.18
400.53	1081.33
400.90	1084.60
401.27	1083.90
401.64	1090.69
402.00	1093.73
402.37	1093.73
402.74	1092.09
403.11	1084.37
403.48	1078.05
403.84	1080.86
404.21	1079.69
404.58	1074.54
404.95	1074.07
405.32	1076.41
405.68	1082.73
406.05	1077.11
406.42	1074.54
406.79	1078.75
407.16	1080.63
407.52	1063.77
407.89	1063.31
408.26	1065.88
408.63	1061.20
408.99	1058.16
409.36	1065.65
409.73	1071.73
410.10	1070.80
410.47	1075.94
410.83	1078.28
411.20	1073.60
411.57	1077.11
411.94	1088.35
412.30	1076.88
412.67	1067.05
413.04	1072.90
413.40	1068.69
413.77	1059.56
414.14	1071.73
414.51	1072.90
414.87	1064.01
415.24	1070.09
415.61	1071.97
415.97	1068.92
416.34	1068.45
416.71	1080.39
417.08	1074.07
417.44	1069.16
417.81	1072.67
418.18	1078.75
418.54	1076.18
418.91	1077.35
419.28	1075.01
419.64	1068.22
420.01	1066.58
420.38	1062.84
420.74	1072.20
421.11	1090.22
421.48	1092.33
421.84	1097.71
422.21	1103.80
422.58	1092.09
422.94	1079.46
423.31	1082.73
423.68	1067.75
424.04	1064.48
424.41	1065.41
424.77	1067.99
425.14	1065.65
425.51	1077.11
425.87	1082.03
426.24	1081.56
426.61	1081.80
426.97	1075.94
427.34	1067.99
427.70	1056.99
428.07	1065.65
428.44	1063.07
428.80	1072.43
429.17	1073.60
429.53	1082.97
429.90	1067.99
430.27	1073.14
430.63	1074.31
431.00	1077.35
431.36	1074.31
431.73	1081.09
432.09	1067.99
432.46	1055.82
432.83	1052.77
433.19	1049.03
433.56	1052.54
433.92	1057.92
434.29	1068.22
434.65	1067.75
435.02	1070.56
435.38	1069.86
435.75	1076.65
436.11	1069.39
436.48	1074.54
436.84	1072.90
437.21	1074.31
437.57	1073.14
437.94	1071.97
438.30	1073.14
438.67	1069.39
439.03	1058.86
439.40	1060.26
439.76	1066.11
440.13	1063.31
440.49	1072.67
440.86	1085.54
441.22	1082.26
441.59	1081.80
441.95	1085.77
442.32	1087.18
442.68	1087.88
443.05	1093.03
443.41	1095.84
443.78	1104.50
444.14	1097.71
444.51	1097.01
444.87	1094.67
445.24	1090.46
445.60	1077.35
445.96	1082.03
446.33	1083.67
446.69	1091.16
447.06	1096.54
447.42	1097.71
447.79	1095.60
448.15	1096.54
448.51	1083.67
448.88	1073.84
449.24	1082.03
449.61	1083.90
449.97	1074.77
450.33	1071.73
450.70	1090.22
451.06	1081.33
451.43	1087.65
451.79	1086.71
452.15	1099.12
452.52	1086.01
452.88	1082.73
453.24	1069.16
453.61	1075.94
453.97	1069.62
454.34	1073.37
454.70	1081.56
455.06	1078.99
455.43	1072.20
455.79	1069.39
456.15	1067.52
456.52	1070.80
456.88	1078.05
457.24	1077.11
457.61	1084.37
457.97	1083.20
458.33	1086.24
458.70	1091.63
459.06	1091.63
459.42	1090.92
459.79	1093.03
460.15	1080.86
460.51	1071.73
460.88	1075.24
461.24	1070.09
461.60	1071.97
461.96	1078.99
462.33	1081.09
462.69	1089.52
463.05	1091.16
463.42	1091.63
463.78	1083.67
464.14	1085.77
464.50	1075.48
464.87	1078.99
465.23	1073.60
465.59	1075.71
465.95	1073.14
466.32	1082.73
466.68	1082.03
467.04	1092.33
467.40	1091.39
467.77	1087.41
468.13	1077.58
468.49	1070.09
468.85	1057.45
469.22	1068.45
469.58	1085.54
469.94	1083.20
470.30	1088.35
470.66	1097.24
471.03	1093.03
471.39	1082.73
471.75	1085.07
472.11	1087.88
472.47	1088.82
472.84	1086.94
473.20	1097.01
473.56	1101.92
473.92	1102.39
474.28	1097.95
474.65	1099.12
475.01	1088.12
475.37	1097.01
475.73	1093.03
476.09	1091.16
476.45	1085.77
476.81	1080.16
477.18	1064.71
477.54	1072.67
477.90	1076.18
478.26	1083.67
478.62	1094.20
478.98	1095.14
479.34	1096.54
479.71	1100.52
480.07	1093.50
480.43	1088.35
480.79	1092.56
481.15	1083.90
481.51	1078.05
481.87	1083.90
482.23	1080.86
482.59	1084.84
482.96	1088.35
483.32	1084.37
483.68	1076.41
484.04	1085.54
484.40	1076.41
484.76	1069.39
485.12	1073.37
485.48	1080.39
485.84	1078.75
486.20	1086.48
486.56	1084.60
486.92	1081.33
487.28	1081.80
487.64	1070.80
488.00	1063.07
488.37	1067.99
488.73	1062.14
489.09	1057.69
489.45	1061.90
489.81	1062.37
490.17	1065.41
490.53	1077.82
490.89	1077.11
491.25	1079.22
491.61	1077.35
491.97	1081.09
492.33	1074.07
492.69	1074.07
493.05	1065.65
493.41	1072.67
493.77	1069.86
494.13	1080.63
494.49	1080.39
494.85	1091.39
495.21	1087.18
495.57	1089.52
495.93	1081.56
496.29	1085.54
496.64	1081.80
497.00	1083.20
497.36	1079.92
497.72	1089.05
498.08	1082.26
498.44	1082.03
498.80	1087.88
499.16	1089.75
499.52	1075.71
499.88	1080.86
500.24	1084.37
500.60	1086.71
500.96	1081.09
501.32	1088.58
501.68	1093.73
502.03	1091.39
502.39	1090.92
502.75	1095.37
503.11	1102.16
503.47	1094.90
503.83	1097.01
504.19	1097.95
504.55	1092.09
504.91	1089.75
505.26	1091.63
505.62	1097.24
505.98	1089.05
506.34	1087.65
506.70	1082.73
507.06	1070.33
507.42	1067.52
507.78	1062.14
508.13	1063.31
508.49	1062.14
508.85	1077.82
509.21	1080.39
509.57	1084.37
509.93	1090.46
510.28	1090.69
510.64	1093.97
511.00	1089.29
511.36	1090.22
511.72	1089.75
512.07	1084.84
512.43	1076.65
512.79	1078.28
513.15	1084.37
513.51	1092.33
513.86	1097.95
514.22	1102.63
514.58	1104.26
514.94	1099.82
515.30	1095.84
515.65	1095.14
516.01	1089.75
516.37	1089.99
516.73	1088.12
517.08	1091.63
517.44	1089.05
517.80	1094.20
518.16	1095.37
518.51	1099.58
518.87	1086.01
519.23	1089.75
519.59	1090.22
519.94	1086.24
520.30	1084.14
520.66	1091.63
521.01	1088.35
521.37	1092.56
521.73	1088.12
522.09	1083.90
522.44	1085.77
522.80	1081.09
523.16	1068.45
523.51	1067.05
523.87	1074.54
524.23	1067.99
524.58	1073.60
524.94	1091.86
525.30	1093.50
525.65	1090.46
526.01	1098.18
526.37	1096.07
526.72	1086.71
527.08	1085.07
527.44	1083.43
527.79	1078.99
528.15	1080.63
528.51	1073.84
528.86	1082.50
529.22	1082.26
529.58	1094.20
529.93	1088.12
530.29	1090.92
530.65	1089.52
531.00	1099.58
531.36	1093.97
531.71	1097.95
532.07	1095.14
532.43	1095.60
532.78	1095.84
533.14	1089.52
533.49	1089.52
533.85	1098.18
534.21	1097.71
534.56	1089.75
534.92	1093.73
535.27	1102.63
535.63	1093.50
535.98	1092.56
536.34	1085.77
536.69	1091.86
537.05	1088.82
537.41	1087.18
537.76	1079.46
538.12	1089.05
538.47	1077.82
538.83	1081.56
539.18	1089.29
539.54	1097.95
539.89	1103.80
540.25	1115.27
540.60	1109.18
540.96	1107.07
541.31	1109.41
541.67	1102.86
542.02	1089.52
542.38	1089.75
542.73	1095.14
543.09	1097.24
543.44	1099.82
543.80	1105.20
544.15	1107.07
544.51	1100.29
544.86	1100.52
545.22	1091.86
545.57	1088.82
545.93	1087.65
546.28	1087.41
546.64	1088.58
546.99	1093.73
547.35	1097.48
547.70	1099.35
548.05	1101.22
548.41	1101.92
548.76	1104.73
549.12	1100.52
549.47	1098.88
549.83	1099.58
550.18	1092.09
550.53	1090.46
550.89	1099.82
551.24	1092.09
551.60	1090.92
551.95	1087.65
552.30	1083.90
552.66	1076.88
553.01	1085.77
553.37	1091.39
553.72	1093.97
554.07	1094.43
554.43	1095.37
554.78	1094.67
555.13	1091.63
555.49	1090.69
555.84	1091.16
556.19	1087.41
556.55	1084.37
556.90	1088.35
557.26	1083.67
557.61	1075.01
557.96	1078.28
558.32	1078.52
558.67	1070.56
559.02	1080.63
559.37	1105.20
559.73	1103.56
560.08	1101.46
560.43	1102.86
560.79	1100.52
561.14	1087.65
561.49	1087.88
561.85	1089.29
562.20	1097.71
562.55	1092.56
562.90	1085.77
563.26	1079.22
563.61	1078.75
563.96	1069.16
564.32	1067.99
564.67	1083.20
565.02	1090.92
565.37	1097.24
565.73	1090.22
566.08	1084.37
566.43	1067.28
566.78	1059.33
567.14	1056.99
567.49	1063.07
567.84	1064.24
568.19	1071.73
568.54	1078.99
568.90	1078.75
569.25	1086.71
569.60	1100.75
569.95	1085.54
570.31	1085.07
570.66	1086.71
571.01	1084.14
571.36	1075.48
571.71	1087.18
572.06	1078.52
572.42	1070.56
572.77	1061.20
573.12	1070.09
573.47	1058.39
573.82	1069.39
574.18	1069.39
574.53	1080.63
574.88	1071.73
575.23	1076.65
575.58	1073.14
575.93	1075.48
576.28	1061.20
576.64	1058.62
576.99	1066.82
577.34	1065.88
577.69	1064.01
578.04	1077.35
578.39	1084.14
578.74	1089.05
579.09	1093.26
579.44	1099.58
579.80	1097.24
580.15	1096.78
580.50	1082.73
580.85	1069.86
581.20	1072.90
581.55	1063.31
581.90	1062.37
582.25	1072.67
582.60	1080.86
582.95	1079.69
583.30	1087.18
583.65	1088.35
584.00	1087.65
584.35	1081.56
584.71	1078.75
585.06	1082.03
585.41	1076.65
585.76	1071.26
586.11	1086.01
586.46	1075.24
586.81	1077.35
587.16	1085.07
587.51	1086.71
587.86	1080.86
588.21	1095.14
588.56	1088.82
588.91	1078.05
589.26	1086.48
589.61	1078.05
589.96	1076.18
590.31	1076.41
590.66	1082.26
591.01	1082.50
591.36	1093.50
591.71	1081.33
592.06	1082.03
592.41	1082.97
592.76	1070.56
593.10	1073.84
593.45	1085.77
593.80	1094.20
594.15	1095.60
594.50	1105.44
594.85	1093.50
595.20	1088.35
595.55	1081.09
595.90	1082.26
596.25	1077.11
596.60	1078.99
596.95	1079.92
597.30	1079.22
597.64	1131.18
597.99	1134.22
598.34	1143.12
598.69	1148.73
599.04	1143.82
599.39	1094.20
599.74	1094.20
600.09	1083.90
600.44	1074.07
600.78	1075.48
601.13	1062.14
601.48	1067.05
601.83	1072.43
602.18	1082.97
602.53	1086.48
602.88	1097.01
603.22	1090.22
603.57	1089.99
603.92	1079.46
604.27	1082.73
604.62	1091.86
604.97	1091.16
605.31	1099.12
605.66	1100.52
606.01	1105.90
606.36	1094.67
606.71	1093.03
607.05	1090.69
607.40	1093.73
607.75	1080.86
608.10	1085.31
608.44	1083.67
608.79	1082.97
609.14	1083.20
609.49	1088.58
609.84	1077.35
610.18	1084.37
610.53	1083.20
610.88	1084.84
611.23	1080.39
611.57	1084.84
611.92	1083.90
612.27	1080.63
612.62	1085.07
612.96	1088.12
613.31	1083.43
613.66	1083.20
614.00	1086.48
614.35	1087.41
614.70	1092.33
615.05	1102.86
615.39	1110.12
615.74	1107.54
616.09	1105.67
616.43	1100.75
616.78	1107.78
617.13	1100.99
617.47	1095.60
617.82	1083.67
618.17	1078.75
618.51	1063.07
618.86	1058.86
619.21	1068.22
619.55	1073.84
619.90	1082.03
620.25	1085.54
620.59	1093.03
620.94	1086.48
621.29	1093.03
621.63	1091.86
621.98	1096.07
622.32	1095.60
622.67	1096.31
623.02	1096.54
623.36	1104.50
623.71	1108.24
624.05	1100.99
624.40	1103.33
624.75	1097.48
625.09	1085.54
625.44	1085.31
625.78	1079.46
626.13	1075.94
626.48	1079.69
626.82	1082.26
627.17	1082.26
627.51	1091.63
627.86	1094.90
628.20	1089.05
628.55	1087.18
628.89	1075.01
629.24	1071.03
629.58	1065.18
629.93	1080.39
630.28	1081.33
630.62	1093.97
630.97	1100.29
631.31	1098.41
631.66	1078.05
632.00	1082.97
632.35	1071.97
632.69	1067.99
633.04	1067.99
633.38	1078.75
633.73	1074.77
634.07	1073.60
634.42	1071.73
634.76	1068.22
635.11	1068.22
635.45	1072.20
635.79	1071.97
636.14	1077.11
636.48	1090.69
636.83	1086.94
637.17	1073.14
637.52	1073.84
637.86	1072.43
638.21	1064.01
638.55	1059.56
638.89	1068.45
639.24	1073.60
639.58	1077.35
639.93	1084.14
640.27	1086.01
640.61	1091.39
640.96	1088.82
641.30	1073.84
641.65	1070.33
641.99	1070.56
642.33	1061.67
642.68	1054.65
643.02	1060.73
643.37	1056.99
643.71	1065.88
644.05	1069.39
644.40	1082.97
644.74	1090.92
645.08	1093.50
645.43	1091.16
645.77	1077.35
646.11	1073.37
646.46	1076.88
646.80	1075.24
647.14	1077.11
647.49	1093.73
647.83	1091.39
648.17	1084.37
648.52	1080.16
648.86	1075.01
649.20	1070.33
649.55	1072.90
649.89	1073.84
650.23	1088.12
650.57	1081.09
650.92	1080.39
651.26	1079.92
651.60	1085.31
651.95	1075.94
652.29	1091.86
652.63	1100.29
652.97	1106.14
653.32	1108.24
653.66	1115.97
654.00	1103.09
654.34	1096.78
654.69	1092.56
655.03	1077.11
655.37	1067.28
655.71	1069.39
656.05	1071.03
656.40	1075.48
656.74	1080.86
657.08	1082.50
657.42	1085.07
657.76	1086.71
658.11	1080.63
658.45	1085.07
658.79	1086.94
659.13	1086.71
659.47	1094.43
659.82	1092.56
660.16	1088.82
660.50	1091.16
660.84	1090.92
661.18	1077.82
661.52	1068.45
661.87	1065.41
662.21	1075.48
662.55	1079.92
662.89	1080.16
663.23	1095.60
663.57	1103.80
663.91	1095.84
664.25	1089.75
664.60	1093.50
664.94	1087.41
665.28	1083.67
665.62	1073.84
665.96	1074.31
666.30	1070.33
666.64	1073.84
666.98	1074.31
667.32	1086.24
667.66	1095.37
668.01	1102.63
668.35	1100.52
668.69	1092.33
669.03	1085.77
669.37	1074.07
669.71	1068.69
670.05	1072.43
670.39	1084.14
670.73	1089.29
671.07	1093.03
671.41	1094.90
671.75	1106.61
672.09	1099.12
672.43	1091.16
672.77	1090.69
673.11	1098.41
673.45	1080.16
673.79	1086.48
674.13	1089.75
674.47	1092.56
674.81	1084.60
675.15	1085.54
675.49	1086.71
675.83	1087.88
676.17	1078.05
676.51	1078.28
676.85	1086.24
677.19	1078.28
677.53	1079.92
677.87	1093.73
678.21	1085.77
678.55	1086.71
678.89	1084.60
679.23	1085.31
679.57	1076.18
679.90	1087.18
680.24	1082.26
680.58	1086.94
680.92	1075.48
681.26	1077.35
681.60	1068.22
681.94	1071.97
682.28	1065.41
682.62	1075.71
682.96	1083.67
683.29	1084.37
683.63	1075.71
683.97	1084.14
684.31	1071.97
684.65	1057.69
684.99	1061.20
685.33	1065.41
685.67	1072.90
686.00	1087.18
686.34	1091.39
686.68	1094.67
687.02	1094.67
687.36	1078.52
687.70	1064.01
688.03	1067.99
688.37	1059.56
688.71	1060.50
689.05	1064.24
689.39	1069.62
689.72	1075.48
690.06	1075.71
690.40	1074.54
690.74	1073.37
691.08	1075.71
691.41	1063.31
691.75	1063.54
692.09	1055.82
692.43	1062.60
692.76	1063.54
693.10	1067.05
693.44	1069.86
693.78	1076.65
694.11	1072.67
694.45	1073.37
694.79	1084.60
695.13	1085.07
695.46	1079.46
695.80	1080.63
696.14	1075.24
696.48	1064.94
696.81	1068.45
697.15	1064.48
697.49	1058.16
697.82	1066.82
698.16	1071.26
698.50	1058.39
698.83	1063.31
699.17	1071.73
699.51	1065.18
699.84	1061.67
700.18	1071.03
700.52	1076.41
700.85	1079.69
701.19	1079.22
701.53	1076.18
701.86	1075.48
702.20	1076.18
702.54	1071.26
702.87	1068.45
703.21	1068.45
703.55	1072.67
703.88	1073.60
704.22	1080.86
704.55	1092.09
704.89	1097.48
705.23	1099.12
705.56	1088.82
705.90	1085.77
706.23	1088.58
706.57	1077.82
706.91	1071.50
707.24	1086.94
707.58	1084.60
707.91	1076.88
708.25	1088.58
708.58	1095.84
708.92	1087.88
709.26	1085.77
709.59	1082.50
709.93	1077.82
710.26	1069.39
710.60	1071.03
710.93	1072.43
711.27	1080.86
711.60	1083.20
711.94	1089.05
712.27	1090.46
712.61	1098.41
712.94	1091.86
713.28	1095.84
713.61	1093.26
713.95	1085.31
714.28	1079.92
714.62	1082.26
714.95	1075.94
715.29	1075.24
715.62	1079.92
715.96	1074.07
716.29	1068.92
716.63	1073.37
716.96	1075.01
717.29	1073.14
717.63	1075.94
717.96	1083.67
718.30	1073.37
718.63	1070.33
718.97	1087.18
719.30	1100.29
719.63	1103.80
719.97	1113.63
720.30	1115.50
720.64	1108.48
720.97	1095.60
721.30	1088.35
721.64	1085.07
721.97	1076.65
722.31	1065.41
722.64	1059.09
722.97	1056.52
723.31	1050.90
723.64	1062.14
723.97	1075.01
724.31	1086.01
724.64	1092.33
724.98	1099.35
725.31	1092.56
725.64	1079.92
725.98	1083.67
726.31	1073.60
726.64	1071.26
726.97	1076.18
727.31	1066.82
727.64	1058.16
727.97	1070.56
728.31	1066.35
728.64	1061.43
728.97	1081.09
729.31	1088.12
729.64	1080.63
729.97	1083.43
730.30	1083.20
730.64	1073.60
730.97	1068.45
731.30	1076.65
731.63	1078.75
731.97	1081.80
732.30	1082.50
732.63	1082.73
732.96	1077.35
733.30	1089.99
733.63	1093.97
733.96	1097.01
734.29	1093.50
734.63	1096.31
734.96	1088.58
735.29	1095.60
735.62	1087.65
735.95	1089.75
736.29	1081.33
736.62	1076.18
736.95	1064.24
737.28	1065.18
737.61	1061.20
737.94	1064.94
738.28	1067.05
738.61	1074.54
738.94	1077.35
739.27	1080.16
739.60	1074.31
739.93	1073.37
740.27	1066.82
740.60	1067.99
740.93	1072.43
741.26	1087.65
741.59	1087.41
741.92	1093.03
742.25	1102.39
742.58	1096.54
742.91	1088.82
743.25	1090.22
743.58	1088.12
743.91	1080.86
744.24	1088.12
744.57	1089.75
744.90	1092.56
745.23	1086.94
745.56	1092.56
745.89	1088.35
746.22	1091.39
746.55	1086.24
746.88	1091.63
747.21	1079.92
747.54	1078.52
747.87	1074.54
748.20	1079.46
748.53	1080.63
748.87	1084.84
749.20	1084.60
749.53	1080.63
749.86	1075.71
750.19	1071.50
750.52	1084.60
750.85	1081.80
751.18	1094.43
751.51	1104.26
751.84	1105.67
752.16	1090.22
752.49	1097.24
752.82	1089.52
753.15	1080.16
753.48	1083.90
753.81	1083.43
754.14	1069.62
754.47	1070.56
754.80	1068.92
755.13	1063.54
755.46	1076.18
755.79	1087.88
756.12	1093.97
756.45	1100.75
756.78	1093.50
757.11	1082.03
757.43	1075.24
757.76	1067.99
758.09	1068.92
758.42	1070.33
758.75	1078.52
759.08	1082.50
759.41	1075.94
759.74	1072.90
760.07	1077.11
760.39	1072.67
760.72	1078.75
761.05	1090.22
761.38	1080.16
761.71	1094.67
762.04	1096.07
762.36	1096.31
762.69	1091.39
763.02	1103.09
763.35	1086.48
763.68	1078.05
764.01	1076.88
764.33	1071.50
764.66	1061.43
764.99	1063.54
765.32	1071.97
765.65	1063.77
765.97	1066.35
766.30	1085.07
