SpectraSuite Data File
++++++++++++++++++++++++++++++++++++
Date: Mon Aug 26 10:25:53 PDT 2019
User: corrico
Dark Spectrum Present: No
Reference Spectrum Present: No
Number of Sampled Component Spectra: 1
Spectrometers: USB2+H06089
Integration Time (usec): 10000 (USB2+H06089)
Spectra Averaged: 2 (USB2+H06089)
Boxcar Smoothing: 2 (USB2+H06089)
Correct for Electrical Dark: No (USB2+H06089)
Strobe/Lamp Enabled: No (USB2+H06089)
Correct for Detector Non-linearity: No (USB2+H06089)
Correct for Stray Light: No (USB2+H06089)
Number of Pixels in Processed Spectrum: 2048
>>>>>Begin Processed Spectral Data<<<<<
339.70	1059.09
340.07	1059.09
340.45	1013.92
340.82	997.07
341.19	969.92
341.57	944.87
341.94	929.43
342.31	918.66
342.69	899.00
343.06	893.15
343.43	888.23
343.81	892.21
344.18	895.96
344.55	902.51
344.93	907.89
345.30	912.34
345.67	919.36
346.04	928.96
346.42	946.04
346.79	956.34
347.16	966.41
347.54	983.02
347.91	987.71
348.28	994.03
348.65	991.22
349.03	999.64
349.40	995.90
349.77	1006.20
350.14	1018.37
350.52	1029.13
350.89	1036.16
351.26	1047.86
351.63	1055.82
352.01	1049.26
352.38	1051.84
352.75	1057.92
353.12	1060.50
353.50	1065.18
353.87	1066.35
354.24	1078.99
354.61	1075.71
354.98	1085.54
355.36	1090.22
355.73	1096.07
356.10	1090.22
356.47	1085.77
356.84	1075.94
357.22	1065.88
357.59	1056.28
357.96	1057.22
358.33	1055.35
358.70	1068.45
359.08	1064.01
359.45	1071.03
359.82	1077.58
360.19	1090.22
360.56	1076.65
360.94	1091.39
361.31	1091.39
361.68	1078.05
362.05	1070.80
362.42	1077.58
362.79	1061.67
363.16	1059.33
363.54	1066.35
363.91	1067.75
364.28	1057.22
364.65	1070.56
365.02	1070.80
365.39	1073.60
365.76	1080.39
366.14	1079.46
366.51	1069.86
366.88	1071.50
367.25	1070.09
367.62	1061.43
367.99	1057.92
368.36	1067.75
368.73	1070.80
369.10	1066.82
369.48	1071.73
369.85	1081.56
370.22	1081.56
370.59	1081.56
370.96	1093.50
371.33	1097.95
371.70	1100.29
372.07	1090.22
372.44	1093.26
372.81	1090.22
373.18	1083.20
373.55	1075.48
373.93	1081.33
374.30	1073.14
374.67	1064.94
375.04	1066.58
375.41	1070.56
375.78	1067.99
376.15	1071.26
376.52	1073.14
376.89	1065.18
377.26	1069.39
377.63	1071.50
378.00	1050.43
378.37	1050.90
378.74	1050.90
379.11	1032.41
379.48	1042.47
379.85	1059.09
380.22	1061.43
380.59	1060.50
380.96	1073.60
381.33	1068.22
381.70	1072.20
382.07	1065.88
382.44	1068.69
382.81	1056.05
383.18	1044.11
383.55	1038.96
383.92	1046.45
384.29	1045.52
384.66	1059.56
385.03	1070.09
385.40	1065.65
385.77	1063.31
386.14	1067.05
386.51	1060.96
386.88	1057.45
387.25	1068.92
387.62	1071.73
387.99	1064.94
388.36	1084.84
388.73	1081.56
389.10	1085.77
389.46	1084.37
389.83	1088.58
390.20	1076.18
390.57	1075.94
390.94	1069.62
391.31	1065.41
391.68	1067.28
392.05	1060.50
392.42	1060.03
392.79	1052.30
393.16	1059.56
393.53	1061.43
393.89	1064.94
394.26	1070.80
394.63	1084.37
395.00	1077.11
395.37	1082.73
395.74	1083.90
396.11	1076.65
396.48	1072.67
396.84	1071.97
397.21	1057.45
397.58	1060.50
397.95	1064.71
398.32	1054.88
398.69	1058.16
399.06	1057.22
399.42	1059.56
399.79	1068.22
400.16	1077.35
400.53	1070.33
400.90	1085.77
401.27	1081.09
401.64	1072.43
402.00	1064.24
402.37	1072.67
402.74	1064.24
403.11	1069.39
403.48	1067.75
403.84	1073.84
404.21	1070.09
404.58	1083.67
404.95	1073.84
405.32	1076.65
405.68	1079.69
406.05	1084.37
406.42	1080.86
406.79	1088.82
407.16	1086.48
407.52	1086.48
407.89	1088.82
408.26	1082.50
408.63	1073.84
408.99	1067.28
409.36	1060.26
409.73	1050.20
410.10	1045.28
410.47	1062.14
410.83	1080.16
411.20	1081.09
411.57	1084.37
411.94	1093.26
412.30	1084.37
412.67	1069.39
413.04	1072.43
413.40	1072.20
413.77	1061.67
414.14	1054.41
414.51	1057.69
414.87	1065.41
415.24	1070.09
415.61	1072.67
415.97	1079.46
416.34	1087.41
416.71	1078.28
417.08	1075.01
417.44	1081.33
417.81	1086.01
418.18	1092.80
418.54	1095.14
418.91	1101.92
419.28	1100.75
419.64	1091.63
420.01	1075.24
420.38	1080.16
420.74	1087.65
421.11	1086.24
421.48	1090.69
421.84	1089.99
422.21	1090.92
422.58	1077.35
422.94	1074.54
423.31	1075.24
423.68	1088.58
424.04	1078.99
424.41	1080.16
424.77	1089.52
425.14	1092.33
425.51	1094.20
425.87	1093.97
426.24	1089.05
426.61	1077.82
426.97	1070.80
427.34	1063.31
427.70	1061.20
428.07	1069.86
428.44	1071.26
428.80	1071.97
429.17	1075.24
429.53	1083.67
429.90	1079.92
430.27	1086.48
430.63	1090.46
431.00	1092.33
431.36	1089.75
431.73	1084.60
432.09	1079.69
432.46	1078.99
432.83	1066.58
433.19	1066.11
433.56	1071.97
433.92	1075.94
434.29	1073.60
434.65	1084.37
435.02	1093.26
435.38	1093.73
435.75	1089.75
436.11	1091.16
436.48	1087.65
436.84	1078.75
437.21	1076.88
437.57	1068.92
437.94	1072.90
438.30	1074.31
438.67	1077.11
439.03	1078.75
439.40	1079.22
439.76	1070.09
440.13	1074.07
440.49	1077.11
440.86	1081.56
441.22	1095.84
441.59	1107.54
441.95	1094.20
442.32	1088.12
442.68	1080.63
443.05	1075.24
443.41	1063.07
443.78	1066.82
444.14	1069.16
444.51	1067.05
444.87	1063.77
445.24	1067.75
445.60	1070.09
445.96	1077.82
446.33	1087.18
446.69	1095.60
447.06	1098.65
447.42	1098.41
447.79	1085.07
448.15	1078.75
448.51	1073.37
448.88	1053.94
449.24	1052.07
449.61	1054.88
449.97	1062.37
450.33	1055.35
450.70	1073.84
451.06	1077.58
451.43	1083.90
451.79	1077.35
452.15	1088.12
452.52	1083.20
452.88	1084.60
453.24	1085.77
453.61	1088.82
453.97	1087.65
454.34	1092.56
454.70	1082.50
455.06	1074.31
455.43	1078.05
455.79	1069.62
456.15	1070.09
456.52	1083.90
456.88	1088.12
457.24	1083.43
457.61	1091.39
457.97	1084.84
458.33	1072.90
458.70	1080.39
459.06	1078.05
459.42	1072.43
459.79	1081.56
460.15	1085.54
460.51	1071.73
460.88	1068.92
461.24	1075.01
461.60	1067.99
461.96	1063.07
462.33	1062.60
462.69	1061.20
463.05	1052.54
463.42	1059.09
463.78	1071.26
464.14	1071.73
464.50	1083.43
464.87	1094.20
465.23	1093.50
465.59	1086.48
465.95	1089.29
466.32	1087.41
466.68	1088.12
467.04	1079.46
467.40	1074.77
467.77	1075.48
468.13	1071.73
468.49	1065.18
468.85	1072.20
469.22	1073.60
469.58	1077.11
469.94	1069.39
470.30	1067.99
470.66	1061.20
471.03	1067.99
471.39	1069.86
471.75	1077.11
472.11	1086.94
472.47	1092.33
472.84	1088.12
473.20	1090.92
473.56	1091.86
473.92	1084.14
474.28	1092.33
474.65	1095.37
475.01	1094.90
475.37	1088.82
475.73	1091.39
476.09	1083.90
476.45	1085.07
476.81	1072.43
477.18	1075.24
477.54	1071.26
477.90	1071.73
478.26	1066.35
478.62	1058.16
478.98	1059.79
479.34	1056.28
479.71	1055.35
480.07	1061.67
480.43	1077.82
480.79	1076.88
481.15	1085.77
481.51	1083.43
481.87	1083.90
482.23	1082.50
482.59	1089.99
482.96	1089.29
483.32	1089.75
483.68	1086.94
484.04	1078.28
484.40	1073.37
484.76	1070.80
485.12	1073.14
485.48	1079.46
485.84	1086.48
486.20	1082.50
486.56	1081.56
486.92	1086.94
487.28	1089.99
487.64	1095.14
488.00	1086.48
488.37	1086.24
488.73	1084.60
489.09	1073.14
489.45	1069.39
489.81	1078.75
490.17	1075.71
490.53	1069.62
490.89	1076.88
491.25	1073.37
491.61	1065.18
491.97	1068.45
492.33	1077.11
492.69	1076.65
493.05	1081.56
493.41	1086.01
493.77	1093.73
494.13	1093.03
494.49	1087.41
494.85	1083.43
495.21	1089.05
495.57	1083.43
495.93	1075.71
496.29	1076.65
496.64	1082.26
497.00	1082.26
497.36	1086.71
497.72	1085.54
498.08	1082.26
498.44	1078.99
498.80	1074.31
499.16	1067.52
499.52	1068.69
499.88	1078.05
500.24	1071.73
500.60	1080.39
500.96	1092.56
501.32	1092.33
501.68	1086.94
502.03	1089.99
502.39	1084.14
502.75	1071.97
503.11	1071.97
503.47	1071.03
503.83	1071.50
504.19	1070.33
504.55	1067.75
504.91	1070.33
505.26	1069.86
505.62	1070.56
505.98	1085.77
506.34	1092.56
506.70	1093.97
507.06	1102.86
507.42	1104.50
507.78	1083.43
508.13	1088.58
508.49	1090.92
508.85	1078.99
509.21	1080.16
509.57	1083.20
509.93	1071.26
510.28	1064.94
510.64	1075.48
511.00	1084.14
511.36	1082.50
511.72	1077.11
512.07	1081.56
512.43	1077.58
512.79	1074.54
513.15	1078.75
513.51	1090.22
513.86	1083.20
514.22	1082.26
514.58	1078.52
514.94	1086.01
515.30	1079.22
515.65	1077.35
516.01	1065.18
516.37	1061.20
516.73	1057.45
517.08	1066.35
517.44	1078.52
517.80	1099.12
518.16	1104.50
518.51	1107.78
518.87	1097.71
519.23	1087.41
519.59	1082.26
519.94	1085.77
520.30	1085.54
520.66	1098.88
521.01	1105.20
521.37	1101.69
521.73	1098.88
522.09	1102.39
522.44	1103.80
522.80	1106.14
523.16	1097.71
523.51	1099.58
523.87	1098.88
524.23	1089.52
524.58	1091.39
524.94	1104.26
525.30	1100.99
525.65	1102.16
526.01	1111.99
526.37	1105.67
526.72	1105.67
527.08	1102.39
527.44	1097.71
527.79	1088.12
528.15	1093.50
528.51	1086.94
528.86	1090.69
529.22	1095.37
529.58	1096.54
529.93	1090.92
530.29	1093.73
530.65	1092.33
531.00	1079.46
531.36	1080.39
531.71	1079.22
532.07	1082.03
532.43	1087.41
532.78	1097.95
533.14	1106.37
533.49	1108.71
533.85	1111.75
534.21	1098.65
534.56	1088.82
534.92	1080.39
535.27	1085.31
535.63	1075.94
535.98	1084.60
536.34	1096.54
536.69	1088.58
537.05	1080.39
537.41	1088.12
537.76	1091.39
538.12	1081.09
538.47	1093.50
538.83	1102.16
539.18	1100.29
539.54	1103.33
539.89	1104.97
540.25	1093.97
540.60	1092.80
540.96	1093.50
541.31	1092.33
541.67	1091.63
542.02	1098.18
542.38	1097.71
542.73	1098.18
543.09	1095.60
543.44	1103.09
543.80	1100.99
544.15	1097.71
544.51	1095.84
544.86	1091.86
545.22	1090.69
545.57	1083.67
545.93	1089.29
546.28	1092.33
546.64	1094.67
546.99	1094.67
547.35	1099.82
547.70	1097.24
548.05	1090.46
548.41	1091.39
548.76	1093.26
549.12	1103.09
549.47	1103.80
549.83	1100.29
550.18	1093.97
550.53	1092.80
550.89	1080.39
551.24	1082.26
551.60	1090.69
551.95	1098.18
552.30	1099.58
552.66	1106.37
553.01	1104.73
553.37	1098.65
553.72	1099.35
554.07	1094.90
554.43	1094.90
554.78	1085.07
555.13	1087.65
555.49	1086.24
555.84	1088.82
556.19	1091.63
556.55	1097.01
556.90	1092.80
557.26	1088.12
557.61	1079.22
557.96	1071.73
558.32	1064.48
558.67	1068.69
559.02	1062.60
559.37	1064.01
559.73	1060.03
560.08	1063.31
560.43	1056.75
560.79	1054.18
561.14	1060.50
561.49	1069.86
561.85	1078.75
562.20	1080.63
562.55	1089.75
562.90	1090.69
563.26	1085.54
563.61	1072.90
563.96	1082.73
564.32	1083.20
564.67	1074.07
565.02	1084.60
565.37	1089.29
565.73	1082.26
566.08	1081.80
566.43	1086.71
566.78	1081.80
567.14	1083.67
567.49	1088.12
567.84	1084.37
568.19	1076.41
568.54	1082.03
568.90	1088.35
569.25	1077.11
569.60	1080.63
569.95	1081.09
570.31	1078.52
570.66	1079.92
571.01	1084.84
571.36	1078.75
571.71	1088.82
572.06	1089.52
572.42	1083.90
572.77	1080.63
573.12	1080.86
573.47	1075.94
573.82	1066.11
574.18	1059.09
574.53	1061.20
574.88	1071.73
575.23	1076.88
575.58	1078.75
575.93	1085.31
576.28	1087.88
576.64	1083.20
576.99	1079.46
577.34	1073.37
577.69	1076.65
578.04	1081.33
578.39	1078.28
578.74	1076.41
579.09	1078.75
579.44	1078.52
579.80	1071.50
580.15	1079.46
580.50	1083.67
580.85	1086.24
581.20	1084.37
581.55	1087.18
581.90	1080.16
582.25	1081.33
582.60	1084.37
582.95	1086.94
583.30	1085.54
583.65	1091.16
584.00	1091.39
584.35	1096.31
584.71	1093.03
585.06	1093.26
585.41	1090.46
585.76	1090.46
586.11	1089.52
586.46	1085.31
586.81	1076.88
587.16	1076.88
587.51	1077.58
587.86	1079.92
588.21	1084.84
588.56	1094.90
588.91	1092.80
589.26	1085.31
589.61	1073.37
589.96	1075.24
590.31	1081.56
590.66	1082.50
591.01	1088.82
591.36	1093.73
591.71	1086.94
592.06	1082.03
592.41	1078.52
592.76	1083.20
593.10	1086.24
593.45	1090.69
593.80	1088.58
594.15	1075.71
594.50	1072.90
594.85	1072.90
595.20	1076.65
595.55	1080.39
595.90	1094.90
596.25	1092.80
596.60	1086.24
596.95	1086.24
597.30	1086.01
597.64	1147.56
597.99	1144.05
598.34	1146.39
598.69	1138.90
599.04	1127.44
599.39	1068.92
599.74	1074.77
600.09	1076.65
600.44	1086.01
600.78	1091.39
601.13	1085.77
601.48	1078.28
601.83	1072.67
602.18	1061.43
602.53	1059.33
602.88	1064.94
603.22	1067.75
603.57	1066.11
603.92	1068.69
604.27	1068.69
604.62	1062.60
604.97	1064.48
605.31	1072.90
605.66	1070.56
606.01	1080.39
606.36	1080.86
606.71	1082.26
607.05	1085.77
607.40	1092.80
607.75	1093.26
608.10	1103.09
608.44	1105.67
608.79	1104.97
609.14	1101.46
609.49	1093.97
609.84	1092.56
610.18	1096.31
610.53	1098.18
610.88	1100.99
611.23	1110.82
611.57	1107.78
611.92	1096.07
612.27	1095.37
612.62	1080.63
612.96	1068.22
613.31	1064.01
613.66	1072.90
614.00	1061.43
614.35	1073.37
614.70	1074.31
615.05	1077.11
615.39	1067.52
615.74	1076.65
616.09	1076.41
616.43	1089.99
616.78	1089.75
617.13	1090.92
617.47	1081.80
617.82	1087.65
618.17	1082.03
618.51	1080.16
618.86	1090.92
619.21	1097.24
619.55	1087.41
619.90	1083.43
620.25	1083.67
620.59	1069.86
620.94	1073.37
621.29	1078.75
621.63	1082.97
621.98	1093.50
622.32	1098.41
622.67	1099.58
623.02	1101.69
623.36	1107.07
623.71	1090.46
624.05	1083.90
624.40	1077.11
624.75	1078.28
625.09	1070.09
625.44	1078.99
625.78	1078.99
626.13	1083.67
626.48	1078.52
626.82	1076.18
627.17	1073.14
627.51	1081.56
627.86	1081.09
628.20	1077.82
628.55	1071.97
628.89	1070.56
629.24	1072.67
629.58	1072.20
629.93	1078.28
630.28	1084.84
630.62	1095.37
630.97	1099.35
631.31	1104.03
631.66	1107.78
632.00	1106.84
632.35	1094.67
632.69	1088.12
633.04	1075.01
633.38	1074.31
633.73	1072.20
634.07	1076.88
634.42	1083.43
634.76	1093.03
635.11	1086.01
635.45	1081.56
635.79	1074.07
636.14	1070.09
636.48	1060.03
636.83	1053.94
637.17	1067.28
637.52	1071.26
637.86	1083.67
638.21	1091.63
638.55	1095.60
638.89	1094.67
639.24	1098.65
639.58	1081.80
639.93	1076.88
640.27	1084.60
640.61	1077.82
640.96	1078.28
641.30	1083.20
641.65	1086.24
641.99	1083.67
642.33	1086.48
642.68	1082.73
643.02	1074.54
643.37	1076.88
643.71	1073.60
644.05	1075.01
644.40	1076.65
644.74	1081.56
645.08	1086.71
645.43	1083.67
645.77	1079.69
646.11	1087.88
646.46	1087.65
646.80	1083.43
647.14	1089.99
647.49	1089.75
647.83	1086.71
648.17	1092.80
648.52	1091.16
648.86	1088.12
649.20	1093.03
649.55	1079.92
649.89	1064.01
650.23	1067.75
650.57	1074.07
650.92	1065.88
651.26	1073.84
651.60	1077.58
651.95	1078.75
652.29	1081.33
652.63	1081.33
652.97	1083.67
653.32	1095.14
653.66	1086.71
654.00	1083.90
654.34	1085.77
654.69	1085.77
655.03	1075.94
655.37	1083.90
655.71	1076.88
656.05	1075.94
656.40	1068.22
656.74	1069.86
657.08	1068.45
657.42	1069.62
657.76	1071.26
658.11	1079.22
658.45	1082.97
658.79	1085.54
659.13	1087.88
659.47	1084.60
659.82	1082.50
660.16	1080.39
660.50	1073.37
660.84	1078.75
661.18	1084.84
661.52	1089.05
661.87	1081.56
662.21	1081.56
662.55	1071.03
662.89	1073.84
663.23	1075.24
663.57	1077.11
663.91	1077.11
664.25	1076.18
664.60	1071.03
664.94	1067.05
665.28	1066.35
665.62	1060.03
665.96	1063.07
666.30	1066.35
666.64	1075.01
666.98	1081.33
667.32	1093.26
667.66	1095.37
668.01	1097.24
668.35	1076.18
668.69	1070.09
669.03	1067.75
669.37	1066.58
669.71	1068.22
670.05	1081.09
670.39	1084.37
670.73	1085.31
671.07	1086.71
671.41	1081.80
671.75	1078.99
672.09	1079.22
672.43	1078.05
672.77	1078.75
673.11	1074.77
673.45	1068.69
673.79	1072.90
674.13	1069.16
674.47	1065.65
674.81	1063.31
675.15	1068.22
675.49	1072.43
675.83	1082.03
676.17	1080.16
676.51	1090.22
676.85	1096.54
677.19	1091.39
677.53	1092.33
677.87	1103.33
678.21	1100.29
678.55	1087.41
678.89	1090.92
679.23	1081.09
679.57	1073.14
679.90	1064.94
680.24	1069.39
680.58	1064.01
680.92	1063.07
681.26	1063.54
681.60	1066.82
681.94	1065.41
682.28	1067.75
682.62	1064.71
682.96	1061.67
683.29	1070.33
683.63	1078.05
683.97	1080.39
684.31	1087.41
684.65	1097.48
684.99	1090.22
685.33	1093.50
685.67	1086.01
686.00	1078.52
686.34	1077.58
686.68	1078.05
687.02	1074.54
687.36	1070.80
687.70	1066.82
688.03	1065.18
688.37	1076.18
688.71	1068.22
689.05	1064.24
689.39	1078.99
689.72	1068.69
690.06	1057.69
690.40	1063.07
690.74	1083.43
691.08	1084.37
691.41	1093.50
691.75	1090.69
692.09	1093.73
692.43	1081.09
692.76	1065.65
693.10	1061.90
693.44	1072.20
693.78	1071.50
694.11	1081.33
694.45	1092.09
694.79	1090.92
695.13	1084.37
695.46	1087.18
695.80	1079.92
696.14	1076.18
696.48	1082.26
696.81	1084.60
697.15	1088.58
697.49	1087.65
697.82	1081.80
698.16	1078.99
698.50	1075.71
698.83	1067.75
699.17	1069.16
699.51	1069.86
699.84	1071.97
700.18	1068.45
700.52	1070.09
700.85	1075.48
701.19	1079.69
701.53	1078.05
701.86	1077.58
702.20	1072.67
702.54	1063.07
702.87	1063.77
703.21	1072.67
703.55	1088.12
703.88	1092.56
704.22	1099.58
704.55	1097.48
704.89	1077.58
705.23	1068.69
705.56	1064.24
705.90	1063.07
706.23	1049.96
706.57	1057.45
706.91	1058.86
707.24	1064.94
707.58	1065.65
707.91	1084.37
708.25	1081.80
708.58	1075.24
708.92	1067.05
709.26	1059.56
709.59	1055.11
709.93	1057.45
710.26	1066.11
710.60	1072.20
710.93	1076.65
711.27	1074.07
711.60	1072.67
711.94	1070.80
712.27	1078.99
712.61	1083.90
712.94	1090.22
713.28	1086.01
713.61	1080.63
713.95	1070.80
714.28	1067.99
714.62	1071.97
714.95	1074.54
715.29	1065.41
715.62	1060.96
715.96	1059.79
716.29	1058.39
716.63	1059.79
716.96	1073.37
717.29	1084.60
717.63	1082.73
717.96	1080.16
718.30	1084.14
718.63	1081.80
718.97	1073.60
719.30	1083.90
719.63	1081.09
719.97	1076.41
720.30	1078.75
720.64	1074.54
720.97	1061.67
721.30	1061.67
721.64	1067.52
721.97	1068.92
722.31	1071.03
722.64	1071.73
722.97	1076.65
723.31	1074.07
723.64	1082.73
723.97	1089.05
724.31	1094.90
724.64	1099.82
724.98	1111.52
725.31	1104.97
725.64	1098.65
725.98	1088.35
726.31	1082.50
726.64	1074.31
726.97	1070.09
727.31	1079.46
727.64	1093.03
727.97	1087.88
728.31	1088.12
728.64	1084.60
728.97	1070.80
729.31	1073.84
729.64	1068.92
729.97	1065.88
730.30	1062.84
730.64	1064.48
730.97	1062.84
731.30	1070.33
731.63	1079.22
731.97	1091.86
732.30	1103.33
732.63	1100.75
732.96	1094.90
733.30	1084.37
733.63	1074.31
733.96	1072.67
734.29	1069.39
734.63	1072.67
734.96	1082.26
735.29	1075.94
735.62	1077.82
735.95	1079.22
736.29	1075.48
736.62	1065.88
736.95	1071.73
737.28	1068.22
737.61	1060.73
737.94	1070.80
738.28	1078.05
738.61	1078.28
738.94	1080.86
739.27	1090.22
739.60	1089.75
739.93	1075.24
740.27	1073.37
740.60	1073.60
740.93	1078.05
741.26	1073.60
741.59	1079.92
741.92	1089.29
742.25	1084.37
742.58	1071.97
742.91	1079.69
743.25	1084.60
743.58	1071.50
743.91	1079.69
744.24	1081.80
744.57	1082.26
744.90	1079.46
745.23	1085.31
745.56	1075.01
745.89	1072.67
746.22	1067.99
746.55	1075.94
746.88	1078.52
747.21	1078.75
747.54	1076.65
747.87	1078.52
748.20	1075.94
748.53	1077.11
748.87	1086.94
749.20	1096.07
749.53	1089.75
749.86	1078.52
750.19	1077.82
750.52	1075.48
750.85	1076.65
751.18	1081.56
751.51	1092.56
751.84	1089.99
752.16	1086.24
752.49	1087.65
752.82	1093.73
753.15	1087.88
753.48	1097.01
753.81	1096.31
754.14	1089.75
754.47	1083.67
754.80	1094.90
755.13	1087.65
755.46	1081.33
755.79	1078.05
756.12	1083.90
756.45	1072.43
756.78	1070.09
757.11	1069.39
757.43	1077.58
757.76	1065.88
758.09	1078.05
758.42	1086.01
758.75	1084.37
759.08	1074.54
759.41	1079.22
759.74	1068.69
760.07	1058.16
760.39	1070.56
760.72	1074.77
761.05	1072.67
761.38	1074.77
761.71	1080.86
762.04	1076.18
762.36	1083.20
762.69	1078.52
763.02	1071.26
763.35	1078.52
763.68	1083.43
764.01	1075.94
764.33	1076.18
764.66	1078.75
764.99	1060.26
765.32	1058.86
765.65	1064.24
765.97	1070.09
766.30	1071.73
