SpectraSuite Data File
++++++++++++++++++++++++++++++++++++
Date: Mon Aug 26 10:25:54 PDT 2019
User: corrico
Dark Spectrum Present: No
Reference Spectrum Present: No
Number of Sampled Component Spectra: 1
Spectrometers: USB2+H06089
Integration Time (usec): 10000 (USB2+H06089)
Spectra Averaged: 2 (USB2+H06089)
Boxcar Smoothing: 2 (USB2+H06089)
Correct for Electrical Dark: No (USB2+H06089)
Strobe/Lamp Enabled: No (USB2+H06089)
Correct for Detector Non-linearity: No (USB2+H06089)
Correct for Stray Light: No (USB2+H06089)
Number of Pixels in Processed Spectrum: 2048
>>>>>Begin Processed Spectral Data<<<<<
339.70	1040.37
340.07	1040.37
340.45	1001.28
340.82	972.49
341.19	947.68
341.57	924.75
341.94	917.26
342.31	924.51
342.69	925.45
343.06	931.53
343.43	930.36
343.81	909.53
344.18	910.47
344.55	907.89
344.93	896.19
345.30	899.94
345.67	928.72
346.04	930.83
346.42	940.66
346.79	957.05
347.16	976.71
347.54	977.88
347.91	984.20
348.28	997.77
348.65	1005.73
349.03	998.24
349.40	1000.34
349.77	1012.98
350.14	1020.47
350.52	1026.09
350.89	1030.77
351.26	1048.33
351.63	1057.45
352.01	1054.41
352.38	1053.01
352.75	1062.60
353.12	1058.86
353.50	1048.79
353.87	1060.73
354.24	1078.75
354.61	1080.86
354.98	1089.52
355.36	1098.18
355.73	1100.99
356.10	1093.50
356.47	1096.07
356.84	1090.46
357.22	1089.29
357.59	1085.07
357.96	1089.99
358.33	1085.77
358.70	1089.52
359.08	1088.35
359.45	1088.58
359.82	1076.41
360.19	1076.88
360.56	1060.50
360.94	1069.39
361.31	1067.99
361.68	1071.50
362.05	1076.41
362.42	1089.75
362.79	1089.99
363.16	1099.35
363.54	1095.60
363.91	1094.20
364.28	1077.58
364.65	1067.28
365.02	1055.11
365.39	1057.45
365.76	1050.20
366.14	1063.31
366.51	1069.16
366.88	1067.28
367.25	1071.97
367.62	1075.48
367.99	1064.94
368.36	1052.30
368.73	1053.24
369.10	1051.37
369.48	1054.41
369.85	1054.41
370.22	1070.56
370.59	1078.75
370.96	1078.75
371.33	1071.50
371.70	1079.22
372.07	1066.11
372.44	1062.14
372.81	1057.69
373.18	1064.24
373.55	1072.20
373.93	1078.05
374.30	1075.24
374.67	1074.31
375.04	1075.01
375.41	1063.07
375.78	1062.60
376.15	1073.37
376.52	1076.18
376.89	1077.58
377.26	1086.01
377.63	1096.31
378.00	1088.12
378.37	1082.97
378.74	1074.31
379.11	1073.60
379.48	1060.96
379.85	1061.43
380.22	1067.99
380.59	1071.50
380.96	1070.09
381.33	1066.35
381.70	1063.31
382.07	1058.39
382.44	1055.35
382.81	1059.09
383.18	1076.18
383.55	1071.73
383.92	1084.37
384.29	1089.52
384.66	1080.86
385.03	1071.97
385.40	1076.18
385.77	1068.92
386.14	1061.43
386.51	1065.18
386.88	1060.73
387.25	1055.35
387.62	1046.92
387.99	1065.41
388.36	1075.94
388.73	1080.63
389.10	1088.12
389.46	1096.54
389.83	1082.03
390.20	1076.88
390.57	1080.16
390.94	1089.99
391.31	1090.46
391.68	1091.39
392.05	1085.54
392.42	1076.88
392.79	1069.86
393.16	1078.05
393.53	1080.63
393.89	1084.60
394.26	1084.60
394.63	1086.48
395.00	1077.58
395.37	1073.84
395.74	1063.31
396.11	1059.79
396.48	1058.39
396.84	1060.96
397.21	1074.31
397.58	1093.50
397.95	1101.92
398.32	1101.92
398.69	1101.22
399.06	1089.29
399.42	1088.58
399.79	1083.90
400.16	1083.43
400.53	1081.09
400.90	1087.65
401.27	1079.22
401.64	1082.97
402.00	1084.14
402.37	1087.41
402.74	1077.82
403.11	1072.67
403.48	1073.37
403.84	1074.77
404.21	1075.71
404.58	1083.90
404.95	1088.58
405.32	1089.52
405.68	1091.16
406.05	1085.54
406.42	1084.84
406.79	1073.84
407.16	1067.75
407.52	1058.16
407.89	1060.50
408.26	1053.01
408.63	1068.22
408.99	1066.11
409.36	1062.14
409.73	1059.56
410.10	1064.01
410.47	1055.58
410.83	1060.26
411.20	1064.71
411.57	1064.01
411.94	1063.54
412.30	1068.22
412.67	1071.73
413.04	1070.09
413.40	1075.01
413.77	1075.48
414.14	1074.77
414.51	1075.94
414.87	1078.75
415.24	1077.11
415.61	1062.60
415.97	1073.14
416.34	1072.67
416.71	1068.92
417.08	1069.62
417.44	1086.94
417.81	1088.82
418.18	1087.41
418.54	1088.35
418.91	1085.07
419.28	1081.80
419.64	1063.31
420.01	1069.62
420.38	1068.45
420.74	1072.43
421.11	1070.80
421.48	1070.33
421.84	1066.35
422.21	1064.71
422.58	1061.90
422.94	1060.96
423.31	1066.11
423.68	1063.54
424.04	1068.22
424.41	1076.88
424.77	1081.33
425.14	1074.54
425.51	1079.92
425.87	1087.18
426.24	1077.11
426.61	1078.28
426.97	1085.54
427.34	1085.77
427.70	1072.90
428.07	1075.48
428.44	1064.48
428.80	1069.86
429.17	1063.31
429.53	1071.03
429.90	1071.26
430.27	1078.75
430.63	1072.90
431.00	1078.28
431.36	1078.05
431.73	1078.28
432.09	1083.43
432.46	1086.94
432.83	1078.75
433.19	1089.05
433.56	1082.03
433.92	1076.18
434.29	1070.33
434.65	1069.62
435.02	1063.77
435.38	1081.09
435.75	1085.77
436.11	1087.65
436.48	1106.14
436.84	1105.20
437.21	1099.12
437.57	1094.43
437.94	1095.14
438.30	1077.82
438.67	1073.37
439.03	1077.35
439.40	1086.94
439.76	1089.05
440.13	1093.03
440.49	1091.86
440.86	1089.75
441.22	1084.84
441.59	1085.54
441.95	1090.69
442.32	1089.05
442.68	1091.86
443.05	1084.60
443.41	1077.58
443.78	1068.92
444.14	1069.16
444.51	1060.26
444.87	1071.73
445.24	1078.99
445.60	1077.82
445.96	1075.71
446.33	1075.24
446.69	1072.43
447.06	1068.69
447.42	1079.69
447.79	1094.90
448.15	1097.48
448.51	1095.14
448.88	1090.46
449.24	1080.63
449.61	1074.07
449.97	1068.69
450.33	1061.43
450.70	1063.31
451.06	1067.05
451.43	1066.11
451.79	1068.92
452.15	1077.11
452.52	1082.97
452.88	1076.41
453.24	1071.97
453.61	1084.14
453.97	1089.52
454.34	1089.99
454.70	1097.71
455.06	1098.65
455.43	1082.97
455.79	1070.09
456.15	1063.54
456.52	1063.77
456.88	1067.99
457.24	1079.92
457.61	1086.01
457.97	1097.48
458.33	1104.26
458.70	1102.86
459.06	1093.50
459.42	1098.65
459.79	1093.73
460.15	1081.80
460.51	1082.26
460.88	1093.50
461.24	1090.46
461.60	1089.05
461.96	1083.20
462.33	1078.75
462.69	1071.26
463.05	1070.09
463.42	1068.69
463.78	1073.60
464.14	1076.18
464.50	1077.35
464.87	1078.05
465.23	1077.35
465.59	1080.86
465.95	1082.97
466.32	1086.01
466.68	1081.33
467.04	1083.43
467.40	1085.31
467.77	1086.24
468.13	1084.14
468.49	1083.90
468.85	1083.43
469.22	1088.12
469.58	1086.24
469.94	1090.46
470.30	1088.35
470.66	1088.12
471.03	1090.69
471.39	1095.14
471.75	1090.69
472.11	1106.14
472.47	1104.26
472.84	1097.48
473.20	1085.31
473.56	1087.41
473.92	1068.45
474.28	1069.39
474.65	1067.75
475.01	1079.69
475.37	1073.14
475.73	1079.46
476.09	1069.39
476.45	1071.50
476.81	1054.18
477.18	1059.79
477.54	1059.09
477.90	1076.18
478.26	1070.80
478.62	1091.63
478.98	1087.88
479.34	1093.50
479.71	1083.67
480.07	1085.54
480.43	1083.20
480.79	1074.77
481.15	1077.11
481.51	1086.71
481.87	1091.86
482.23	1077.58
482.59	1085.54
482.96	1075.24
483.32	1081.09
483.68	1073.37
484.04	1091.86
484.40	1098.65
484.76	1104.50
485.12	1091.86
485.48	1088.12
485.84	1076.41
486.20	1066.58
486.56	1059.09
486.92	1058.16
487.28	1065.65
487.64	1067.75
488.00	1069.39
488.37	1076.41
488.73	1066.82
489.09	1059.79
489.45	1050.90
489.81	1051.37
490.17	1052.07
490.53	1062.60
490.89	1067.99
491.25	1078.52
491.61	1078.75
491.97	1078.05
492.33	1084.37
492.69	1089.99
493.05	1097.24
493.41	1091.86
493.77	1095.37
494.13	1091.39
494.49	1080.16
494.85	1075.24
495.21	1077.82
495.57	1069.62
495.93	1072.20
496.29	1073.14
496.64	1064.48
497.00	1064.24
497.36	1068.22
497.72	1056.05
498.08	1060.96
498.44	1064.71
498.80	1069.16
499.16	1071.26
499.52	1087.88
499.88	1094.67
500.24	1095.84
500.60	1105.44
500.96	1098.88
501.32	1096.54
501.68	1091.16
502.03	1086.94
502.39	1081.09
502.75	1089.99
503.11	1085.07
503.47	1088.12
503.83	1087.18
504.19	1081.80
504.55	1076.18
504.91	1093.50
505.26	1090.69
505.62	1092.33
505.98	1090.92
506.34	1093.03
506.70	1075.48
507.06	1075.24
507.42	1076.41
507.78	1089.75
508.13	1097.71
508.49	1091.63
508.85	1092.80
509.21	1091.86
509.57	1086.94
509.93	1075.94
510.28	1078.99
510.64	1079.22
511.00	1079.22
511.36	1077.11
511.72	1083.20
512.07	1089.05
512.43	1088.82
512.79	1102.86
513.15	1102.39
513.51	1097.71
513.86	1099.58
514.22	1099.82
514.58	1086.24
514.94	1087.65
515.30	1093.50
515.65	1092.80
516.01	1095.37
516.37	1101.92
516.73	1095.84
517.08	1085.54
517.44	1085.31
517.80	1085.31
518.16	1077.11
518.51	1070.80
518.87	1073.60
519.23	1072.90
519.59	1073.84
519.94	1079.22
520.30	1089.52
520.66	1096.07
521.01	1097.95
521.37	1098.18
521.73	1099.82
522.09	1095.60
522.44	1094.67
522.80	1089.05
523.16	1088.58
523.51	1096.78
523.87	1104.97
524.23	1100.52
524.58	1102.39
524.94	1099.12
525.30	1083.20
525.65	1081.80
526.01	1082.26
526.37	1087.88
526.72	1089.05
527.08	1100.52
527.44	1106.14
527.79	1109.88
528.15	1101.46
528.51	1109.88
528.86	1108.24
529.22	1091.63
529.58	1089.29
529.93	1097.01
530.29	1086.48
530.65	1089.05
531.00	1096.07
531.36	1099.35
531.71	1101.92
532.07	1101.46
532.43	1108.48
532.78	1107.54
533.14	1116.44
533.49	1113.63
533.85	1112.69
534.21	1098.88
534.56	1102.86
534.92	1089.29
535.27	1090.22
535.63	1091.63
535.98	1103.80
536.34	1104.26
536.69	1105.67
537.05	1093.50
537.41	1096.07
537.76	1086.24
538.12	1079.69
538.47	1082.26
538.83	1089.75
539.18	1084.84
539.54	1089.29
539.89	1090.22
540.25	1086.24
540.60	1093.26
540.96	1100.29
541.31	1092.33
541.67	1098.41
542.02	1100.99
542.38	1093.73
542.73	1086.71
543.09	1093.50
543.44	1100.75
543.80	1102.86
544.15	1106.14
544.51	1107.54
544.86	1097.01
545.22	1091.63
545.57	1093.50
545.93	1084.84
546.28	1092.80
546.64	1093.73
546.99	1097.24
547.35	1090.92
547.70	1096.78
548.05	1097.71
548.41	1103.56
548.76	1096.78
549.12	1106.37
549.47	1104.26
549.83	1099.58
550.18	1095.84
550.53	1096.78
550.89	1082.97
551.24	1081.56
551.60	1079.92
551.95	1080.39
552.30	1075.48
552.66	1075.01
553.01	1079.69
553.37	1078.52
553.72	1079.69
554.07	1084.60
554.43	1092.56
554.78	1094.90
555.13	1088.12
555.49	1084.14
555.84	1088.82
556.19	1092.56
556.55	1093.97
556.90	1102.63
557.26	1102.63
557.61	1090.92
557.96	1090.92
558.32	1081.56
558.67	1074.07
559.02	1081.33
559.37	1086.71
559.73	1080.86
560.08	1080.16
560.43	1086.48
560.79	1075.01
561.14	1065.65
561.49	1064.01
561.85	1070.80
562.20	1068.45
562.55	1073.84
562.90	1083.20
563.26	1093.26
563.61	1085.31
563.96	1086.94
564.32	1087.41
564.67	1079.46
565.02	1068.69
565.37	1069.62
565.73	1073.60
566.08	1079.46
566.43	1086.48
566.78	1091.39
567.14	1102.86
567.49	1090.92
567.84	1087.88
568.19	1086.94
568.54	1070.80
568.90	1061.67
569.25	1061.90
569.60	1056.28
569.95	1066.11
570.31	1079.69
570.66	1082.73
571.01	1091.16
571.36	1096.07
571.71	1087.65
572.06	1078.52
572.42	1067.99
572.77	1066.11
573.12	1063.07
573.47	1057.92
573.82	1062.84
574.18	1075.71
574.53	1083.67
574.88	1086.24
575.23	1088.58
575.58	1098.65
575.93	1096.54
576.28	1096.78
576.64	1092.09
576.99	1102.39
577.34	1097.24
577.69	1094.20
578.04	1084.37
578.39	1088.58
578.74	1078.99
579.09	1077.35
579.44	1078.75
579.80	1083.67
580.15	1084.14
580.50	1085.77
580.85	1084.84
581.20	1088.82
581.55	1087.88
581.90	1085.54
582.25	1086.24
582.60	1082.97
582.95	1080.16
583.30	1083.43
583.65	1087.88
584.00	1086.48
584.35	1090.69
584.71	1081.80
585.06	1074.31
585.41	1072.90
585.76	1080.86
586.11	1080.39
586.46	1076.88
586.81	1076.65
587.16	1068.92
587.51	1060.73
587.86	1055.35
588.21	1075.94
588.56	1084.60
588.91	1100.29
589.26	1097.71
589.61	1097.01
589.96	1090.22
590.31	1093.03
590.66	1079.46
591.01	1072.43
591.36	1077.82
591.71	1074.31
592.06	1060.26
592.41	1065.18
592.76	1071.03
593.10	1071.03
593.45	1074.31
593.80	1072.90
594.15	1073.60
594.50	1080.86
594.85	1076.41
595.20	1058.86
595.55	1077.35
595.90	1090.69
596.25	1089.52
596.60	1093.97
596.95	1095.14
597.30	1083.67
597.64	1126.03
597.99	1125.10
598.34	1122.99
598.69	1131.41
599.04	1131.88
599.39	1079.92
599.74	1080.39
600.09	1079.46
600.44	1091.16
600.78	1089.29
601.13	1088.58
601.48	1092.33
601.83	1095.60
602.18	1084.37
602.53	1088.35
602.88	1084.60
603.22	1087.41
603.57	1092.56
603.92	1093.50
604.27	1084.60
604.62	1082.26
604.97	1070.80
605.31	1071.97
605.66	1077.11
606.01	1088.35
606.36	1082.97
606.71	1080.63
607.05	1078.28
607.40	1077.11
607.75	1070.09
608.10	1082.03
608.44	1088.12
608.79	1087.18
609.14	1087.65
609.49	1088.82
609.84	1084.37
610.18	1079.46
610.53	1078.99
610.88	1083.43
611.23	1084.37
611.57	1089.52
611.92	1087.88
612.27	1083.67
612.62	1078.75
612.96	1076.65
613.31	1072.90
613.66	1083.90
614.00	1085.77
614.35	1088.12
614.70	1089.05
615.05	1090.69
615.39	1078.99
615.74	1082.26
616.09	1078.75
616.43	1080.86
616.78	1079.22
617.13	1082.97
617.47	1078.28
617.82	1074.07
618.17	1072.20
618.51	1079.69
618.86	1074.77
619.21	1075.71
619.55	1083.20
619.90	1083.67
620.25	1080.16
620.59	1081.80
620.94	1077.58
621.29	1072.67
621.63	1076.88
621.98	1077.11
622.32	1087.65
622.67	1088.12
623.02	1092.56
623.36	1082.97
623.71	1078.52
624.05	1068.92
624.40	1072.90
624.75	1067.75
625.09	1065.18
625.44	1062.14
625.78	1062.14
626.13	1055.35
626.48	1058.16
626.82	1068.22
627.17	1071.73
627.51	1079.22
627.86	1078.99
628.20	1080.63
628.55	1078.99
628.89	1079.22
629.24	1064.01
629.58	1067.75
629.93	1070.56
630.28	1075.48
630.62	1068.92
630.97	1093.50
631.31	1107.07
631.66	1110.82
632.00	1107.07
632.35	1119.24
632.69	1112.22
633.04	1097.71
633.38	1091.63
633.73	1079.22
634.07	1072.90
634.42	1063.54
634.76	1068.45
635.11	1071.50
635.45	1072.43
635.79	1075.48
636.14	1075.24
636.48	1082.97
636.83	1072.20
637.17	1086.94
637.52	1073.60
637.86	1075.24
638.21	1071.50
638.55	1079.22
638.89	1069.39
639.24	1074.54
639.58	1078.99
639.93	1066.11
640.27	1056.99
640.61	1064.01
640.96	1067.75
641.30	1055.11
641.65	1057.45
641.99	1060.26
642.33	1050.43
642.68	1049.03
643.02	1065.18
643.37	1067.99
643.71	1070.33
644.05	1076.41
644.40	1074.07
644.74	1065.65
645.08	1067.75
645.43	1068.45
645.77	1076.41
646.11	1080.16
646.46	1085.07
646.80	1097.24
647.14	1102.16
647.49	1096.07
647.83	1092.09
648.17	1087.88
648.52	1087.88
648.86	1079.22
649.20	1080.16
649.55	1086.01
649.89	1092.33
650.23	1078.75
650.57	1070.33
650.92	1059.79
651.26	1064.48
651.60	1061.43
651.95	1059.79
652.29	1078.52
652.63	1081.80
652.97	1077.58
653.32	1070.09
653.66	1079.46
654.00	1067.75
654.34	1064.24
654.69	1065.18
655.03	1071.03
655.37	1063.31
655.71	1064.71
656.05	1069.86
656.40	1061.43
656.74	1056.75
657.08	1060.73
657.42	1075.48
657.76	1085.54
658.11	1092.56
658.45	1095.84
658.79	1089.75
659.13	1080.39
659.47	1078.99
659.82	1075.94
660.16	1075.01
660.50	1085.07
660.84	1084.37
661.18	1073.84
661.52	1076.18
661.87	1074.54
662.21	1067.05
662.55	1071.73
662.89	1086.24
663.23	1089.05
663.57	1094.20
663.91	1092.56
664.25	1089.29
664.60	1076.65
664.94	1063.31
665.28	1054.65
665.62	1064.71
665.96	1067.28
666.30	1063.31
666.64	1064.94
666.98	1076.18
667.32	1066.11
667.66	1056.75
668.01	1051.84
668.35	1061.20
668.69	1061.20
669.03	1064.71
669.37	1068.92
669.71	1077.82
670.05	1071.26
670.39	1065.65
670.73	1056.52
671.07	1047.16
671.41	1065.41
671.75	1063.77
672.09	1055.82
672.43	1061.20
672.77	1072.67
673.11	1051.37
673.45	1051.84
673.79	1069.86
674.13	1070.80
674.47	1067.28
674.81	1067.05
675.15	1064.71
675.49	1053.94
675.83	1060.50
676.17	1064.24
676.51	1062.60
676.85	1073.60
677.19	1069.16
677.53	1067.05
677.87	1061.67
678.21	1067.52
678.55	1067.52
678.89	1076.18
679.23	1067.05
679.57	1068.69
679.90	1072.20
680.24	1067.52
680.58	1069.39
680.92	1074.77
681.26	1076.88
681.60	1075.71
681.94	1073.14
682.28	1068.69
682.62	1082.03
682.96	1086.71
683.29	1077.82
683.63	1078.28
683.97	1071.26
684.31	1069.86
684.65	1069.62
684.99	1072.67
685.33	1089.75
685.67	1092.33
686.00	1081.56
686.34	1078.28
686.68	1085.31
687.02	1072.90
687.36	1074.07
687.70	1076.88
688.03	1067.75
688.37	1065.41
688.71	1061.20
689.05	1064.71
689.39	1070.33
689.72	1083.20
690.06	1083.90
690.40	1086.24
690.74	1090.69
691.08	1088.35
691.41	1084.37
691.75	1084.37
692.09	1086.71
692.43	1089.99
692.76	1074.07
693.10	1075.24
693.44	1082.26
693.78	1079.69
694.11	1076.65
694.45	1082.26
694.79	1075.01
695.13	1066.35
695.46	1072.20
695.80	1064.01
696.14	1066.82
696.48	1085.77
696.81	1089.29
697.15	1079.92
697.49	1091.39
697.82	1096.78
698.16	1074.77
698.50	1076.18
698.83	1086.71
699.17	1084.14
699.51	1080.39
699.84	1087.41
700.18	1075.94
700.52	1058.86
700.85	1053.48
701.19	1058.39
701.53	1064.94
701.86	1075.24
702.20	1101.92
702.54	1108.71
702.87	1108.24
703.21	1110.58
703.55	1114.10
703.88	1107.31
704.22	1107.07
704.55	1115.27
704.89	1104.73
705.23	1101.92
705.56	1097.24
705.90	1097.01
706.23	1083.43
706.57	1091.86
706.91	1084.60
707.24	1084.37
707.58	1078.75
707.91	1078.99
708.25	1074.31
708.58	1076.41
708.92	1076.88
709.26	1072.67
709.59	1080.63
709.93	1083.67
710.26	1084.14
710.60	1077.58
710.93	1093.97
711.27	1093.97
711.60	1092.33
711.94	1104.03
712.27	1110.82
712.61	1093.26
712.94	1087.88
713.28	1083.90
713.61	1084.84
713.95	1078.99
714.28	1084.37
714.62	1089.75
714.95	1096.31
715.29	1088.12
715.62	1091.16
715.96	1094.20
716.29	1082.26
716.63	1064.71
716.96	1060.50
717.29	1060.50
717.63	1058.39
717.96	1074.77
718.30	1084.84
718.63	1092.33
718.97	1092.33
719.30	1095.14
719.63	1091.63
719.97	1094.43
720.30	1088.35
720.64	1087.65
720.97	1079.69
721.30	1068.45
721.64	1066.11
721.97	1069.39
722.31	1082.03
722.64	1086.48
722.97	1086.94
723.31	1089.05
723.64	1087.18
723.97	1073.37
724.31	1079.92
724.64	1074.54
724.98	1080.39
725.31	1089.29
725.64	1092.80
725.98	1086.71
726.31	1100.05
726.64	1090.92
726.97	1081.33
727.31	1079.22
727.64	1076.65
727.97	1071.97
728.31	1076.88
728.64	1078.05
728.97	1081.33
729.31	1088.12
729.64	1082.26
729.97	1078.99
730.30	1075.24
730.64	1077.82
730.97	1074.07
731.30	1068.92
731.63	1072.90
731.97	1069.62
732.30	1059.09
732.63	1056.75
732.96	1070.33
733.30	1071.26
733.63	1073.37
733.96	1077.58
734.29	1070.56
734.63	1067.05
734.96	1060.26
735.29	1068.22
735.62	1065.65
735.95	1068.45
736.29	1062.14
736.62	1063.77
736.95	1064.24
737.28	1069.16
737.61	1085.31
737.94	1101.22
738.28	1107.78
738.61	1099.58
738.94	1095.37
739.27	1084.37
739.60	1077.35
739.93	1068.69
740.27	1065.18
740.60	1062.84
740.93	1060.73
741.26	1051.60
741.59	1065.88
741.92	1067.05
742.25	1071.26
742.58	1080.63
742.91	1087.41
743.25	1072.90
743.58	1080.16
743.91	1073.84
744.24	1059.79
744.57	1061.67
744.90	1066.11
745.23	1063.31
745.56	1067.52
745.89	1086.24
746.22	1089.75
746.55	1097.48
746.88	1093.73
747.21	1091.86
747.54	1080.86
747.87	1072.20
748.20	1063.07
748.53	1073.37
748.87	1069.86
749.20	1071.73
749.53	1071.03
749.86	1060.50
750.19	1047.16
750.52	1045.52
750.85	1043.88
751.18	1046.69
751.51	1052.77
751.84	1058.86
752.16	1064.24
752.49	1060.73
752.82	1064.94
753.15	1064.94
753.48	1066.58
753.81	1071.03
754.14	1071.26
754.47	1065.18
754.80	1068.69
755.13	1073.14
755.46	1067.75
755.79	1068.45
756.12	1087.88
756.45	1082.50
756.78	1085.31
757.11	1095.84
757.43	1092.56
757.76	1080.86
758.09	1083.20
758.42	1081.09
758.75	1075.48
759.08	1086.01
759.41	1084.84
759.74	1086.94
760.07	1085.54
760.39	1086.48
760.72	1080.86
761.05	1074.77
761.38	1074.77
761.71	1077.58
762.04	1079.46
762.36	1082.97
762.69	1084.84
763.02	1095.84
763.35	1089.99
763.68	1099.12
764.01	1106.37
764.33	1109.41
764.66	1103.80
764.99	1096.54
765.32	1074.54
765.65	1065.18
765.97	1062.37
766.30	1058.62
