SpectraSuite Data File
++++++++++++++++++++++++++++++++++++
Date: Mon Aug 26 10:25:51 PDT 2019
User: corrico
Dark Spectrum Present: No
Reference Spectrum Present: No
Number of Sampled Component Spectra: 1
Spectrometers: USB2+H06089
Integration Time (usec): 10000 (USB2+H06089)
Spectra Averaged: 2 (USB2+H06089)
Boxcar Smoothing: 2 (USB2+H06089)
Correct for Electrical Dark: No (USB2+H06089)
Strobe/Lamp Enabled: No (USB2+H06089)
Correct for Detector Non-linearity: No (USB2+H06089)
Correct for Stray Light: No (USB2+H06089)
Number of Pixels in Processed Spectrum: 2048
>>>>>Begin Processed Spectral Data<<<<<
339.70	1035.69
340.07	1035.69
340.45	996.83
340.82	982.09
341.19	953.30
341.57	930.60
341.94	928.49
342.31	924.04
342.69	913.28
343.06	913.04
343.43	900.40
343.81	895.72
344.18	888.70
344.55	887.77
344.93	904.62
345.30	910.47
345.67	915.15
346.04	926.85
346.42	936.68
346.79	932.70
347.16	942.53
347.54	947.21
347.91	953.53
348.28	965.94
348.65	978.58
349.03	1001.52
349.40	1020.24
349.77	1027.03
350.14	1033.35
350.52	1031.47
350.89	1037.09
351.26	1039.43
351.63	1047.16
352.01	1040.13
352.38	1057.22
352.75	1059.33
353.12	1058.16
353.50	1066.11
353.87	1081.09
354.24	1078.05
354.61	1071.26
354.98	1075.01
355.36	1076.88
355.73	1070.09
356.10	1077.11
356.47	1084.60
356.84	1098.65
357.22	1094.43
357.59	1100.29
357.96	1098.41
358.33	1103.09
358.70	1093.26
359.08	1101.22
359.45	1101.69
359.82	1097.24
360.19	1085.77
360.56	1087.65
360.94	1080.63
361.31	1085.54
361.68	1089.05
362.05	1077.35
362.42	1065.41
362.79	1062.37
363.16	1056.52
363.54	1045.99
363.91	1072.43
364.28	1074.31
364.65	1075.71
365.02	1077.35
365.39	1083.90
365.76	1072.20
366.14	1078.75
366.51	1076.41
366.88	1072.67
367.25	1064.01
367.62	1063.07
367.99	1062.84
368.36	1073.14
368.73	1077.58
369.10	1078.28
369.48	1077.82
369.85	1079.22
370.22	1064.94
370.59	1064.24
370.96	1077.35
371.33	1080.16
371.70	1071.26
372.07	1067.99
372.44	1056.28
372.81	1051.60
373.18	1048.79
373.55	1050.67
373.93	1057.22
374.30	1067.99
374.67	1063.77
375.04	1054.65
375.41	1062.84
375.78	1069.62
376.15	1069.39
376.52	1078.28
376.89	1090.92
377.26	1090.22
377.63	1087.41
378.00	1083.90
378.37	1072.90
378.74	1071.03
379.11	1072.20
379.48	1076.41
379.85	1078.28
380.22	1080.86
380.59	1079.22
380.96	1076.88
381.33	1075.48
381.70	1075.24
382.07	1075.48
382.44	1079.22
382.81	1067.75
383.18	1068.45
383.55	1063.31
383.92	1063.07
384.29	1056.05
384.66	1067.99
385.03	1071.26
385.40	1078.28
385.77	1080.39
386.14	1079.46
386.51	1078.99
386.88	1068.22
387.25	1063.77
387.62	1054.18
387.99	1061.90
388.36	1051.84
388.73	1048.79
389.10	1059.33
389.46	1076.88
389.83	1067.52
390.20	1072.90
390.57	1077.35
390.94	1069.62
391.31	1058.39
391.68	1067.05
392.05	1063.77
392.42	1062.37
392.79	1063.07
393.16	1067.05
393.53	1068.92
393.89	1067.05
394.26	1068.22
394.63	1063.77
395.00	1068.22
395.37	1062.84
395.74	1072.43
396.11	1067.05
396.48	1078.52
396.84	1065.65
397.21	1078.52
397.58	1077.82
397.95	1076.88
398.32	1066.82
398.69	1060.26
399.06	1044.11
399.42	1038.50
399.79	1041.77
400.16	1045.99
400.53	1054.88
400.90	1061.43
401.27	1063.77
401.64	1061.67
402.00	1054.88
402.37	1062.37
402.74	1062.60
403.11	1058.86
403.48	1055.82
403.84	1066.82
404.21	1064.94
404.58	1063.77
404.95	1069.86
405.32	1089.99
405.68	1087.88
406.05	1082.50
406.42	1078.28
406.79	1078.05
407.16	1069.62
407.52	1070.33
407.89	1083.67
408.26	1089.29
408.63	1092.80
408.99	1091.39
409.36	1086.94
409.73	1079.22
410.10	1088.35
410.47	1090.22
410.83	1096.54
411.20	1100.52
411.57	1094.90
411.94	1084.60
412.30	1079.22
412.67	1077.11
413.04	1079.69
413.40	1088.58
413.77	1082.73
414.14	1082.97
414.51	1076.18
414.87	1063.77
415.24	1060.96
415.61	1067.52
415.97	1067.52
416.34	1067.75
416.71	1069.62
417.08	1065.88
417.44	1059.33
417.81	1074.07
418.18	1077.35
418.54	1082.03
418.91	1077.11
419.28	1078.75
419.64	1059.33
420.01	1061.43
420.38	1058.62
420.74	1057.22
421.11	1057.92
421.48	1070.09
421.84	1064.01
422.21	1066.35
422.58	1070.33
422.94	1067.05
423.31	1061.90
423.68	1065.41
424.04	1059.33
424.41	1062.37
424.77	1073.84
425.14	1071.73
425.51	1070.09
425.87	1077.35
426.24	1084.14
426.61	1079.92
426.97	1082.26
427.34	1076.41
427.70	1070.80
428.07	1058.62
428.44	1058.86
428.80	1059.09
429.17	1062.37
429.53	1060.03
429.90	1070.33
430.27	1059.79
430.63	1050.90
431.00	1052.30
431.36	1055.82
431.73	1044.35
432.09	1058.62
432.46	1068.22
432.83	1071.73
433.19	1078.28
433.56	1087.88
433.92	1084.84
434.29	1082.26
434.65	1083.43
435.02	1082.97
435.38	1084.37
435.75	1082.97
436.11	1079.46
436.48	1087.41
436.84	1080.63
437.21	1072.20
437.57	1065.65
437.94	1063.54
438.30	1056.28
438.67	1056.75
439.03	1069.16
439.40	1070.09
439.76	1076.65
440.13	1077.35
440.49	1089.05
440.86	1084.37
441.22	1094.67
441.59	1102.86
441.95	1102.39
442.32	1088.35
442.68	1088.58
443.05	1081.56
443.41	1074.07
443.78	1071.50
444.14	1081.09
444.51	1078.52
444.87	1079.92
445.24	1080.16
445.60	1082.73
445.96	1074.77
446.33	1075.48
446.69	1077.11
447.06	1066.35
447.42	1066.35
447.79	1073.60
448.15	1073.84
448.51	1075.24
448.88	1083.20
449.24	1082.26
449.61	1085.54
449.97	1079.22
450.33	1078.05
450.70	1087.18
451.06	1084.60
451.43	1072.20
451.79	1074.77
452.15	1063.77
452.52	1050.20
452.88	1049.03
453.24	1054.88
453.61	1058.39
453.97	1066.11
454.34	1067.05
454.70	1073.14
455.06	1070.33
455.43	1067.05
455.79	1071.26
456.15	1074.77
456.52	1073.37
456.88	1076.65
457.24	1079.92
457.61	1084.37
457.97	1088.35
458.33	1082.26
458.70	1084.14
459.06	1089.75
459.42	1081.80
459.79	1088.35
460.15	1097.01
460.51	1098.65
460.88	1089.99
461.24	1094.90
461.60	1086.24
461.96	1078.28
462.33	1081.09
462.69	1084.37
463.05	1088.12
463.42	1088.12
463.78	1092.80
464.14	1091.63
464.50	1095.37
464.87	1092.80
465.23	1100.05
465.59	1107.54
465.95	1111.52
466.32	1103.09
466.68	1096.07
467.04	1094.67
467.40	1081.80
467.77	1077.35
468.13	1085.77
468.49	1085.31
468.85	1074.07
469.22	1085.07
469.58	1086.71
469.94	1084.37
470.30	1081.56
470.66	1096.07
471.03	1088.58
471.39	1084.37
471.75	1081.56
472.11	1084.14
472.47	1075.24
472.84	1073.84
473.20	1071.50
473.56	1079.69
473.92	1081.80
474.28	1089.52
474.65	1088.58
475.01	1087.65
475.37	1081.33
475.73	1077.58
476.09	1075.48
476.45	1081.33
476.81	1086.48
477.18	1082.50
477.54	1091.39
477.90	1090.69
478.26	1089.29
478.62	1086.24
478.98	1092.33
479.34	1093.03
479.71	1079.22
480.07	1082.50
480.43	1086.48
480.79	1082.26
481.15	1078.75
481.51	1091.63
481.87	1082.97
482.23	1072.90
482.59	1077.82
482.96	1073.84
483.32	1054.88
483.68	1055.58
484.04	1060.96
484.40	1054.41
484.76	1062.84
485.12	1080.86
485.48	1080.39
485.84	1081.80
486.20	1084.37
486.56	1082.97
486.92	1078.05
487.28	1089.05
487.64	1089.05
488.00	1093.50
488.37	1090.92
488.73	1094.67
489.09	1096.31
489.45	1091.86
489.81	1093.97
490.17	1093.03
490.53	1098.18
490.89	1089.52
491.25	1091.86
491.61	1101.22
491.97	1094.90
492.33	1090.69
492.69	1089.29
493.05	1090.22
493.41	1077.58
493.77	1086.71
494.13	1081.33
494.49	1083.20
494.85	1076.88
495.21	1069.16
495.57	1068.45
495.93	1073.14
496.29	1071.97
496.64	1082.26
497.00	1094.90
497.36	1092.33
497.72	1097.71
498.08	1094.20
498.44	1097.71
498.80	1093.73
499.16	1087.18
499.52	1079.22
499.88	1085.31
500.24	1076.41
500.60	1070.80
500.96	1072.43
501.32	1078.28
501.68	1069.39
502.03	1068.45
502.39	1072.67
502.75	1075.48
503.11	1069.39
503.47	1076.18
503.83	1082.50
504.19	1085.07
504.55	1090.69
504.91	1096.07
505.26	1102.16
505.62	1097.71
505.98	1082.03
506.34	1081.09
506.70	1076.18
507.06	1080.16
507.42	1080.16
507.78	1092.09
508.13	1093.97
508.49	1104.03
508.85	1086.94
509.21	1080.86
509.57	1078.52
509.93	1070.80
510.28	1067.28
510.64	1080.39
511.00	1092.33
511.36	1100.52
511.72	1108.71
512.07	1104.97
512.43	1108.01
512.79	1103.56
513.15	1096.07
513.51	1092.09
513.86	1096.78
514.22	1096.07
514.58	1096.78
514.94	1100.75
515.30	1098.18
515.65	1086.24
516.01	1076.88
516.37	1083.67
516.73	1080.86
517.08	1083.67
517.44	1090.92
517.80	1093.97
518.16	1090.22
518.51	1088.82
518.87	1089.75
519.23	1081.09
519.59	1081.56
519.94	1080.16
520.30	1090.22
520.66	1087.41
521.01	1096.31
521.37	1097.01
521.73	1093.03
522.09	1086.71
522.44	1097.71
522.80	1102.16
523.16	1100.29
523.51	1106.61
523.87	1111.99
524.23	1109.18
524.58	1107.07
524.94	1107.54
525.30	1104.73
525.65	1101.69
526.01	1093.50
526.37	1088.58
526.72	1095.60
527.08	1094.90
527.44	1094.90
527.79	1098.88
528.15	1100.75
528.51	1093.97
528.86	1093.50
529.22	1089.75
529.58	1074.77
529.93	1069.62
530.29	1064.24
530.65	1066.11
531.00	1071.26
531.36	1081.33
531.71	1088.82
532.07	1092.80
532.43	1085.54
532.78	1082.26
533.14	1088.58
533.49	1092.56
533.85	1095.14
534.21	1112.22
534.56	1111.99
534.92	1111.29
535.27	1098.18
535.63	1097.71
535.98	1086.48
536.34	1089.29
536.69	1090.22
537.05	1093.73
537.41	1082.03
537.76	1074.31
538.12	1062.84
538.47	1049.73
538.83	1053.94
539.18	1063.07
539.54	1078.05
539.89	1084.84
540.25	1092.33
540.60	1094.67
540.96	1089.05
541.31	1084.84
541.67	1085.31
542.02	1079.46
542.38	1081.09
542.73	1094.67
543.09	1086.94
543.44	1092.09
543.80	1107.31
544.15	1099.58
544.51	1086.71
544.86	1083.43
545.22	1081.80
545.57	1077.11
545.93	1077.58
546.28	1089.75
546.64	1096.54
546.99	1096.78
547.35	1089.05
547.70	1097.95
548.05	1100.75
548.41	1097.95
548.76	1089.99
549.12	1095.60
549.47	1087.18
549.83	1067.52
550.18	1066.11
550.53	1076.65
550.89	1075.24
551.24	1074.31
551.60	1075.48
551.95	1072.43
552.30	1067.28
552.66	1070.56
553.01	1074.31
553.37	1086.71
553.72	1088.12
554.07	1092.56
554.43	1087.41
554.78	1085.54
555.13	1083.90
555.49	1092.56
555.84	1087.65
556.19	1089.75
556.55	1083.90
556.90	1082.26
557.26	1084.37
557.61	1086.94
557.96	1095.37
558.32	1097.01
558.67	1090.22
559.02	1078.05
559.37	1071.26
559.73	1068.69
560.08	1075.24
560.43	1088.35
560.79	1098.88
561.14	1098.41
561.49	1090.92
561.85	1089.75
562.20	1076.41
562.55	1076.41
562.90	1086.24
563.26	1085.31
563.61	1074.77
563.96	1084.60
564.32	1085.77
564.67	1076.41
565.02	1079.69
565.37	1086.71
565.73	1069.39
566.08	1057.45
566.43	1066.35
566.78	1066.58
567.14	1065.65
567.49	1079.69
567.84	1086.01
568.19	1080.86
568.54	1070.80
568.90	1070.56
569.25	1062.14
569.60	1060.96
569.95	1060.73
570.31	1079.22
570.66	1082.26
571.01	1093.26
571.36	1105.90
571.71	1101.22
572.06	1103.33
572.42	1097.95
572.77	1096.07
573.12	1094.43
573.47	1102.86
573.82	1086.24
574.18	1097.01
574.53	1102.86
574.88	1095.37
575.23	1091.39
575.58	1090.22
575.93	1083.20
576.28	1078.05
576.64	1079.69
576.99	1084.60
577.34	1094.67
577.69	1100.99
578.04	1105.90
578.39	1112.22
578.74	1107.07
579.09	1108.95
579.44	1106.14
579.80	1093.97
580.15	1089.75
580.50	1091.63
580.85	1084.84
581.20	1080.63
581.55	1090.46
581.90	1077.82
582.25	1064.94
582.60	1067.28
582.95	1068.69
583.30	1070.56
583.65	1073.84
584.00	1088.58
584.35	1088.35
584.71	1102.16
585.06	1093.26
585.41	1099.35
585.76	1096.07
586.11	1098.18
586.46	1077.11
586.81	1083.43
587.16	1073.14
587.51	1072.20
587.86	1071.03
588.21	1081.33
588.56	1070.56
588.91	1082.73
589.26	1073.60
589.61	1068.92
589.96	1060.73
590.31	1077.11
590.66	1074.31
591.01	1087.88
591.36	1096.07
591.71	1101.92
592.06	1087.18
592.41	1092.56
592.76	1086.71
593.10	1085.31
593.45	1075.48
593.80	1079.22
594.15	1073.14
594.50	1071.97
594.85	1061.43
595.20	1069.39
595.55	1078.28
595.90	1082.50
596.25	1078.05
596.60	1076.88
596.95	1068.92
597.30	1055.58
597.64	1095.60
597.99	1106.14
598.34	1116.67
598.69	1120.65
599.04	1129.31
599.39	1083.67
599.74	1080.39
600.09	1080.86
600.44	1088.12
600.78	1087.65
601.13	1093.26
601.48	1098.18
601.83	1092.09
602.18	1090.46
602.53	1088.58
602.88	1081.09
603.22	1082.03
603.57	1090.22
603.92	1089.99
604.27	1092.56
604.62	1097.24
604.97	1087.18
605.31	1079.92
605.66	1066.11
606.01	1066.35
606.36	1067.28
606.71	1076.65
607.05	1079.46
607.40	1095.37
607.75	1099.82
608.10	1104.73
608.44	1096.78
608.79	1094.90
609.14	1090.46
609.49	1088.82
609.84	1079.69
610.18	1078.05
610.53	1076.18
610.88	1088.12
611.23	1077.58
611.57	1085.07
611.92	1089.75
612.27	1093.26
612.62	1080.39
612.96	1078.52
613.31	1082.03
613.66	1080.63
614.00	1073.84
614.35	1076.18
614.70	1090.92
615.05	1084.37
615.39	1077.11
615.74	1085.31
616.09	1081.80
616.43	1076.41
616.78	1066.35
617.13	1073.84
617.47	1063.54
617.82	1065.65
618.17	1054.41
618.51	1060.50
618.86	1057.69
619.21	1062.60
619.55	1059.09
619.90	1063.07
620.25	1064.01
620.59	1068.69
620.94	1065.41
621.29	1070.09
621.63	1083.43
621.98	1085.31
622.32	1080.86
622.67	1085.31
623.02	1086.24
623.36	1078.52
623.71	1075.94
624.05	1082.26
624.40	1085.54
624.75	1090.69
625.09	1079.92
625.44	1075.01
625.78	1073.60
626.13	1071.03
626.48	1065.18
626.82	1070.80
627.17	1085.31
627.51	1090.46
627.86	1090.22
628.20	1092.33
628.55	1099.82
628.89	1088.35
629.24	1081.56
629.58	1093.73
629.93	1086.01
630.28	1083.20
630.62	1088.58
630.97	1090.46
631.31	1071.03
631.66	1074.54
632.00	1077.35
632.35	1076.65
632.69	1073.84
633.04	1088.35
633.38	1082.73
633.73	1074.54
634.07	1077.11
634.42	1075.48
634.76	1069.62
635.11	1073.84
635.45	1075.94
635.79	1067.05
636.14	1076.65
636.48	1072.20
636.83	1079.92
637.17	1086.24
637.52	1093.73
637.86	1089.75
638.21	1094.20
638.55	1087.88
638.89	1083.67
639.24	1077.11
639.58	1075.48
639.93	1072.67
640.27	1075.94
640.61	1081.09
640.96	1087.88
641.30	1095.60
641.65	1104.26
641.99	1099.35
642.33	1092.33
642.68	1090.69
643.02	1088.58
643.37	1090.69
643.71	1091.63
644.05	1091.86
644.40	1095.84
644.74	1088.12
645.08	1077.82
645.43	1074.07
645.77	1077.35
646.11	1076.65
646.46	1085.07
646.80	1090.22
647.14	1094.90
647.49	1107.31
647.83	1109.18
648.17	1098.18
648.52	1097.01
648.86	1101.92
649.20	1092.56
649.55	1087.88
649.89	1087.41
650.23	1073.37
650.57	1069.62
650.92	1061.67
651.26	1061.43
651.60	1066.82
651.95	1088.82
652.29	1086.94
652.63	1089.75
652.97	1094.20
653.32	1087.88
653.66	1075.94
654.00	1088.35
654.34	1087.88
654.69	1090.92
655.03	1097.01
655.37	1104.03
655.71	1091.63
656.05	1092.33
656.40	1081.09
656.74	1084.84
657.08	1082.03
657.42	1085.54
657.76	1077.35
658.11	1080.39
658.45	1074.77
658.79	1059.79
659.13	1062.37
659.47	1075.94
659.82	1074.31
660.16	1078.75
660.50	1086.24
660.84	1081.33
661.18	1086.71
661.52	1082.97
661.87	1079.46
662.21	1087.41
662.55	1087.41
662.89	1079.22
663.23	1084.14
663.57	1089.29
663.91	1089.99
664.25	1097.71
664.60	1096.54
664.94	1091.63
665.28	1081.33
665.62	1079.22
665.96	1077.58
666.30	1070.56
666.64	1070.56
666.98	1071.03
667.32	1061.90
667.66	1064.01
668.01	1071.26
668.35	1067.99
668.69	1075.71
669.03	1070.80
669.37	1067.99
669.71	1061.43
670.05	1067.99
670.39	1062.37
670.73	1075.01
671.07	1067.05
671.41	1070.09
671.75	1069.86
672.09	1072.67
672.43	1071.73
672.77	1085.07
673.11	1086.48
673.45	1089.05
673.79	1084.84
674.13	1082.26
674.47	1079.92
674.81	1077.82
675.15	1074.07
675.49	1075.94
675.83	1081.56
676.17	1067.28
676.51	1071.50
676.85	1073.84
677.19	1076.41
677.53	1066.82
677.87	1079.22
678.21	1083.67
678.55	1091.16
678.89	1093.03
679.23	1100.29
679.57	1090.92
679.90	1090.69
680.24	1077.58
680.58	1075.01
680.92	1065.88
681.26	1074.77
681.60	1071.97
681.94	1077.82
682.28	1079.69
682.62	1091.86
682.96	1075.48
683.29	1074.31
683.63	1069.39
683.97	1069.62
684.31	1076.41
684.65	1084.37
684.99	1081.56
685.33	1081.80
685.67	1079.46
686.00	1064.24
686.34	1071.03
686.68	1071.73
687.02	1071.50
687.36	1066.11
687.70	1071.97
688.03	1068.69
688.37	1064.01
688.71	1071.50
689.05	1078.75
689.39	1087.88
689.72	1084.14
690.06	1097.95
690.40	1096.07
690.74	1101.22
691.08	1086.94
691.41	1088.35
691.75	1086.01
692.09	1088.58
692.43	1085.77
692.76	1090.22
693.10	1096.54
693.44	1094.90
693.78	1091.16
694.11	1080.63
694.45	1080.39
694.79	1072.43
695.13	1074.77
695.46	1071.50
695.80	1087.41
696.14	1098.18
696.48	1100.52
696.81	1093.50
697.15	1087.65
697.49	1077.82
697.82	1068.92
698.16	1076.65
698.50	1077.35
698.83	1081.56
699.17	1089.52
699.51	1097.01
699.84	1095.37
700.18	1093.50
700.52	1101.46
700.85	1089.52
701.19	1084.37
701.53	1071.03
701.86	1081.09
702.20	1077.11
702.54	1074.54
702.87	1073.84
703.21	1085.77
703.55	1077.11
703.88	1081.33
704.22	1084.84
704.55	1084.84
704.89	1084.60
705.23	1082.50
705.56	1088.12
705.90	1083.67
706.23	1072.43
706.57	1075.01
706.91	1081.56
707.24	1064.01
707.58	1071.50
707.91	1083.43
708.25	1073.37
708.58	1071.73
708.92	1075.48
709.26	1074.07
709.59	1073.37
709.93	1073.84
710.26	1078.52
710.60	1080.39
710.93	1076.18
711.27	1069.39
711.60	1074.07
711.94	1072.20
712.27	1078.99
712.61	1083.43
712.94	1091.16
713.28	1089.75
713.61	1089.05
713.95	1093.73
714.28	1103.09
714.62	1104.97
714.95	1108.71
715.29	1107.31
715.62	1094.67
715.96	1085.31
716.29	1077.82
716.63	1070.33
716.96	1055.58
717.29	1060.96
717.63	1065.88
717.96	1070.33
718.30	1071.73
718.63	1079.22
718.97	1078.99
719.30	1078.05
719.63	1074.31
719.97	1078.28
720.30	1085.07
720.64	1082.50
720.97	1086.24
721.30	1088.12
721.64	1085.77
721.97	1086.24
722.31	1088.35
722.64	1080.39
722.97	1092.33
723.31	1094.43
723.64	1101.22
723.97	1102.16
724.31	1106.84
724.64	1094.20
724.98	1086.71
725.31	1074.31
725.64	1087.41
725.98	1086.24
726.31	1085.54
726.64	1092.33
726.97	1097.95
727.31	1085.07
727.64	1082.50
727.97	1086.48
728.31	1078.28
728.64	1068.22
728.97	1067.05
729.31	1069.62
729.64	1063.31
729.97	1077.35
730.30	1088.58
730.64	1083.67
730.97	1083.20
731.30	1082.73
731.63	1083.20
731.97	1082.26
732.30	1092.56
732.63	1081.09
732.96	1093.03
733.30	1091.86
733.63	1081.09
733.96	1065.65
734.29	1081.56
734.63	1073.60
734.96	1076.65
735.29	1079.69
735.62	1092.09
735.95	1080.16
736.29	1075.94
736.62	1058.16
736.95	1061.90
737.28	1057.45
737.61	1066.11
737.94	1069.62
738.28	1082.26
738.61	1077.58
738.94	1084.84
739.27	1084.84
739.60	1087.18
739.93	1090.46
740.27	1092.56
740.60	1086.01
740.93	1085.77
741.26	1081.56
741.59	1071.50
741.92	1074.54
742.25	1080.39
742.58	1073.60
742.91	1068.92
743.25	1071.26
743.58	1070.80
743.91	1071.97
744.24	1069.62
744.57	1079.46
744.90	1086.71
745.23	1092.56
745.56	1085.31
745.89	1097.01
746.22	1108.71
746.55	1109.88
746.88	1106.84
747.21	1104.03
747.54	1102.16
747.87	1088.58
748.20	1074.31
748.53	1078.52
748.87	1074.07
749.20	1077.82
749.53	1080.86
749.86	1093.50
750.19	1098.88
750.52	1114.80
750.85	1111.29
751.18	1103.33
751.51	1098.88
751.84	1082.50
752.16	1078.05
752.49	1071.03
752.82	1069.16
753.15	1065.18
753.48	1073.14
753.81	1073.60
754.14	1072.43
754.47	1074.07
754.80	1073.37
755.13	1074.31
755.46	1069.16
755.79	1069.39
756.12	1082.97
756.45	1090.22
756.78	1089.99
757.11	1091.39
757.43	1096.31
757.76	1083.90
758.09	1085.07
758.42	1077.82
758.75	1087.18
759.08	1085.07
759.41	1079.92
759.74	1078.99
760.07	1075.94
760.39	1066.35
760.72	1067.28
761.05	1072.43
761.38	1058.86
761.71	1051.13
762.04	1055.11
762.36	1051.37
762.69	1058.62
763.02	1062.84
763.35	1074.07
763.68	1067.28
764.01	1080.16
764.33	1071.03
764.66	1079.92
764.99	1090.92
765.32	1101.69
765.65	1095.60
765.97	1096.78
766.30	1093.73
