SpectraSuite Data File
++++++++++++++++++++++++++++++++++++
Date: Mon Aug 26 10:25:52 PDT 2019
User: corrico
Dark Spectrum Present: No
Reference Spectrum Present: No
Number of Sampled Component Spectra: 1
Spectrometers: USB2+H06089
Integration Time (usec): 10000 (USB2+H06089)
Spectra Averaged: 2 (USB2+H06089)
Boxcar Smoothing: 2 (USB2+H06089)
Correct for Electrical Dark: No (USB2+H06089)
Strobe/Lamp Enabled: No (USB2+H06089)
Correct for Detector Non-linearity: No (USB2+H06089)
Correct for Stray Light: No (USB2+H06089)
Number of Pixels in Processed Spectrum: 2048
>>>>>Begin Processed Spectral Data<<<<<
339.70	1042.71
340.07	1042.71
340.45	1003.86
340.82	982.79
341.19	964.30
341.57	933.64
341.94	913.28
342.31	909.53
342.69	897.36
343.06	887.53
343.43	892.68
343.81	909.53
344.18	911.64
344.55	924.98
344.93	935.51
345.30	942.53
345.67	952.83
346.04	954.24
346.42	962.90
346.79	966.41
347.16	976.00
347.54	974.60
347.91	983.96
348.28	988.64
348.65	987.47
349.03	987.94
349.40	999.41
349.77	1000.34
350.14	1004.56
350.52	1014.39
350.89	1018.37
351.26	1016.73
351.63	1029.84
352.01	1027.50
352.38	1045.52
352.75	1062.14
353.12	1072.90
353.50	1083.20
353.87	1091.63
354.24	1083.43
354.61	1077.58
354.98	1075.24
355.36	1070.33
355.73	1074.07
356.10	1077.35
356.47	1083.90
356.84	1085.31
357.22	1082.26
357.59	1091.63
357.96	1092.56
358.33	1092.80
358.70	1095.60
359.08	1099.58
359.45	1091.39
359.82	1080.16
360.19	1077.35
360.56	1074.54
360.94	1073.60
361.31	1069.86
361.68	1074.77
362.05	1070.56
362.42	1068.45
362.79	1059.56
363.16	1062.37
363.54	1064.24
363.91	1064.01
364.28	1067.05
364.65	1066.58
365.02	1067.05
365.39	1069.86
365.76	1073.14
366.14	1079.46
366.51	1080.16
366.88	1082.50
367.25	1078.99
367.62	1066.35
367.99	1054.18
368.36	1061.90
368.73	1066.35
369.10	1074.77
369.48	1082.97
369.85	1085.31
370.22	1082.26
370.59	1070.80
370.96	1064.01
371.33	1065.41
371.70	1063.77
372.07	1071.03
372.44	1062.84
372.81	1064.94
373.18	1060.73
373.55	1061.20
373.93	1044.35
374.30	1056.75
374.67	1058.16
375.04	1068.22
375.41	1074.54
375.78	1092.56
376.15	1090.46
376.52	1094.20
376.89	1088.12
377.26	1079.69
377.63	1072.20
378.00	1064.48
378.37	1052.07
378.74	1051.13
379.11	1049.96
379.48	1051.84
379.85	1060.96
380.22	1062.37
380.59	1054.65
380.96	1059.09
381.33	1067.28
381.70	1066.82
382.07	1071.73
382.44	1072.90
382.81	1077.58
383.18	1059.79
383.55	1061.90
383.92	1058.16
384.29	1069.16
384.66	1062.37
385.03	1073.84
385.40	1072.20
385.77	1066.11
386.14	1059.09
386.51	1065.88
386.88	1062.84
387.25	1063.31
387.62	1078.28
387.99	1079.92
388.36	1077.58
388.73	1070.09
389.10	1068.69
389.46	1069.62
389.83	1073.14
390.20	1067.52
390.57	1071.50
390.94	1075.94
391.31	1076.41
391.68	1079.46
392.05	1093.97
392.42	1092.56
392.79	1095.14
393.16	1098.88
393.53	1103.56
393.89	1091.63
394.26	1102.86
394.63	1098.41
395.00	1090.46
395.37	1075.48
395.74	1077.11
396.11	1078.99
396.48	1076.88
396.84	1078.99
397.21	1087.41
397.58	1093.50
397.95	1085.77
398.32	1082.97
398.69	1082.97
399.06	1081.80
399.42	1073.37
399.79	1069.16
400.16	1067.75
400.53	1056.05
400.90	1065.88
401.27	1075.71
401.64	1081.09
402.00	1075.01
402.37	1081.09
402.74	1062.84
403.11	1061.67
403.48	1059.56
403.84	1062.84
404.21	1070.09
404.58	1087.65
404.95	1080.39
405.32	1082.73
405.68	1080.86
406.05	1078.28
406.42	1066.58
406.79	1060.03
407.16	1056.52
407.52	1065.88
407.89	1056.75
408.26	1055.82
408.63	1063.07
408.99	1066.11
409.36	1063.31
409.73	1066.11
410.10	1067.28
410.47	1066.82
410.83	1067.75
411.20	1075.01
411.57	1088.35
411.94	1085.54
412.30	1093.73
412.67	1092.33
413.04	1087.88
413.40	1079.69
413.77	1076.41
414.14	1063.31
414.51	1064.94
414.87	1073.14
415.24	1071.73
415.61	1080.63
415.97	1086.71
416.34	1085.31
416.71	1080.16
417.08	1081.56
417.44	1071.73
417.81	1072.43
418.18	1071.97
418.54	1062.37
418.91	1059.79
419.28	1071.97
419.64	1075.24
420.01	1071.03
420.38	1079.92
420.74	1073.60
421.11	1064.48
421.48	1063.31
421.84	1075.48
422.21	1081.09
422.58	1075.71
422.94	1077.35
423.31	1075.71
423.68	1064.01
424.04	1062.37
424.41	1073.60
424.77	1080.63
425.14	1082.03
425.51	1082.26
425.87	1074.31
426.24	1082.50
426.61	1079.92
426.97	1075.24
427.34	1076.65
427.70	1071.03
428.07	1064.94
428.44	1066.35
428.80	1073.14
429.17	1077.35
429.53	1085.54
429.90	1087.65
430.27	1086.94
430.63	1085.31
431.00	1084.14
431.36	1082.50
431.73	1078.28
432.09	1069.16
432.46	1070.09
432.83	1068.45
433.19	1073.14
433.56	1079.69
433.92	1088.35
434.29	1085.31
434.65	1087.65
435.02	1083.43
435.38	1081.56
435.75	1080.86
436.11	1088.12
436.48	1082.50
436.84	1084.84
437.21	1086.01
437.57	1092.56
437.94	1087.88
438.30	1084.84
438.67	1085.77
439.03	1083.20
439.40	1069.62
439.76	1057.92
440.13	1054.41
440.49	1051.84
440.86	1047.86
441.22	1045.75
441.59	1055.58
441.95	1067.52
442.32	1064.48
442.68	1064.71
443.05	1067.05
443.41	1070.56
443.78	1073.60
444.14	1076.88
444.51	1090.46
444.87	1090.22
445.24	1080.16
445.60	1080.16
445.96	1075.71
446.33	1059.09
446.69	1078.52
447.06	1088.12
447.42	1085.07
447.79	1082.50
448.15	1091.39
448.51	1084.14
448.88	1074.07
449.24	1072.20
449.61	1077.58
449.97	1082.26
450.33	1079.22
450.70	1078.52
451.06	1063.31
451.43	1060.03
451.79	1055.11
452.15	1058.16
452.52	1071.73
452.88	1083.43
453.24	1100.75
453.61	1096.78
453.97	1089.05
454.34	1082.26
454.70	1085.07
455.06	1075.94
455.43	1079.22
455.79	1079.46
456.15	1072.43
456.52	1081.09
456.88	1075.01
457.24	1066.35
457.61	1070.33
457.97	1075.01
458.33	1066.35
458.70	1068.69
459.06	1067.99
459.42	1065.88
459.79	1066.35
460.15	1070.80
460.51	1073.60
460.88	1088.12
461.24	1101.92
461.60	1108.24
461.96	1104.03
462.33	1107.31
462.69	1102.39
463.05	1079.69
463.42	1077.58
463.78	1073.14
464.14	1069.86
464.50	1066.35
464.87	1072.67
465.23	1070.33
465.59	1089.99
465.95	1091.63
466.32	1097.24
466.68	1105.67
467.04	1103.56
467.40	1095.37
467.77	1079.69
468.13	1073.14
468.49	1065.18
468.85	1061.67
469.22	1055.82
469.58	1071.26
469.94	1063.31
470.30	1060.03
470.66	1068.92
471.03	1068.45
471.39	1064.24
471.75	1078.05
472.11	1087.18
472.47	1085.54
472.84	1083.20
473.20	1076.65
473.56	1064.71
473.92	1054.65
474.28	1051.84
474.65	1056.28
475.01	1061.90
475.37	1068.45
475.73	1073.84
476.09	1075.01
476.45	1074.07
476.81	1067.99
477.18	1070.80
477.54	1081.09
477.90	1086.71
478.26	1083.20
478.62	1086.94
478.98	1089.05
479.34	1074.07
479.71	1066.58
480.07	1070.33
480.43	1067.99
480.79	1060.73
481.15	1075.94
481.51	1081.09
481.87	1079.92
482.23	1076.18
482.59	1078.52
482.96	1068.45
483.32	1062.60
483.68	1061.43
484.04	1069.16
484.40	1073.37
484.76	1081.56
485.12	1096.07
485.48	1108.24
485.84	1117.37
486.20	1111.05
486.56	1109.41
486.92	1100.99
487.28	1096.07
487.64	1086.94
488.00	1090.22
488.37	1083.67
488.73	1087.65
489.09	1080.86
489.45	1070.80
489.81	1067.99
490.17	1076.41
490.53	1066.11
490.89	1070.56
491.25	1083.90
491.61	1084.60
491.97	1082.97
492.33	1092.56
492.69	1092.56
493.05	1099.58
493.41	1105.44
493.77	1098.65
494.13	1096.78
494.49	1108.01
494.85	1092.80
495.21	1092.09
495.57	1089.29
495.93	1085.31
496.29	1070.09
496.64	1074.07
497.00	1067.52
497.36	1080.16
497.72	1073.14
498.08	1065.41
498.44	1070.09
498.80	1073.14
499.16	1064.01
499.52	1076.88
499.88	1084.14
500.24	1093.73
500.60	1098.88
500.96	1106.37
501.32	1100.99
501.68	1099.82
502.03	1087.18
502.39	1088.58
502.75	1086.01
503.11	1091.16
503.47	1105.90
503.83	1104.97
504.19	1098.88
504.55	1096.07
504.91	1086.01
505.26	1074.31
505.62	1073.14
505.98	1067.99
506.34	1074.07
506.70	1077.11
507.06	1081.33
507.42	1083.43
507.78	1086.24
508.13	1080.39
508.49	1080.39
508.85	1077.11
509.21	1080.63
509.57	1084.84
509.93	1086.94
510.28	1090.92
510.64	1085.77
511.00	1090.69
511.36	1086.48
511.72	1084.84
512.07	1086.48
512.43	1089.99
512.79	1075.24
513.15	1078.05
513.51	1073.14
513.86	1068.45
514.22	1082.03
514.58	1081.33
514.94	1082.50
515.30	1088.58
515.65	1090.69
516.01	1071.03
516.37	1085.31
516.73	1086.71
517.08	1090.92
517.44	1093.26
517.80	1105.67
518.16	1098.88
518.51	1094.20
518.87	1087.41
519.23	1085.07
519.59	1081.33
519.94	1079.22
520.30	1086.94
520.66	1082.03
521.01	1092.09
521.37	1086.71
521.73	1095.14
522.09	1088.12
522.44	1093.97
522.80	1089.75
523.16	1094.90
523.51	1091.86
523.87	1090.69
524.23	1089.05
524.58	1095.14
524.94	1093.50
525.30	1092.56
525.65	1092.09
526.01	1098.18
526.37	1089.52
526.72	1088.35
527.08	1081.80
527.44	1084.60
527.79	1077.35
528.15	1068.92
528.51	1071.50
528.86	1085.31
529.22	1085.31
529.58	1078.99
529.93	1086.48
530.29	1093.26
530.65	1083.90
531.00	1079.69
531.36	1088.58
531.71	1090.92
532.07	1085.07
532.43	1087.88
532.78	1095.60
533.14	1107.78
533.49	1097.01
533.85	1096.07
534.21	1089.29
534.56	1089.05
534.92	1079.46
535.27	1095.60
535.63	1097.48
535.98	1103.56
536.34	1101.69
536.69	1100.05
537.05	1093.50
537.41	1086.48
537.76	1083.90
538.12	1086.94
538.47	1096.07
538.83	1093.97
539.18	1101.22
539.54	1099.58
539.89	1100.75
540.25	1091.16
540.60	1087.41
540.96	1077.82
541.31	1084.37
541.67	1081.56
542.02	1080.16
542.38	1088.35
542.73	1095.60
543.09	1091.86
543.44	1098.41
543.80	1105.67
544.15	1099.12
544.51	1105.20
544.86	1109.41
545.22	1103.33
545.57	1097.48
545.93	1099.82
546.28	1082.73
546.64	1086.71
546.99	1086.48
547.35	1091.16
547.70	1097.24
548.05	1106.37
548.41	1101.69
548.76	1102.39
549.12	1097.01
549.47	1093.73
549.83	1091.16
550.18	1078.05
550.53	1080.39
550.89	1083.90
551.24	1076.18
551.60	1080.39
551.95	1095.14
552.30	1097.24
552.66	1099.35
553.01	1095.14
553.37	1091.39
553.72	1084.37
554.07	1083.20
554.43	1072.90
554.78	1084.14
555.13	1091.63
555.49	1088.82
555.84	1083.67
556.19	1083.43
556.55	1071.26
556.90	1073.37
557.26	1078.28
557.61	1076.18
557.96	1090.46
558.32	1094.43
558.67	1085.54
559.02	1090.46
559.37	1095.37
559.73	1082.50
560.08	1083.43
560.43	1087.65
560.79	1077.58
561.14	1073.37
561.49	1069.16
561.85	1072.67
562.20	1079.92
562.55	1079.92
562.90	1086.71
563.26	1097.71
563.61	1085.54
563.96	1066.58
564.32	1065.88
564.67	1057.92
565.02	1049.96
565.37	1056.75
565.73	1069.39
566.08	1072.67
566.43	1077.11
566.78	1069.16
567.14	1059.56
567.49	1053.24
567.84	1058.16
568.19	1053.24
568.54	1066.82
568.90	1077.11
569.25	1089.99
569.60	1091.16
569.95	1082.03
570.31	1070.56
570.66	1074.77
571.01	1069.62
571.36	1066.82
571.71	1074.07
572.06	1082.26
572.42	1080.86
572.77	1076.88
573.12	1079.92
573.47	1086.71
573.82	1086.24
574.18	1090.69
574.53	1090.92
574.88	1088.12
575.23	1082.03
575.58	1083.67
575.93	1080.63
576.28	1085.31
576.64	1082.26
576.99	1082.97
577.34	1089.52
577.69	1085.77
578.04	1075.24
578.39	1069.39
578.74	1074.07
579.09	1064.24
579.44	1068.92
579.80	1068.69
580.15	1080.16
580.50	1077.82
580.85	1081.56
581.20	1067.99
581.55	1071.26
581.90	1066.35
582.25	1066.82
582.60	1066.58
582.95	1081.33
583.30	1078.28
583.65	1071.73
584.00	1063.77
584.35	1060.73
584.71	1056.28
585.06	1064.94
585.41	1064.71
585.76	1063.07
586.11	1064.71
586.46	1068.22
586.81	1064.94
587.16	1073.37
587.51	1093.26
587.86	1096.07
588.21	1087.41
588.56	1091.16
588.91	1094.90
589.26	1077.58
589.61	1083.90
589.96	1092.80
590.31	1091.16
590.66	1082.50
591.01	1091.16
591.36	1075.24
591.71	1069.16
592.06	1062.60
592.41	1071.50
592.76	1074.54
593.10	1082.97
593.45	1086.94
593.80	1095.14
594.15	1080.16
594.50	1079.92
594.85	1079.22
595.20	1070.33
595.55	1065.41
595.90	1069.86
596.25	1064.01
596.60	1067.28
596.95	1088.35
597.30	1085.54
597.64	1141.01
597.99	1149.91
598.34	1151.78
598.69	1143.59
599.04	1144.76
599.39	1101.22
599.74	1088.12
600.09	1078.75
600.44	1080.63
600.78	1090.69
601.13	1086.71
601.48	1087.65
601.83	1093.26
602.18	1084.37
602.53	1077.35
602.88	1073.84
603.22	1071.03
603.57	1068.45
603.92	1060.96
604.27	1061.43
604.62	1055.82
604.97	1062.14
605.31	1067.75
605.66	1069.62
606.01	1063.54
606.36	1080.16
606.71	1075.48
607.05	1069.86
607.40	1077.82
607.75	1090.69
608.10	1092.09
608.44	1090.92
608.79	1098.88
609.14	1104.50
609.49	1089.52
609.84	1086.71
610.18	1090.92
610.53	1089.52
610.88	1081.56
611.23	1093.03
611.57	1088.35
611.92	1090.69
612.27	1093.50
612.62	1099.58
612.96	1091.16
613.31	1093.03
613.66	1100.99
614.00	1093.73
614.35	1087.65
614.70	1090.46
615.05	1085.77
615.39	1075.48
615.74	1075.71
616.09	1079.46
616.43	1100.05
616.78	1090.69
617.13	1088.35
617.47	1078.99
617.82	1079.69
618.17	1065.65
618.51	1078.05
618.86	1084.14
619.21	1091.63
619.55	1090.69
619.90	1087.65
620.25	1085.31
620.59	1083.90
620.94	1097.24
621.29	1093.50
621.63	1089.75
621.98	1089.52
622.32	1101.22
622.67	1092.80
623.02	1097.24
623.36	1094.43
623.71	1104.26
624.05	1086.48
624.40	1081.33
624.75	1080.63
625.09	1077.11
625.44	1066.35
625.78	1068.22
626.13	1066.82
626.48	1080.63
626.82	1084.37
627.17	1092.33
627.51	1101.22
627.86	1097.01
628.20	1089.99
628.55	1096.78
628.89	1085.54
629.24	1079.22
629.58	1082.73
629.93	1066.35
630.28	1058.62
630.62	1058.86
630.97	1062.37
631.31	1068.92
631.66	1074.77
632.00	1077.82
632.35	1079.92
632.69	1074.77
633.04	1067.75
633.38	1067.75
633.73	1059.79
634.07	1061.20
634.42	1064.24
634.76	1067.99
635.11	1058.86
635.45	1065.41
635.79	1060.50
636.14	1061.67
636.48	1057.45
636.83	1073.37
637.17	1079.46
637.52	1082.73
637.86	1088.35
638.21	1088.82
638.55	1078.52
638.89	1074.54
639.24	1081.80
639.58	1081.33
639.93	1078.75
640.27	1087.18
640.61	1085.77
640.96	1066.58
641.30	1059.56
641.65	1059.09
641.99	1053.24
642.33	1048.09
642.68	1062.84
643.02	1063.54
643.37	1069.86
643.71	1084.14
644.05	1097.01
644.40	1093.97
644.74	1087.65
645.08	1078.52
645.43	1069.62
645.77	1068.22
646.11	1065.65
646.46	1059.09
646.80	1058.62
647.14	1053.71
647.49	1049.03
647.83	1052.54
648.17	1060.03
648.52	1069.16
648.86	1064.71
649.20	1065.65
649.55	1072.20
649.89	1070.80
650.23	1065.88
650.57	1073.60
650.92	1069.62
651.26	1065.65
651.60	1068.92
651.95	1075.94
652.29	1080.39
652.63	1084.60
652.97	1078.28
653.32	1079.92
653.66	1080.63
654.00	1090.22
654.34	1086.94
654.69	1088.58
655.03	1092.33
655.37	1097.95
655.71	1081.33
656.05	1086.48
656.40	1081.56
656.74	1085.07
657.08	1074.07
657.42	1089.05
657.76	1096.31
658.11	1107.54
658.45	1094.90
658.79	1094.67
659.13	1078.75
659.47	1067.28
659.82	1062.84
660.16	1065.18
660.50	1076.41
660.84	1084.60
661.18	1082.50
661.52	1071.26
661.87	1069.16
662.21	1060.50
662.55	1057.45
662.89	1064.94
663.23	1080.39
663.57	1086.01
663.91	1093.26
664.25	1085.07
664.60	1084.14
664.94	1078.05
665.28	1077.35
665.62	1077.58
665.96	1079.22
666.30	1078.28
666.64	1082.50
666.98	1090.69
667.32	1085.07
667.66	1092.33
668.01	1091.16
668.35	1095.60
668.69	1084.14
669.03	1080.86
669.37	1076.41
669.71	1072.67
670.05	1071.26
670.39	1076.88
670.73	1069.62
671.07	1076.65
671.41	1081.33
671.75	1081.33
672.09	1080.16
672.43	1100.75
672.77	1094.20
673.11	1095.84
673.45	1091.86
673.79	1089.75
674.13	1075.71
674.47	1076.88
674.81	1066.11
675.15	1068.22
675.49	1067.05
675.83	1071.73
676.17	1074.31
676.51	1088.35
676.85	1083.20
677.19	1093.73
677.53	1090.22
677.87	1090.92
678.21	1092.80
678.55	1093.03
678.89	1084.37
679.23	1086.94
679.57	1084.37
679.90	1085.77
680.24	1085.31
680.58	1085.54
680.92	1081.33
681.26	1075.24
681.60	1054.41
681.94	1054.41
682.28	1057.92
682.62	1063.31
682.96	1075.48
683.29	1081.80
683.63	1086.24
683.97	1080.86
684.31	1079.69
684.65	1071.73
684.99	1070.09
685.33	1072.67
685.67	1075.94
686.00	1073.37
686.34	1076.18
686.68	1082.26
687.02	1079.69
687.36	1079.22
687.70	1080.16
688.03	1072.20
688.37	1070.56
688.71	1064.01
689.05	1067.28
689.39	1067.05
689.72	1080.86
690.06	1075.48
690.40	1084.14
690.74	1088.58
691.08	1094.90
691.41	1090.46
691.75	1102.63
692.09	1095.60
692.43	1092.56
692.76	1090.92
693.10	1089.75
693.44	1086.94
693.78	1085.31
694.11	1085.54
694.45	1080.16
694.79	1084.84
695.13	1087.41
695.46	1100.52
695.80	1096.31
696.14	1098.88
696.48	1086.94
696.81	1078.99
697.15	1071.97
697.49	1067.52
697.82	1054.41
698.16	1060.73
698.50	1055.11
698.83	1054.88
699.17	1059.33
699.51	1075.94
699.84	1080.86
700.18	1088.12
700.52	1083.20
700.85	1077.11
701.19	1075.24
701.53	1077.82
701.86	1078.75
702.20	1093.03
702.54	1103.56
702.87	1102.16
703.21	1106.14
703.55	1105.67
703.88	1094.90
704.22	1086.48
704.55	1082.73
704.89	1077.58
705.23	1077.58
705.56	1079.22
705.90	1078.52
706.23	1086.71
706.57	1088.12
706.91	1095.37
707.24	1092.80
707.58	1092.56
707.91	1089.52
708.25	1082.97
708.58	1070.56
708.92	1071.26
709.26	1073.14
709.59	1072.90
709.93	1079.46
710.26	1090.46
710.60	1083.43
710.93	1087.41
711.27	1079.92
711.60	1073.60
711.94	1070.56
712.27	1075.01
712.61	1083.67
712.94	1089.29
713.28	1081.80
713.61	1078.75
713.95	1081.56
714.28	1073.84
714.62	1065.88
714.95	1072.67
715.29	1069.39
715.62	1076.65
715.96	1084.14
716.29	1090.46
716.63	1100.75
716.96	1110.35
717.29	1098.65
717.63	1082.97
717.96	1078.05
718.30	1069.62
718.63	1065.18
718.97	1066.82
719.30	1076.65
719.63	1081.09
719.97	1081.33
720.30	1082.73
720.64	1084.37
720.97	1080.86
721.30	1085.07
721.64	1080.39
721.97	1078.52
722.31	1078.28
722.64	1076.41
722.97	1077.35
723.31	1079.46
723.64	1081.56
723.97	1083.90
724.31	1079.69
724.64	1077.11
724.98	1074.54
725.31	1071.03
725.64	1078.52
725.98	1087.65
726.31	1087.41
726.64	1083.67
726.97	1086.48
727.31	1081.56
727.64	1084.37
727.97	1083.43
728.31	1082.26
728.64	1067.05
728.97	1065.41
729.31	1061.67
729.64	1061.67
729.97	1062.60
730.30	1083.67
730.64	1075.01
730.97	1074.77
731.30	1078.05
731.63	1086.48
731.97	1079.22
732.30	1085.07
732.63	1078.99
732.96	1077.11
733.30	1068.22
733.63	1067.75
733.96	1071.26
734.29	1077.35
734.63	1073.84
734.96	1082.26
735.29	1082.97
735.62	1082.26
735.95	1090.22
736.29	1089.75
736.62	1081.56
736.95	1081.80
737.28	1080.86
737.61	1069.16
737.94	1079.69
738.28	1087.88
738.61	1086.24
738.94	1088.12
739.27	1083.20
739.60	1073.84
739.93	1069.62
740.27	1070.56
740.60	1066.11
740.93	1069.62
741.26	1074.31
741.59	1073.60
741.92	1078.28
742.25	1081.09
742.58	1083.20
742.91	1085.31
743.25	1087.41
743.58	1080.63
743.91	1074.31
744.24	1072.90
744.57	1075.71
744.90	1070.80
745.23	1071.50
745.56	1078.75
745.89	1090.92
746.22	1079.69
746.55	1090.69
746.88	1096.54
747.21	1098.41
747.54	1098.65
747.87	1101.69
748.20	1104.26
748.53	1098.18
748.87	1091.39
749.20	1086.94
749.53	1092.33
749.86	1090.22
750.19	1100.29
750.52	1093.50
750.85	1092.33
751.18	1097.95
751.51	1091.63
751.84	1089.29
752.16	1090.46
752.49	1093.50
752.82	1085.77
753.15	1080.63
753.48	1078.28
753.81	1083.20
754.14	1082.03
754.47	1071.97
754.80	1086.01
755.13	1084.60
755.46	1091.86
755.79	1082.73
756.12	1091.86
756.45	1077.35
756.78	1071.50
757.11	1068.92
757.43	1070.56
757.76	1067.75
758.09	1073.60
758.42	1078.52
758.75	1086.71
759.08	1083.43
759.41	1085.54
759.74	1087.65
760.07	1091.63
760.39	1093.26
760.72	1105.44
761.05	1106.84
761.38	1104.73
761.71	1101.92
762.04	1089.52
762.36	1085.77
762.69	1090.22
763.02	1095.60
763.35	1089.29
763.68	1104.73
764.01	1100.05
764.33	1098.88
764.66	1089.52
764.99	1094.67
765.32	1083.90
765.65	1084.84
765.97	1087.41
766.30	1091.86
