SpectraSuite Data File
++++++++++++++++++++++++++++++++++++
Date: Mon Aug 26 10:25:51 PDT 2019
User: corrico
Dark Spectrum Present: No
Reference Spectrum Present: No
Number of Sampled Component Spectra: 1
Spectrometers: USB2+H06089
Integration Time (usec): 10000 (USB2+H06089)
Spectra Averaged: 2 (USB2+H06089)
Boxcar Smoothing: 2 (USB2+H06089)
Correct for Electrical Dark: No (USB2+H06089)
Strobe/Lamp Enabled: No (USB2+H06089)
Correct for Detector Non-linearity: No (USB2+H06089)
Correct for Stray Light: No (USB2+H06089)
Number of Pixels in Processed Spectrum: 2048
>>>>>Begin Processed Spectral Data<<<<<
339.70	1046.22
340.07	1046.22
340.45	1001.28
340.82	971.79
341.19	943.94
341.57	918.19
341.94	908.36
342.31	909.77
342.69	905.55
343.06	900.17
343.43	886.13
343.81	886.59
344.18	887.30
344.55	900.17
344.93	920.53
345.30	941.83
345.67	946.51
346.04	942.53
346.42	944.41
346.79	946.28
347.16	948.15
347.54	964.77
347.91	995.90
348.28	1005.49
348.65	1007.60
349.03	1014.15
349.40	1009.71
349.77	1003.86
350.14	1012.98
350.52	1027.03
350.89	1039.90
351.26	1046.92
351.63	1047.62
352.01	1050.43
352.38	1035.45
352.75	1037.33
353.12	1038.96
353.50	1045.52
353.87	1060.73
354.24	1079.69
354.61	1073.84
354.98	1076.65
355.36	1079.92
355.73	1061.20
356.10	1062.14
356.47	1066.35
356.84	1076.88
357.22	1075.48
357.59	1089.05
357.96	1081.80
358.33	1089.99
358.70	1091.39
359.08	1091.16
359.45	1081.80
359.82	1081.33
360.19	1082.50
360.56	1074.77
360.94	1081.09
361.31	1076.65
361.68	1076.65
362.05	1061.90
362.42	1070.80
362.79	1073.60
363.16	1087.41
363.54	1088.35
363.91	1099.82
364.28	1081.09
364.65	1075.01
365.02	1070.80
365.39	1075.94
365.76	1075.71
366.14	1085.31
366.51	1072.43
366.88	1063.77
367.25	1057.69
367.62	1056.99
367.99	1052.77
368.36	1067.99
368.73	1071.73
369.10	1073.84
369.48	1070.80
369.85	1069.86
370.22	1062.60
370.59	1068.92
370.96	1075.71
371.33	1069.16
371.70	1075.24
372.07	1080.39
372.44	1079.92
372.81	1073.37
373.18	1077.82
373.55	1072.67
373.93	1069.62
374.30	1060.26
374.67	1066.11
375.04	1067.52
375.41	1073.84
375.78	1072.90
376.15	1076.88
376.52	1068.45
376.89	1071.50
377.26	1066.82
377.63	1066.82
378.00	1076.88
378.37	1079.69
378.74	1072.43
379.11	1080.63
379.48	1078.28
379.85	1062.60
380.22	1067.28
380.59	1074.07
380.96	1071.50
381.33	1068.22
381.70	1072.67
382.07	1067.05
382.44	1065.65
382.81	1059.56
383.18	1062.37
383.55	1063.31
383.92	1074.77
384.29	1073.60
384.66	1080.63
385.03	1083.90
385.40	1089.52
385.77	1069.62
386.14	1077.35
386.51	1065.65
386.88	1067.99
387.25	1060.03
387.62	1071.97
387.99	1069.16
388.36	1084.84
388.73	1084.84
389.10	1094.67
389.46	1088.12
389.83	1079.46
390.20	1079.92
390.57	1075.71
390.94	1071.26
391.31	1081.80
391.68	1085.31
392.05	1081.33
392.42	1084.14
392.79	1082.26
393.16	1078.52
393.53	1074.77
393.89	1069.86
394.26	1062.14
394.63	1069.16
395.00	1070.09
395.37	1065.18
395.74	1064.01
396.11	1068.92
396.48	1063.77
396.84	1070.09
397.21	1078.52
397.58	1074.07
397.95	1072.67
398.32	1072.20
398.69	1071.03
399.06	1075.94
399.42	1080.63
399.79	1082.97
400.16	1079.46
400.53	1062.37
400.90	1060.03
401.27	1059.79
401.64	1057.45
402.00	1064.48
402.37	1072.20
402.74	1062.37
403.11	1064.48
403.48	1066.82
403.84	1069.39
404.21	1068.22
404.58	1080.16
404.95	1072.20
405.32	1070.80
405.68	1064.01
406.05	1061.90
406.42	1057.92
406.79	1060.73
407.16	1062.84
407.52	1056.52
407.89	1065.41
408.26	1068.69
408.63	1079.22
408.99	1085.31
409.36	1098.41
409.73	1090.92
410.10	1081.80
410.47	1078.52
410.83	1068.45
411.20	1067.05
411.57	1073.14
411.94	1081.09
412.30	1074.77
412.67	1071.26
413.04	1062.37
413.40	1062.84
413.77	1059.09
414.14	1065.18
414.51	1075.01
414.87	1078.75
415.24	1073.84
415.61	1072.43
415.97	1062.14
416.34	1057.45
416.71	1053.24
417.08	1046.69
417.44	1051.60
417.81	1066.11
418.18	1064.94
418.54	1066.82
418.91	1071.26
419.28	1070.09
419.64	1064.01
420.01	1070.09
420.38	1077.11
420.74	1085.07
421.11	1086.94
421.48	1086.01
421.84	1085.77
422.21	1084.84
422.58	1076.65
422.94	1078.28
423.31	1086.48
423.68	1083.43
424.04	1080.16
424.41	1080.39
424.77	1075.01
425.14	1075.24
425.51	1068.22
425.87	1072.43
426.24	1082.26
426.61	1088.12
426.97	1081.33
427.34	1089.52
427.70	1084.60
428.07	1078.28
428.44	1075.24
428.80	1082.73
429.17	1084.14
429.53	1087.65
429.90	1089.99
430.27	1090.92
430.63	1089.75
431.00	1087.18
431.36	1087.41
431.73	1093.73
432.09	1090.46
432.46	1078.99
432.83	1081.09
433.19	1078.05
433.56	1074.77
433.92	1075.71
434.29	1085.07
434.65	1083.67
435.02	1084.84
435.38	1082.50
435.75	1079.22
436.11	1077.11
436.48	1079.22
436.84	1070.33
437.21	1066.58
437.57	1069.16
437.94	1062.60
438.30	1058.86
438.67	1060.50
439.03	1065.65
439.40	1070.09
439.76	1067.99
440.13	1078.28
440.49	1084.84
440.86	1082.73
441.22	1079.46
441.59	1088.58
441.95	1080.39
442.32	1080.63
442.68	1077.35
443.05	1082.50
443.41	1083.90
443.78	1091.39
444.14	1090.69
444.51	1091.86
444.87	1094.20
445.24	1101.22
445.60	1089.52
445.96	1096.31
446.33	1092.09
446.69	1088.82
447.06	1078.99
447.42	1077.82
447.79	1071.26
448.15	1079.46
448.51	1080.16
448.88	1080.86
449.24	1096.07
449.61	1101.92
449.97	1095.37
450.33	1094.20
450.70	1092.56
451.06	1080.63
451.43	1068.92
451.79	1065.65
452.15	1064.01
452.52	1057.22
452.88	1065.18
453.24	1070.80
453.61	1069.16
453.97	1068.69
454.34	1070.80
454.70	1072.20
455.06	1074.77
455.43	1087.65
455.79	1095.14
456.15	1103.56
456.52	1094.90
456.88	1091.16
457.24	1087.41
457.61	1076.41
457.97	1084.37
458.33	1086.48
458.70	1078.28
459.06	1076.88
459.42	1087.88
459.79	1084.60
460.15	1085.77
460.51	1105.90
460.88	1109.65
461.24	1100.52
461.60	1086.48
461.96	1086.94
462.33	1070.80
462.69	1065.88
463.05	1062.37
463.42	1064.24
463.78	1063.31
464.14	1065.65
464.50	1063.31
464.87	1066.35
465.23	1068.22
465.59	1071.26
465.95	1077.58
466.32	1087.65
466.68	1090.22
467.04	1091.86
467.40	1083.90
467.77	1081.09
468.13	1073.84
468.49	1074.31
468.85	1065.65
469.22	1068.69
469.58	1068.92
469.94	1070.56
470.30	1067.75
470.66	1085.07
471.03	1085.07
471.39	1080.16
471.75	1073.60
472.11	1074.54
472.47	1061.90
472.84	1067.28
473.20	1080.39
473.56	1089.75
473.92	1087.18
474.28	1094.43
474.65	1092.56
475.01	1085.54
475.37	1082.73
475.73	1085.31
476.09	1083.90
476.45	1075.94
476.81	1074.54
477.18	1075.24
477.54	1081.33
477.90	1085.77
478.26	1091.86
478.62	1093.50
478.98	1087.18
479.34	1088.35
479.71	1083.67
480.07	1082.03
480.43	1076.41
480.79	1084.84
481.15	1075.24
481.51	1072.90
481.87	1071.50
482.23	1079.22
482.59	1069.86
482.96	1076.65
483.32	1067.28
483.68	1062.37
484.04	1060.03
484.40	1059.56
484.76	1057.45
485.12	1074.31
485.48	1083.67
485.84	1085.07
486.20	1082.50
486.56	1075.24
486.92	1068.22
487.28	1069.86
487.64	1064.24
488.00	1081.80
488.37	1087.88
488.73	1089.05
489.09	1082.03
489.45	1086.24
489.81	1080.63
490.17	1082.03
490.53	1084.14
490.89	1089.05
491.25	1089.52
491.61	1093.50
491.97	1096.78
492.33	1096.07
492.69	1093.26
493.05	1088.58
493.41	1072.90
493.77	1065.65
494.13	1060.96
494.49	1058.39
494.85	1064.24
495.21	1071.26
495.57	1075.71
495.93	1086.24
496.29	1090.92
496.64	1092.09
497.00	1092.09
497.36	1095.14
497.72	1103.80
498.08	1111.05
498.44	1103.80
498.80	1102.86
499.16	1098.41
499.52	1079.46
499.88	1077.82
500.24	1078.28
500.60	1071.73
500.96	1064.24
501.32	1062.84
501.68	1062.60
502.03	1062.37
502.39	1074.31
502.75	1095.60
503.11	1102.63
503.47	1096.54
503.83	1094.20
504.19	1093.73
504.55	1077.82
504.91	1075.94
505.26	1071.03
505.62	1080.63
505.98	1076.41
506.34	1079.92
506.70	1078.52
507.06	1086.94
507.42	1085.77
507.78	1088.12
508.13	1089.05
508.49	1088.12
508.85	1091.39
509.21	1087.41
509.57	1092.56
509.93	1088.82
510.28	1082.03
510.64	1083.20
511.00	1088.12
511.36	1083.90
511.72	1090.46
512.07	1093.73
512.43	1080.16
512.79	1074.77
513.15	1081.09
513.51	1080.86
513.86	1087.88
514.22	1100.05
514.58	1097.95
514.94	1089.52
515.30	1084.37
515.65	1084.14
516.01	1080.63
516.37	1078.99
516.73	1084.60
517.08	1089.05
517.44	1092.56
517.80	1082.73
518.16	1092.09
518.51	1094.90
518.87	1094.20
519.23	1088.35
519.59	1096.31
519.94	1099.35
520.30	1093.97
520.66	1093.97
521.01	1088.12
521.37	1097.01
521.73	1087.88
522.09	1086.71
522.44	1087.88
522.80	1095.14
523.16	1087.18
523.51	1088.12
523.87	1095.60
524.23	1092.09
524.58	1090.92
524.94	1083.90
525.30	1081.56
525.65	1078.75
526.01	1078.99
526.37	1081.09
526.72	1088.82
527.08	1090.22
527.44	1087.41
527.79	1082.97
528.15	1079.69
528.51	1086.94
528.86	1088.12
529.22	1100.75
529.58	1106.37
529.93	1117.14
530.29	1122.29
530.65	1123.69
531.00	1104.26
531.36	1108.24
531.71	1107.78
532.07	1098.65
532.43	1102.16
532.78	1102.63
533.14	1098.41
533.49	1102.39
533.85	1099.35
534.21	1088.12
534.56	1097.48
534.92	1093.26
535.27	1080.39
535.63	1079.69
535.98	1088.12
536.34	1088.35
536.69	1088.12
537.05	1096.31
537.41	1085.77
537.76	1085.54
538.12	1083.43
538.47	1084.60
538.83	1075.71
539.18	1084.84
539.54	1090.22
539.89	1087.41
540.25	1079.22
540.60	1087.41
540.96	1087.88
541.31	1079.92
541.67	1078.52
542.02	1090.22
542.38	1077.35
542.73	1076.18
543.09	1086.01
543.44	1091.16
543.80	1091.39
544.15	1100.05
544.51	1103.09
544.86	1098.41
545.22	1093.50
545.57	1087.18
545.93	1091.16
546.28	1082.03
546.64	1070.33
546.99	1066.58
547.35	1074.54
547.70	1068.69
548.05	1072.90
548.41	1085.77
548.76	1087.88
549.12	1070.80
549.47	1078.28
549.83	1084.14
550.18	1075.71
550.53	1076.65
550.89	1097.01
551.24	1085.54
551.60	1086.71
551.95	1089.99
552.30	1092.33
552.66	1076.18
553.01	1087.18
553.37	1086.01
553.72	1085.31
554.07	1078.52
554.43	1086.24
554.78	1084.14
555.13	1081.80
555.49	1077.58
555.84	1072.90
556.19	1071.97
556.55	1066.58
556.90	1054.41
557.26	1061.67
557.61	1071.26
557.96	1076.41
558.32	1077.82
558.67	1082.50
559.02	1082.97
559.37	1081.80
559.73	1076.88
560.08	1074.77
560.43	1080.86
560.79	1090.69
561.14	1089.05
561.49	1096.78
561.85	1094.67
562.20	1095.37
562.55	1081.80
562.90	1081.33
563.26	1073.37
563.61	1074.31
563.96	1067.52
564.32	1069.39
564.67	1082.97
565.02	1077.82
565.37	1074.54
565.73	1080.86
566.08	1081.80
566.43	1069.16
566.78	1078.28
567.14	1085.54
567.49	1082.97
567.84	1086.94
568.19	1091.86
568.54	1088.35
568.90	1089.52
569.25	1091.86
569.60	1092.56
569.95	1090.69
570.31	1091.16
570.66	1085.07
571.01	1091.16
571.36	1085.07
571.71	1090.69
572.06	1085.07
572.42	1083.90
572.77	1073.14
573.12	1078.28
573.47	1072.43
573.82	1069.16
574.18	1076.88
574.53	1078.28
574.88	1070.80
575.23	1073.14
575.58	1073.84
575.93	1073.14
576.28	1074.54
576.64	1072.67
576.99	1069.16
577.34	1072.90
577.69	1075.48
578.04	1075.01
578.39	1078.05
578.74	1078.75
579.09	1082.26
579.44	1079.46
579.80	1084.14
580.15	1079.46
580.50	1087.65
580.85	1094.43
581.20	1100.99
581.55	1104.26
581.90	1108.95
582.25	1099.12
582.60	1095.37
582.95	1081.33
583.30	1067.05
583.65	1073.14
584.00	1074.54
584.35	1065.65
584.71	1075.01
585.06	1083.43
585.41	1074.77
585.76	1071.97
586.11	1081.09
586.46	1077.11
586.81	1076.88
587.16	1083.20
587.51	1093.03
587.86	1096.78
588.21	1099.82
588.56	1098.65
588.91	1093.97
589.26	1076.65
589.61	1071.03
589.96	1063.54
590.31	1068.69
590.66	1068.22
591.01	1081.56
591.36	1083.20
591.71	1088.82
592.06	1079.46
592.41	1071.03
592.76	1072.67
593.10	1079.69
593.45	1080.63
593.80	1086.71
594.15	1104.03
594.50	1109.88
594.85	1108.95
595.20	1105.90
595.55	1102.86
595.90	1090.46
596.25	1074.31
596.60	1063.54
596.95	1056.28
597.30	1060.50
597.64	1107.54
597.99	1116.67
598.34	1121.35
598.69	1125.56
599.04	1124.86
599.39	1083.20
599.74	1083.43
600.09	1078.99
600.44	1089.99
600.78	1082.26
601.13	1086.48
601.48	1085.31
601.83	1091.63
602.18	1078.52
602.53	1088.35
602.88	1082.73
603.22	1085.54
603.57	1080.63
603.92	1078.52
604.27	1074.07
604.62	1081.09
604.97	1078.28
605.31	1074.31
605.66	1080.39
606.01	1076.18
606.36	1064.48
606.71	1064.24
607.05	1072.67
607.40	1076.65
607.75	1083.43
608.10	1079.69
608.44	1082.73
608.79	1082.73
609.14	1077.35
609.49	1076.88
609.84	1094.90
610.18	1095.84
610.53	1095.37
610.88	1105.90
611.23	1122.05
611.57	1115.03
611.92	1106.37
612.27	1115.03
612.62	1110.12
612.96	1098.41
613.31	1104.73
613.66	1115.50
614.00	1100.99
614.35	1092.56
614.70	1094.20
615.05	1084.37
615.39	1078.05
615.74	1086.71
616.09	1084.84
616.43	1079.69
616.78	1079.92
617.13	1081.80
617.47	1080.63
617.82	1090.46
618.17	1083.90
618.51	1083.90
618.86	1080.39
619.21	1069.62
619.55	1073.84
619.90	1073.84
620.25	1084.37
620.59	1084.14
620.94	1088.58
621.29	1080.39
621.63	1086.01
621.98	1079.92
622.32	1087.65
622.67	1088.58
623.02	1098.41
623.36	1098.18
623.71	1095.14
624.05	1082.26
624.40	1086.01
624.75	1079.22
625.09	1079.46
625.44	1074.77
625.78	1075.01
626.13	1075.48
626.48	1070.56
626.82	1071.03
627.17	1079.92
627.51	1084.37
627.86	1084.37
628.20	1094.67
628.55	1095.84
628.89	1087.41
629.24	1086.94
629.58	1093.03
629.93	1087.41
630.28	1085.07
630.62	1088.35
630.97	1096.54
631.31	1091.86
631.66	1089.29
632.00	1091.16
632.35	1092.09
632.69	1083.20
633.04	1081.33
633.38	1077.58
633.73	1085.77
634.07	1088.58
634.42	1097.48
634.76	1099.82
635.11	1101.92
635.45	1088.58
635.79	1087.88
636.14	1081.80
636.48	1076.18
636.83	1075.01
637.17	1080.63
637.52	1076.88
637.86	1083.20
638.21	1088.58
638.55	1089.29
638.89	1088.82
639.24	1090.46
639.58	1073.37
639.93	1071.03
640.27	1071.97
640.61	1071.73
640.96	1073.37
641.30	1085.77
641.65	1082.73
641.99	1079.69
642.33	1078.52
642.68	1072.90
643.02	1069.39
643.37	1069.39
643.71	1077.58
644.05	1075.01
644.40	1080.63
644.74	1080.63
645.08	1074.07
645.43	1061.20
645.77	1065.41
646.11	1067.99
646.46	1074.77
646.80	1083.90
647.14	1104.73
647.49	1097.71
647.83	1097.01
648.17	1100.99
648.52	1102.16
648.86	1094.20
649.20	1092.33
649.55	1089.52
649.89	1077.82
650.23	1070.09
650.57	1066.82
650.92	1082.73
651.26	1081.09
651.60	1084.84
651.95	1091.86
652.29	1098.88
652.63	1098.88
652.97	1102.39
653.32	1108.95
653.66	1107.07
654.00	1104.97
654.34	1099.58
654.69	1097.24
655.03	1082.73
655.37	1077.11
655.71	1074.54
656.05	1078.52
656.40	1082.73
656.74	1088.82
657.08	1085.31
657.42	1089.29
657.76	1075.94
658.11	1075.48
658.45	1078.99
658.79	1089.52
659.13	1078.52
659.47	1080.39
659.82	1082.03
660.16	1073.84
660.50	1066.35
660.84	1069.39
661.18	1065.88
661.52	1066.11
661.87	1073.14
662.21	1076.41
662.55	1082.03
662.89	1090.69
663.23	1081.56
663.57	1070.56
663.91	1067.75
664.25	1058.86
664.60	1051.13
664.94	1055.82
665.28	1065.88
665.62	1068.22
665.96	1080.16
666.30	1084.14
666.64	1074.54
666.98	1067.05
667.32	1074.54
667.66	1070.56
668.01	1073.14
668.35	1080.16
668.69	1088.58
669.03	1078.28
669.37	1064.94
669.71	1059.33
670.05	1059.33
670.39	1050.90
670.73	1059.56
671.07	1071.03
671.41	1083.43
671.75	1081.80
672.09	1083.67
672.43	1072.90
672.77	1080.16
673.11	1072.90
673.45	1070.80
673.79	1073.37
674.13	1078.28
674.47	1065.88
674.81	1066.11
675.15	1075.24
675.49	1075.01
675.83	1082.03
676.17	1086.71
676.51	1088.58
676.85	1086.01
677.19	1089.29
677.53	1088.35
677.87	1084.84
678.21	1078.75
678.55	1071.50
678.89	1067.99
679.23	1063.31
679.57	1069.86
679.90	1074.54
680.24	1081.56
680.58	1078.99
680.92	1079.92
681.26	1074.31
681.60	1074.31
681.94	1078.28
682.28	1083.20
682.62	1082.73
682.96	1087.65
683.29	1080.63
683.63	1080.16
683.97	1079.92
684.31	1088.82
684.65	1093.97
684.99	1105.90
685.33	1103.09
685.67	1095.84
686.00	1084.14
686.34	1077.11
686.68	1074.77
687.02	1071.73
687.36	1091.86
687.70	1090.92
688.03	1086.71
688.37	1089.29
688.71	1089.99
689.05	1079.22
689.39	1083.20
689.72	1083.90
690.06	1086.01
690.40	1086.48
690.74	1083.20
691.08	1092.33
691.41	1092.33
691.75	1077.82
692.09	1089.75
692.43	1103.80
692.76	1087.18
693.10	1078.05
693.44	1086.48
693.78	1076.65
694.11	1066.35
694.45	1077.82
694.79	1090.69
695.13	1084.37
695.46	1089.99
695.80	1095.37
696.14	1091.16
696.48	1087.41
696.81	1096.78
697.15	1091.16
697.49	1080.86
697.82	1081.33
698.16	1093.50
698.50	1076.18
698.83	1072.67
699.17	1072.43
699.51	1071.97
699.84	1058.86
700.18	1073.37
700.52	1076.18
700.85	1074.31
701.19	1079.69
701.53	1085.77
701.86	1083.90
702.20	1086.01
702.54	1085.77
702.87	1081.33
703.21	1077.82
703.55	1076.65
703.88	1070.80
704.22	1068.45
704.55	1065.88
704.89	1065.18
705.23	1073.60
705.56	1078.28
705.90	1092.80
706.23	1093.03
706.57	1091.86
706.91	1080.16
707.24	1075.71
707.58	1067.52
707.91	1079.22
708.25	1080.39
708.58	1093.50
708.92	1096.78
709.26	1101.92
709.59	1090.92
709.93	1090.46
710.26	1078.52
710.60	1071.73
710.93	1069.39
711.27	1061.20
711.60	1059.79
711.94	1055.11
712.27	1058.16
712.61	1048.56
712.94	1056.28
713.28	1053.94
713.61	1062.84
713.95	1065.18
714.28	1073.84
714.62	1081.80
714.95	1088.58
715.29	1085.77
715.62	1078.05
715.96	1072.43
716.29	1061.90
716.63	1067.28
716.96	1077.11
717.29	1089.75
717.63	1089.29
717.96	1093.26
718.30	1088.82
718.63	1080.86
718.97	1080.16
719.30	1093.03
719.63	1092.56
719.97	1093.97
720.30	1097.71
720.64	1095.37
720.97	1095.37
721.30	1088.58
721.64	1094.67
721.97	1086.71
722.31	1092.80
722.64	1082.26
722.97	1080.16
723.31	1075.24
723.64	1085.54
723.97	1074.07
724.31	1078.52
724.64	1088.82
724.98	1086.24
725.31	1083.90
725.64	1087.88
725.98	1098.88
726.31	1101.69
726.64	1097.71
726.97	1090.92
727.31	1093.26
727.64	1085.31
727.97	1078.05
728.31	1084.84
728.64	1092.09
728.97	1086.48
729.31	1088.35
729.64	1090.22
729.97	1095.84
730.30	1091.86
730.64	1096.78
730.97	1090.22
731.30	1088.82
731.63	1071.50
731.97	1066.58
732.30	1069.39
732.63	1069.39
732.96	1078.05
733.30	1085.07
733.63	1091.16
733.96	1082.97
734.29	1081.33
734.63	1072.20
734.96	1079.46
735.29	1082.73
735.62	1094.90
735.95	1091.86
736.29	1097.48
736.62	1090.22
736.95	1070.56
737.28	1065.41
737.61	1073.37
737.94	1072.90
738.28	1066.11
738.61	1080.16
738.94	1076.41
739.27	1068.22
739.60	1066.11
739.93	1082.73
740.27	1080.86
740.60	1088.82
740.93	1097.95
741.26	1102.39
741.59	1097.48
741.92	1097.71
742.25	1082.50
742.58	1088.35
742.91	1089.52
743.25	1086.24
743.58	1091.63
743.91	1099.82
744.24	1086.48
744.57	1075.01
744.90	1072.43
745.23	1068.92
745.56	1069.39
745.89	1079.46
746.22	1085.07
746.55	1090.69
746.88	1086.71
747.21	1083.90
747.54	1077.58
747.87	1085.54
748.20	1082.50
748.53	1078.28
748.87	1075.24
749.20	1074.31
749.53	1069.86
749.86	1070.33
750.19	1089.99
750.52	1093.50
750.85	1080.63
751.18	1071.50
751.51	1068.22
751.84	1068.45
752.16	1073.14
752.49	1086.94
752.82	1092.80
753.15	1092.33
753.48	1072.67
753.81	1071.97
754.14	1075.24
754.47	1081.33
754.80	1080.16
755.13	1088.35
755.46	1089.52
755.79	1086.94
756.12	1078.52
756.45	1089.75
756.78	1098.41
757.11	1097.48
757.43	1098.65
757.76	1098.88
758.09	1092.33
758.42	1082.97
758.75	1083.67
759.08	1077.82
759.41	1076.18
759.74	1079.22
760.07	1077.35
760.39	1077.58
760.72	1079.92
761.05	1095.60
761.38	1092.56
761.71	1093.73
762.04	1095.14
762.36	1094.90
762.69	1087.65
763.02	1085.31
763.35	1085.77
763.68	1087.65
764.01	1091.86
764.33	1079.69
764.66	1074.54
764.99	1066.82
765.32	1067.99
765.65	1068.45
765.97	1074.54
766.30	1075.01
