SpectraSuite Data File
++++++++++++++++++++++++++++++++++++
Date: Mon Aug 26 10:25:52 PDT 2019
User: corrico
Dark Spectrum Present: No
Reference Spectrum Present: No
Number of Sampled Component Spectra: 1
Spectrometers: USB2+H06089
Integration Time (usec): 10000 (USB2+H06089)
Spectra Averaged: 2 (USB2+H06089)
Boxcar Smoothing: 2 (USB2+H06089)
Correct for Electrical Dark: No (USB2+H06089)
Strobe/Lamp Enabled: No (USB2+H06089)
Correct for Detector Non-linearity: No (USB2+H06089)
Correct for Stray Light: No (USB2+H06089)
Number of Pixels in Processed Spectrum: 2048
>>>>>Begin Processed Spectral Data<<<<<
339.70	1012.28
340.07	1012.28
340.45	993.79
340.82	972.49
341.19	957.51
341.57	929.19
341.94	915.15
342.31	893.85
342.69	894.55
343.06	891.74
343.43	896.89
343.81	902.28
344.18	909.30
344.55	913.51
344.93	914.68
345.30	929.19
345.67	946.51
346.04	955.64
346.42	950.26
346.79	958.22
347.16	952.83
347.54	948.62
347.91	965.71
348.28	989.11
348.65	991.45
349.03	1004.09
349.40	1016.03
349.77	1019.77
350.14	1019.30
350.52	1031.94
350.89	1040.60
351.26	1042.94
351.63	1042.24
352.01	1048.79
352.38	1050.90
352.75	1045.75
353.12	1044.82
353.50	1042.47
353.87	1043.41
354.24	1045.28
354.61	1049.96
354.98	1071.50
355.36	1079.92
355.73	1083.67
356.10	1091.16
356.47	1106.37
356.84	1098.18
357.22	1091.39
357.59	1095.60
357.96	1092.33
358.33	1079.22
358.70	1071.97
359.08	1068.45
359.45	1066.35
359.82	1060.50
360.19	1066.35
360.56	1059.09
360.94	1070.33
361.31	1072.20
361.68	1080.39
362.05	1083.90
362.42	1092.33
362.79	1096.78
363.16	1092.33
363.54	1083.90
363.91	1073.37
364.28	1063.54
364.65	1049.26
365.02	1049.96
365.39	1050.20
365.76	1051.84
366.14	1048.79
366.51	1049.26
366.88	1046.92
367.25	1048.79
367.62	1043.64
367.99	1050.43
368.36	1065.41
368.73	1069.86
369.10	1068.22
369.48	1072.67
369.85	1081.56
370.22	1062.14
370.59	1057.69
370.96	1055.35
371.33	1054.41
371.70	1049.03
372.07	1070.80
372.44	1078.28
372.81	1078.75
373.18	1076.18
373.55	1076.65
373.93	1069.86
374.30	1062.84
374.67	1068.92
375.04	1072.90
375.41	1074.31
375.78	1068.45
376.15	1070.33
376.52	1071.26
376.89	1076.18
377.26	1081.56
377.63	1075.71
378.00	1073.60
378.37	1062.60
378.74	1060.03
379.11	1055.58
379.48	1060.26
379.85	1061.43
380.22	1067.75
380.59	1065.41
380.96	1067.75
381.33	1071.73
381.70	1073.60
382.07	1075.71
382.44	1076.65
382.81	1070.33
383.18	1065.41
383.55	1064.94
383.92	1068.92
384.29	1070.80
384.66	1074.54
385.03	1076.18
385.40	1070.09
385.77	1063.54
386.14	1061.20
386.51	1061.67
386.88	1060.96
387.25	1071.03
387.62	1077.35
387.99	1079.22
388.36	1076.41
388.73	1083.43
389.10	1085.07
389.46	1090.46
389.83	1084.14
390.20	1086.71
390.57	1078.28
390.94	1070.33
391.31	1058.86
391.68	1071.73
392.05	1077.58
392.42	1082.50
392.79	1080.63
393.16	1084.60
393.53	1080.63
393.89	1069.16
394.26	1073.60
394.63	1072.67
395.00	1073.14
395.37	1076.65
395.74	1079.92
396.11	1076.65
396.48	1084.84
396.84	1085.54
397.21	1080.63
397.58	1081.56
397.95	1085.54
398.32	1080.63
398.69	1068.69
399.06	1064.94
399.42	1073.37
399.79	1076.65
400.16	1074.31
400.53	1084.84
400.90	1091.39
401.27	1083.90
401.64	1077.35
402.00	1081.80
402.37	1088.58
402.74	1084.84
403.11	1088.58
403.48	1080.16
403.84	1082.03
404.21	1076.18
404.58	1083.67
404.95	1082.03
405.32	1088.12
405.68	1086.94
406.05	1085.54
406.42	1081.80
406.79	1072.90
407.16	1066.11
407.52	1065.88
407.89	1064.48
408.26	1062.84
408.63	1076.41
408.99	1089.75
409.36	1092.56
409.73	1096.54
410.10	1095.37
410.47	1081.33
410.83	1072.20
411.20	1066.58
411.57	1062.37
411.94	1055.58
412.30	1063.07
412.67	1067.75
413.04	1074.77
413.40	1069.16
413.77	1082.03
414.14	1078.75
414.51	1077.35
414.87	1066.35
415.24	1078.05
415.61	1069.39
415.97	1075.48
416.34	1071.26
416.71	1075.24
417.08	1064.71
417.44	1070.56
417.81	1066.35
418.18	1063.77
418.54	1063.77
418.91	1071.73
419.28	1071.73
419.64	1081.33
420.01	1085.54
420.38	1092.33
420.74	1096.78
421.11	1103.33
421.48	1089.75
421.84	1088.35
422.21	1078.75
422.58	1072.90
422.94	1057.92
423.31	1069.16
423.68	1069.16
424.04	1081.33
424.41	1084.14
424.77	1079.69
425.14	1073.14
425.51	1081.80
425.87	1072.20
426.24	1069.16
426.61	1081.80
426.97	1089.52
427.34	1080.63
427.70	1076.18
428.07	1079.22
428.44	1083.67
428.80	1076.65
429.17	1078.75
429.53	1090.69
429.90	1089.52
430.27	1085.54
430.63	1092.80
431.00	1090.92
431.36	1077.11
431.73	1074.77
432.09	1063.31
432.46	1049.26
432.83	1053.94
433.19	1061.90
433.56	1063.07
433.92	1073.60
434.29	1070.56
434.65	1072.90
435.02	1072.43
435.38	1076.41
435.75	1081.09
436.11	1090.69
436.48	1092.56
436.84	1092.56
437.21	1090.46
437.57	1089.05
437.94	1090.22
438.30	1081.33
438.67	1081.33
439.03	1082.97
439.40	1077.82
439.76	1071.73
440.13	1069.16
440.49	1067.05
440.86	1065.18
441.22	1061.90
441.59	1079.46
441.95	1096.54
442.32	1098.88
442.68	1100.05
443.05	1108.71
443.41	1099.35
443.78	1086.94
444.14	1082.50
444.51	1081.33
444.87	1078.52
445.24	1070.56
445.60	1070.33
445.96	1080.86
446.33	1078.99
446.69	1073.60
447.06	1081.56
447.42	1079.22
447.79	1077.35
448.15	1082.97
448.51	1083.43
448.88	1079.92
449.24	1085.77
449.61	1089.05
449.97	1081.80
450.33	1082.73
450.70	1082.26
451.06	1082.50
451.43	1079.92
451.79	1081.80
452.15	1081.80
452.52	1086.94
452.88	1083.43
453.24	1073.60
453.61	1067.52
453.97	1062.14
454.34	1056.05
454.70	1057.69
455.06	1058.86
455.43	1063.77
455.79	1073.14
456.15	1073.14
456.52	1075.24
456.88	1087.18
457.24	1088.58
457.61	1086.48
457.97	1093.26
458.33	1090.69
458.70	1084.14
459.06	1084.84
459.42	1078.99
459.79	1065.41
460.15	1061.67
460.51	1071.97
460.88	1078.75
461.24	1078.05
461.60	1086.48
461.96	1090.69
462.33	1080.86
462.69	1080.39
463.05	1079.92
463.42	1076.88
463.78	1081.33
464.14	1077.35
464.50	1062.37
464.87	1073.14
465.23	1081.33
465.59	1072.43
465.95	1077.11
466.32	1082.97
466.68	1085.54
467.04	1068.22
467.40	1065.88
467.77	1062.84
468.13	1057.22
468.49	1048.09
468.85	1068.69
469.22	1073.60
469.58	1071.50
469.94	1088.12
470.30	1092.09
470.66	1089.75
471.03	1086.24
471.39	1091.63
471.75	1083.20
472.11	1083.67
472.47	1081.09
472.84	1083.20
473.20	1077.35
473.56	1084.37
473.92	1082.26
474.28	1076.18
474.65	1077.11
475.01	1079.92
475.37	1074.31
475.73	1075.24
476.09	1080.39
476.45	1090.22
476.81	1095.37
477.18	1087.65
477.54	1092.56
477.90	1081.80
478.26	1079.92
478.62	1068.92
478.98	1071.03
479.34	1061.43
479.71	1069.16
480.07	1067.52
480.43	1081.33
480.79	1080.39
481.15	1090.69
481.51	1085.07
481.87	1082.26
482.23	1077.11
482.59	1081.80
482.96	1070.80
483.32	1069.39
483.68	1069.86
484.04	1065.88
484.40	1074.07
484.76	1084.37
485.12	1089.29
485.48	1094.20
485.84	1098.18
486.20	1090.22
486.56	1079.22
486.92	1074.54
487.28	1061.67
487.64	1057.69
488.00	1054.18
488.37	1059.09
488.73	1057.22
489.09	1069.86
489.45	1070.56
489.81	1069.62
490.17	1079.22
490.53	1090.69
490.89	1089.52
491.25	1091.39
491.61	1090.46
491.97	1086.01
492.33	1082.50
492.69	1069.16
493.05	1067.99
493.41	1068.45
493.77	1066.11
494.13	1070.09
494.49	1077.11
494.85	1071.03
495.21	1071.97
495.57	1070.09
495.93	1067.52
496.29	1056.99
496.64	1062.84
497.00	1066.35
497.36	1074.31
497.72	1068.45
498.08	1080.39
498.44	1084.60
498.80	1087.88
499.16	1075.01
499.52	1074.77
499.88	1066.11
500.24	1060.03
500.60	1057.92
500.96	1064.01
501.32	1065.18
501.68	1065.65
502.03	1070.09
502.39	1061.20
502.75	1059.56
503.11	1068.45
503.47	1078.75
503.83	1071.03
504.19	1072.90
504.55	1084.60
504.91	1077.82
505.26	1072.20
505.62	1077.82
505.98	1088.58
506.34	1082.26
506.70	1091.39
507.06	1102.16
507.42	1096.07
507.78	1083.90
508.13	1067.52
508.49	1071.26
508.85	1062.37
509.21	1077.82
509.57	1089.05
509.93	1091.63
510.28	1081.09
510.64	1093.26
511.00	1084.14
511.36	1079.69
511.72	1089.52
512.07	1093.03
512.43	1077.35
512.79	1085.77
513.15	1088.35
513.51	1082.03
513.86	1080.39
514.22	1095.60
514.58	1090.46
514.94	1093.73
515.30	1093.26
515.65	1089.05
516.01	1079.92
516.37	1072.67
516.73	1069.62
517.08	1081.56
517.44	1090.92
517.80	1085.07
518.16	1090.92
518.51	1089.75
518.87	1089.75
519.23	1084.37
519.59	1090.69
519.94	1089.52
520.30	1084.84
520.66	1090.46
521.01	1093.26
521.37	1101.92
521.73	1103.33
522.09	1112.46
522.44	1110.12
522.80	1114.56
523.16	1103.56
523.51	1097.48
523.87	1093.73
524.23	1088.12
524.58	1092.80
524.94	1104.26
525.30	1109.88
525.65	1114.10
526.01	1113.16
526.37	1101.46
526.72	1090.22
527.08	1088.82
527.44	1079.69
527.79	1073.84
528.15	1076.65
528.51	1082.97
528.86	1082.97
529.22	1097.95
529.58	1104.97
529.93	1102.63
530.29	1103.80
530.65	1110.82
531.00	1101.92
531.36	1097.95
531.71	1101.92
532.07	1094.20
532.43	1090.22
532.78	1093.73
533.14	1080.63
533.49	1079.22
533.85	1077.82
534.21	1079.92
534.56	1072.90
534.92	1089.05
535.27	1090.69
535.63	1091.86
535.98	1084.14
536.34	1082.03
536.69	1078.99
537.05	1074.07
537.41	1079.69
537.76	1083.43
538.12	1078.52
538.47	1075.24
538.83	1071.03
539.18	1067.75
539.54	1065.65
539.89	1067.75
540.25	1073.84
540.60	1083.43
540.96	1086.01
541.31	1079.92
541.67	1088.35
542.02	1083.90
542.38	1081.33
542.73	1074.07
543.09	1078.99
543.44	1072.20
543.80	1071.97
544.15	1069.39
544.51	1072.90
544.86	1072.67
545.22	1078.28
545.57	1080.16
545.93	1079.46
546.28	1082.26
546.64	1093.26
546.99	1098.18
547.35	1100.05
547.70	1104.97
548.05	1100.75
548.41	1090.69
548.76	1089.52
549.12	1086.01
549.47	1084.84
549.83	1085.54
550.18	1086.94
550.53	1085.77
550.89	1086.71
551.24	1082.50
551.60	1093.26
551.95	1092.80
552.30	1084.14
552.66	1077.11
553.01	1078.75
553.37	1074.54
553.72	1076.65
554.07	1080.16
554.43	1086.71
554.78	1092.56
555.13	1082.03
555.49	1070.33
555.84	1071.50
556.19	1068.45
556.55	1057.69
556.90	1064.01
557.26	1089.29
557.61	1083.43
557.96	1090.69
558.32	1099.35
558.67	1095.60
559.02	1083.90
559.37	1095.37
559.73	1093.03
560.08	1085.54
560.43	1084.37
560.79	1077.58
561.14	1062.60
561.49	1058.16
561.85	1057.69
562.20	1058.62
562.55	1058.62
562.90	1058.86
563.26	1065.88
563.61	1063.54
563.96	1067.52
564.32	1074.07
564.67	1076.41
565.02	1070.56
565.37	1066.82
565.73	1061.43
566.08	1059.33
566.43	1068.45
566.78	1067.05
567.14	1071.26
567.49	1078.52
567.84	1075.24
568.19	1068.45
568.54	1066.58
568.90	1073.37
569.25	1080.16
569.60	1094.20
569.95	1101.92
570.31	1097.24
570.66	1098.88
571.01	1077.58
571.36	1065.41
571.71	1067.05
572.06	1076.41
572.42	1079.69
572.77	1096.54
573.12	1102.16
573.47	1107.07
573.82	1111.75
574.18	1099.35
574.53	1090.69
574.88	1088.35
575.23	1080.86
575.58	1081.33
575.93	1084.37
576.28	1090.69
576.64	1083.90
576.99	1073.37
577.34	1069.62
577.69	1080.63
578.04	1077.35
578.39	1080.16
578.74	1092.09
579.09	1099.12
579.44	1089.29
579.80	1090.22
580.15	1091.63
580.50	1095.84
580.85	1095.14
581.20	1101.22
581.55	1096.78
581.90	1093.97
582.25	1075.24
582.60	1074.54
582.95	1060.26
583.30	1073.14
583.65	1072.67
584.00	1087.65
584.35	1085.77
584.71	1101.46
585.06	1099.35
585.41	1108.01
585.76	1100.52
586.11	1093.50
586.46	1085.07
586.81	1082.03
587.16	1081.56
587.51	1077.82
587.86	1079.46
588.21	1085.07
588.56	1082.97
588.91	1088.35
589.26	1093.03
589.61	1089.99
589.96	1085.07
590.31	1085.07
590.66	1072.90
591.01	1073.60
591.36	1076.88
591.71	1069.62
592.06	1070.56
592.41	1084.14
592.76	1087.18
593.10	1093.03
593.45	1108.71
593.80	1108.01
594.15	1098.41
594.50	1101.69
594.85	1103.80
595.20	1104.97
595.55	1112.46
595.90	1114.80
596.25	1116.67
596.60	1111.52
596.95	1103.09
597.30	1084.14
597.64	1149.67
597.99	1157.86
598.34	1159.74
598.69	1163.25
599.04	1179.16
599.39	1101.92
599.74	1085.77
600.09	1087.88
600.44	1081.80
600.78	1077.11
601.13	1082.73
601.48	1086.71
601.83	1083.67
602.18	1092.33
602.53	1089.52
602.88	1091.39
603.22	1093.03
603.57	1089.52
603.92	1084.60
604.27	1093.97
604.62	1097.71
604.97	1092.56
605.31	1091.16
605.66	1085.77
606.01	1080.63
606.36	1077.35
606.71	1076.65
607.05	1080.63
607.40	1091.63
607.75	1087.65
608.10	1084.14
608.44	1090.46
608.79	1099.82
609.14	1101.69
609.49	1100.29
609.84	1108.71
610.18	1106.84
610.53	1091.16
610.88	1087.18
611.23	1087.65
611.57	1088.35
611.92	1089.52
612.27	1100.75
612.62	1088.12
612.96	1090.69
613.31	1078.28
613.66	1070.56
614.00	1064.71
614.35	1079.22
614.70	1079.69
615.05	1089.99
615.39	1093.73
615.74	1092.80
616.09	1082.50
616.43	1085.07
616.78	1079.22
617.13	1082.26
617.47	1079.46
617.82	1084.60
618.17	1076.88
618.51	1079.69
618.86	1072.20
619.21	1074.54
619.55	1078.75
619.90	1070.56
620.25	1067.75
620.59	1073.60
620.94	1076.88
621.29	1065.88
621.63	1076.18
621.98	1084.60
622.32	1078.05
622.67	1082.50
623.02	1088.58
623.36	1093.26
623.71	1083.43
624.05	1082.50
624.40	1073.84
624.75	1069.39
625.09	1071.26
625.44	1076.88
625.78	1078.75
626.13	1073.60
626.48	1078.05
626.82	1070.56
627.17	1074.31
627.51	1075.48
627.86	1078.75
628.20	1081.33
628.55	1081.80
628.89	1088.12
629.24	1090.92
629.58	1087.18
629.93	1089.05
630.28	1091.16
630.62	1076.65
630.97	1077.11
631.31	1085.77
631.66	1089.29
632.00	1086.71
632.35	1079.46
632.69	1082.50
633.04	1081.56
633.38	1066.11
633.73	1068.22
634.07	1079.92
634.42	1078.99
634.76	1071.50
635.11	1079.92
635.45	1079.46
635.79	1072.90
636.14	1067.99
636.48	1075.94
636.83	1073.37
637.17	1067.52
637.52	1070.56
637.86	1067.05
638.21	1063.07
638.55	1066.58
638.89	1081.33
639.24	1087.41
639.58	1092.33
639.93	1096.31
640.27	1093.26
640.61	1085.07
640.96	1079.69
641.30	1083.43
641.65	1086.01
641.99	1085.77
642.33	1087.41
642.68	1089.75
643.02	1081.33
643.37	1068.92
643.71	1063.54
644.05	1058.62
644.40	1049.03
644.74	1060.73
645.08	1064.71
645.43	1072.67
645.77	1074.77
646.11	1072.90
646.46	1062.37
646.80	1071.50
647.14	1063.54
647.49	1070.09
647.83	1080.63
648.17	1084.60
648.52	1078.75
648.86	1089.29
649.20	1083.43
649.55	1078.28
649.89	1082.97
650.23	1077.35
650.57	1072.20
650.92	1067.05
651.26	1070.80
651.60	1070.33
651.95	1082.03
652.29	1086.94
652.63	1089.75
652.97	1093.26
653.32	1093.97
653.66	1083.67
654.00	1082.73
654.34	1086.01
654.69	1089.05
655.03	1087.65
655.37	1092.33
655.71	1088.58
656.05	1082.03
656.40	1073.84
656.74	1071.73
657.08	1078.99
657.42	1085.31
657.76	1093.97
658.11	1094.90
658.45	1093.26
658.79	1086.48
659.13	1079.22
659.47	1079.69
659.82	1074.07
660.16	1078.99
660.50	1078.05
660.84	1075.94
661.18	1075.48
661.52	1092.80
661.87	1091.39
662.21	1093.03
662.55	1097.95
662.89	1091.86
663.23	1074.07
663.57	1077.35
663.91	1079.69
664.25	1075.71
664.60	1084.37
664.94	1086.24
665.28	1076.65
665.62	1079.22
665.96	1078.05
666.30	1073.14
666.64	1070.56
666.98	1083.43
667.32	1073.14
667.66	1076.18
668.01	1077.35
668.35	1090.46
668.69	1071.50
669.03	1076.88
669.37	1075.01
669.71	1067.75
670.05	1067.99
670.39	1065.41
670.73	1073.14
671.07	1066.35
671.41	1075.71
671.75	1074.07
672.09	1088.58
672.43	1082.97
672.77	1096.54
673.11	1088.58
673.45	1088.58
673.79	1093.03
674.13	1087.41
674.47	1083.20
674.81	1081.33
675.15	1076.65
675.49	1063.54
675.83	1071.97
676.17	1069.86
676.51	1072.67
676.85	1068.22
677.19	1074.07
677.53	1069.86
677.87	1069.62
678.21	1079.22
678.55	1077.82
678.89	1086.48
679.23	1090.69
679.57	1093.50
679.90	1085.07
680.24	1088.35
680.58	1083.90
680.92	1077.11
681.26	1086.01
681.60	1085.77
681.94	1085.54
682.28	1082.73
682.62	1089.52
682.96	1087.88
683.29	1084.14
683.63	1087.41
683.97	1085.31
684.31	1083.20
684.65	1070.09
684.99	1075.71
685.33	1086.01
685.67	1082.97
686.00	1068.92
686.34	1074.77
686.68	1077.11
687.02	1071.73
687.36	1072.43
687.70	1086.48
688.03	1085.07
688.37	1077.58
688.71	1071.26
689.05	1074.54
689.39	1067.75
689.72	1068.22
690.06	1071.73
690.40	1070.80
690.74	1062.60
691.08	1073.60
691.41	1072.43
691.75	1074.54
692.09	1072.20
692.43	1080.39
692.76	1073.14
693.10	1076.88
693.44	1083.90
693.78	1091.16
694.11	1090.46
694.45	1088.35
694.79	1082.03
695.13	1077.35
695.46	1073.60
695.80	1076.88
696.14	1080.39
696.48	1080.86
696.81	1076.18
697.15	1075.01
697.49	1073.14
697.82	1073.84
698.16	1078.28
698.50	1078.75
698.83	1069.39
699.17	1070.56
699.51	1063.31
699.84	1061.90
700.18	1067.75
700.52	1081.33
700.85	1082.26
701.19	1088.12
701.53	1092.56
701.86	1092.09
702.20	1094.20
702.54	1094.67
702.87	1090.69
703.21	1082.97
703.55	1079.92
703.88	1078.99
704.22	1080.16
704.55	1087.88
704.89	1092.09
705.23	1089.29
705.56	1082.50
705.90	1082.97
706.23	1079.22
706.57	1072.20
706.91	1077.58
707.24	1093.26
707.58	1082.50
707.91	1086.01
708.25	1100.75
708.58	1094.43
708.92	1078.99
709.26	1077.58
709.59	1071.50
709.93	1068.22
710.26	1075.01
710.60	1086.48
710.93	1091.63
711.27	1097.24
711.60	1094.20
711.94	1094.90
712.27	1084.84
712.61	1079.22
712.94	1077.11
713.28	1071.03
713.61	1067.05
713.95	1076.18
714.28	1082.97
714.62	1083.43
714.95	1084.14
715.29	1085.54
715.62	1078.28
715.96	1087.18
716.29	1085.54
716.63	1084.84
716.96	1084.14
717.29	1082.03
717.63	1074.31
717.96	1083.20
718.30	1078.05
718.63	1083.43
718.97	1086.24
719.30	1093.03
719.63	1079.46
719.97	1093.73
720.30	1087.18
720.64	1079.46
720.97	1072.67
721.30	1073.84
721.64	1061.67
721.97	1062.37
722.31	1067.05
722.64	1061.20
722.97	1059.09
723.31	1063.31
723.64	1064.01
723.97	1066.11
724.31	1064.24
724.64	1063.31
724.98	1064.48
725.31	1062.84
725.64	1064.01
725.98	1068.69
726.31	1074.77
726.64	1084.84
726.97	1085.31
727.31	1079.46
727.64	1089.75
727.97	1090.92
728.31	1081.09
728.64	1084.84
728.97	1086.71
729.31	1077.82
729.64	1079.22
729.97	1077.82
730.30	1071.03
730.64	1079.22
730.97	1082.73
731.30	1064.24
731.63	1071.97
731.97	1071.26
732.30	1066.58
732.63	1060.73
732.96	1082.50
733.30	1077.35
733.63	1081.80
733.96	1083.67
734.29	1078.28
734.63	1071.50
734.96	1074.07
735.29	1076.41
735.62	1084.37
735.95	1095.60
736.29	1095.14
736.62	1099.58
736.95	1100.75
737.28	1094.67
737.61	1093.26
737.94	1094.20
738.28	1093.73
738.61	1094.67
738.94	1093.50
739.27	1093.97
739.60	1091.63
739.93	1087.41
740.27	1084.84
740.60	1080.86
740.93	1082.97
741.26	1083.20
741.59	1084.60
741.92	1080.39
742.25	1087.18
742.58	1099.58
742.91	1104.50
743.25	1103.56
743.58	1108.01
743.91	1093.50
744.24	1078.99
744.57	1080.86
744.90	1078.75
745.23	1084.84
745.56	1091.16
745.89	1090.22
746.22	1088.35
746.55	1085.54
746.88	1085.31
747.21	1093.97
747.54	1091.63
747.87	1101.92
748.20	1101.92
748.53	1084.60
748.87	1079.46
749.20	1079.69
749.53	1063.77
749.86	1072.67
750.19	1079.92
750.52	1079.69
750.85	1076.65
751.18	1075.94
751.51	1069.16
751.84	1058.62
752.16	1057.92
752.49	1053.94
752.82	1054.65
753.15	1050.67
753.48	1067.05
753.81	1064.01
754.14	1076.88
754.47	1082.97
754.80	1092.33
755.13	1090.92
755.46	1089.75
755.79	1087.41
756.12	1094.20
756.45	1086.24
756.78	1079.92
757.11	1082.50
757.43	1078.75
757.76	1080.16
758.09	1077.82
758.42	1084.37
758.75	1076.41
759.08	1073.37
759.41	1067.05
759.74	1082.97
760.07	1085.31
760.39	1096.31
760.72	1099.58
761.05	1095.37
761.38	1083.90
761.71	1074.54
762.04	1075.48
762.36	1082.50
762.69	1087.41
763.02	1089.52
763.35	1090.92
763.68	1079.46
764.01	1068.45
764.33	1063.54
764.66	1063.54
764.99	1067.52
765.32	1074.77
765.65	1075.01
765.97	1068.22
766.30	1069.39
