SpectraSuite Data File
++++++++++++++++++++++++++++++++++++
Date: Mon Aug 26 10:25:52 PDT 2019
User: corrico
Dark Spectrum Present: No
Reference Spectrum Present: No
Number of Sampled Component Spectra: 1
Spectrometers: USB2+H06089
Integration Time (usec): 10000 (USB2+H06089)
Spectra Averaged: 2 (USB2+H06089)
Boxcar Smoothing: 2 (USB2+H06089)
Correct for Electrical Dark: No (USB2+H06089)
Strobe/Lamp Enabled: No (USB2+H06089)
Correct for Detector Non-linearity: No (USB2+H06089)
Correct for Stray Light: No (USB2+H06089)
Number of Pixels in Processed Spectrum: 2048
>>>>>Begin Processed Spectral Data<<<<<
339.70	1029.84
340.07	1029.84
340.45	1005.26
340.82	981.62
341.19	965.47
341.57	936.21
341.94	930.60
342.31	913.28
342.69	909.77
343.06	903.68
343.43	909.30
343.81	903.45
344.18	909.06
344.55	913.75
344.93	913.51
345.30	918.19
345.67	924.75
346.04	931.77
346.42	943.00
346.79	948.85
347.16	956.81
347.54	966.41
347.91	971.09
348.28	978.11
348.65	981.62
349.03	998.71
349.40	1002.22
349.77	1013.45
350.14	1015.09
350.52	1030.77
350.89	1028.90
351.26	1043.64
351.63	1060.26
352.01	1069.62
352.38	1075.01
352.75	1078.99
353.12	1072.67
353.50	1054.88
353.87	1055.82
354.24	1062.37
354.61	1059.33
354.98	1076.18
355.36	1075.01
355.73	1083.43
356.10	1078.05
356.47	1077.82
356.84	1060.50
357.22	1069.86
357.59	1071.50
357.96	1070.80
358.33	1079.46
358.70	1089.29
359.08	1094.67
359.45	1088.58
359.82	1095.37
360.19	1085.77
360.56	1077.11
360.94	1071.97
361.31	1064.01
361.68	1048.33
362.05	1048.09
362.42	1051.13
362.79	1047.39
363.16	1053.01
363.54	1057.22
363.91	1062.14
364.28	1063.54
364.65	1060.50
365.02	1059.56
365.39	1065.88
365.76	1071.03
366.14	1073.84
366.51	1088.12
366.88	1088.82
367.25	1089.29
367.62	1080.16
367.99	1080.16
368.36	1070.56
368.73	1069.86
369.10	1065.65
369.48	1078.52
369.85	1063.07
370.22	1066.82
370.59	1072.43
370.96	1073.14
371.33	1064.48
371.70	1082.26
372.07	1082.73
372.44	1067.28
372.81	1064.48
373.18	1067.75
373.55	1060.96
373.93	1064.01
374.30	1072.90
374.67	1077.11
375.04	1069.86
375.41	1074.54
375.78	1071.03
376.15	1068.92
376.52	1074.54
376.89	1078.99
377.26	1082.50
377.63	1087.65
378.00	1092.09
378.37	1084.84
378.74	1086.01
379.11	1083.67
379.48	1075.24
379.85	1069.62
380.22	1070.80
380.59	1060.50
380.96	1057.69
381.33	1053.48
381.70	1066.82
382.07	1068.22
382.44	1084.60
382.81	1082.97
383.18	1083.20
383.55	1068.45
383.92	1056.99
384.29	1041.54
384.66	1044.35
385.03	1055.58
385.40	1051.37
385.77	1064.01
386.14	1074.54
386.51	1074.07
386.88	1068.92
387.25	1081.80
387.62	1091.86
387.99	1094.43
388.36	1098.41
388.73	1093.26
389.10	1092.33
389.46	1087.65
389.83	1073.14
390.20	1060.73
390.57	1070.33
390.94	1063.77
391.31	1048.56
391.68	1057.22
392.05	1071.50
392.42	1063.07
392.79	1072.67
393.16	1084.14
393.53	1089.52
393.89	1094.43
394.26	1098.18
394.63	1096.54
395.00	1085.54
395.37	1075.94
395.74	1073.60
396.11	1086.01
396.48	1073.60
396.84	1082.26
397.21	1083.43
397.58	1073.37
397.95	1063.31
398.32	1069.86
398.69	1070.56
399.06	1065.18
399.42	1070.80
399.79	1064.48
400.16	1067.99
400.53	1058.16
400.90	1058.16
401.27	1056.05
401.64	1057.22
402.00	1047.62
402.37	1046.92
402.74	1045.75
403.11	1039.90
403.48	1034.05
403.84	1038.26
404.21	1044.82
404.58	1056.05
404.95	1057.22
405.32	1063.54
405.68	1080.16
406.05	1083.67
406.42	1085.07
406.79	1080.86
407.16	1083.90
407.52	1072.43
407.89	1075.24
408.26	1067.75
408.63	1067.52
408.99	1069.86
409.36	1067.28
409.73	1045.52
410.10	1055.11
410.47	1056.75
410.83	1053.24
411.20	1057.92
411.57	1072.43
411.94	1067.99
412.30	1081.56
412.67	1082.03
413.04	1082.73
413.40	1093.03
413.77	1096.07
414.14	1087.41
414.51	1082.26
414.87	1069.39
415.24	1059.79
415.61	1057.92
415.97	1060.73
416.34	1067.28
416.71	1074.31
417.08	1079.22
417.44	1074.07
417.81	1063.77
418.18	1071.73
418.54	1060.96
418.91	1054.18
419.28	1061.67
419.64	1065.65
420.01	1053.01
420.38	1065.18
420.74	1063.77
421.11	1050.20
421.48	1053.71
421.84	1061.90
422.21	1067.05
422.58	1079.22
422.94	1088.82
423.31	1089.05
423.68	1083.20
424.04	1075.24
424.41	1059.79
424.77	1064.94
425.14	1071.03
425.51	1072.90
425.87	1069.16
426.24	1077.82
426.61	1070.33
426.97	1066.58
427.34	1070.09
427.70	1079.22
428.07	1082.03
428.44	1084.14
428.80	1088.35
429.17	1080.16
429.53	1072.90
429.90	1076.88
430.27	1074.77
430.63	1064.71
431.00	1067.99
431.36	1074.31
431.73	1063.07
432.09	1064.71
432.46	1067.99
432.83	1067.28
433.19	1062.84
433.56	1068.22
433.92	1071.03
434.29	1065.65
434.65	1066.35
435.02	1064.01
435.38	1063.77
435.75	1059.09
436.11	1068.22
436.48	1070.56
436.84	1076.18
437.21	1078.75
437.57	1074.77
437.94	1069.86
438.30	1065.88
438.67	1069.62
439.03	1065.88
439.40	1074.07
439.76	1078.75
440.13	1088.35
440.49	1090.92
440.86	1089.99
441.22	1083.90
441.59	1076.88
441.95	1072.20
442.32	1069.86
442.68	1068.69
443.05	1082.50
443.41	1090.69
443.78	1090.46
444.14	1085.77
444.51	1090.69
444.87	1081.80
445.24	1075.48
445.60	1078.52
445.96	1083.90
446.33	1082.26
446.69	1081.80
447.06	1085.77
447.42	1078.99
447.79	1077.35
448.15	1084.37
448.51	1087.65
448.88	1092.33
449.24	1095.84
449.61	1085.77
449.97	1082.03
450.33	1082.73
450.70	1075.71
451.06	1077.11
451.43	1076.18
451.79	1069.86
452.15	1072.20
452.52	1072.67
452.88	1076.88
453.24	1081.09
453.61	1095.14
453.97	1094.90
454.34	1103.56
454.70	1094.67
455.06	1094.20
455.43	1084.84
455.79	1076.88
456.15	1068.22
456.52	1068.92
456.88	1069.86
457.24	1065.41
457.61	1070.09
457.97	1073.60
458.33	1080.86
458.70	1085.77
459.06	1092.80
459.42	1093.03
459.79	1085.31
460.15	1079.22
460.51	1078.05
460.88	1079.69
461.24	1078.99
461.60	1083.43
461.96	1091.39
462.33	1088.58
462.69	1082.03
463.05	1083.90
463.42	1089.75
463.78	1075.48
464.14	1081.80
464.50	1086.01
464.87	1076.18
465.23	1074.77
465.59	1081.09
465.95	1079.46
466.32	1073.84
466.68	1082.26
467.04	1078.75
467.40	1083.20
467.77	1088.35
468.13	1087.65
468.49	1089.05
468.85	1091.86
469.22	1084.14
469.58	1071.50
469.94	1078.52
470.30	1074.07
470.66	1069.39
471.03	1074.31
471.39	1072.90
471.75	1070.09
472.11	1065.18
472.47	1059.56
472.84	1057.45
473.20	1065.65
473.56	1061.90
473.92	1066.82
474.28	1062.37
474.65	1062.14
475.01	1064.71
475.37	1073.14
475.73	1072.67
476.09	1080.39
476.45	1089.29
476.81	1085.77
477.18	1077.58
477.54	1083.20
477.90	1081.80
478.26	1065.65
478.62	1062.14
478.98	1054.65
479.34	1048.56
479.71	1054.18
480.07	1067.28
480.43	1067.99
480.79	1083.90
481.15	1086.01
481.51	1084.84
481.87	1080.16
482.23	1083.20
482.59	1076.65
482.96	1072.43
483.32	1071.03
483.68	1074.07
484.04	1071.26
484.40	1072.90
484.76	1082.26
485.12	1084.60
485.48	1093.73
485.84	1094.67
486.20	1096.54
486.56	1104.26
486.92	1106.84
487.28	1093.73
487.64	1102.39
488.00	1099.58
488.37	1088.12
488.73	1074.07
489.09	1073.14
489.45	1067.99
489.81	1062.84
490.17	1067.28
490.53	1080.16
490.89	1081.80
491.25	1082.73
491.61	1095.14
491.97	1092.33
492.33	1084.37
492.69	1081.33
493.05	1073.37
493.41	1067.28
493.77	1062.84
494.13	1064.48
494.49	1075.24
494.85	1087.41
495.21	1092.56
495.57	1097.01
495.93	1097.24
496.29	1089.05
496.64	1090.92
497.00	1088.12
497.36	1082.73
497.72	1077.82
498.08	1077.58
498.44	1068.22
498.80	1067.28
499.16	1078.75
499.52	1099.12
499.88	1100.05
500.24	1095.60
500.60	1105.67
500.96	1100.99
501.32	1086.24
501.68	1084.37
502.03	1081.56
502.39	1067.75
502.75	1056.05
503.11	1061.67
503.47	1067.52
503.83	1072.67
504.19	1078.28
504.55	1092.56
504.91	1087.41
505.26	1080.86
505.62	1082.26
505.98	1073.14
506.34	1062.37
506.70	1066.82
507.06	1066.35
507.42	1070.09
507.78	1066.82
508.13	1071.50
508.49	1071.97
508.85	1072.20
509.21	1065.65
509.57	1075.24
509.93	1077.35
510.28	1085.07
510.64	1083.20
511.00	1088.58
511.36	1085.77
511.72	1087.18
512.07	1071.73
512.43	1074.31
512.79	1074.77
513.15	1069.39
513.51	1064.01
513.86	1072.43
514.22	1071.97
514.58	1071.50
514.94	1085.77
515.30	1085.07
515.65	1083.67
516.01	1080.63
516.37	1084.37
516.73	1083.67
517.08	1091.16
517.44	1093.73
517.80	1106.37
518.16	1104.73
518.51	1099.35
518.87	1092.80
519.23	1097.71
519.59	1098.18
519.94	1098.18
520.30	1099.35
520.66	1108.48
521.01	1101.22
521.37	1101.22
521.73	1101.69
522.09	1101.69
522.44	1100.52
522.80	1095.37
523.16	1093.73
523.51	1096.54
523.87	1104.03
524.23	1107.54
524.58	1113.39
524.94	1113.16
525.30	1112.46
525.65	1094.90
526.01	1076.41
526.37	1074.54
526.72	1071.73
527.08	1075.71
527.44	1092.33
527.79	1097.24
528.15	1105.90
528.51	1107.31
528.86	1106.61
529.22	1099.12
529.58	1109.41
529.93	1103.56
530.29	1102.39
530.65	1092.33
531.00	1097.01
531.36	1092.33
531.71	1098.88
532.07	1102.39
532.43	1107.78
532.78	1098.41
533.14	1095.60
533.49	1084.37
533.85	1072.20
534.21	1068.45
534.56	1074.54
534.92	1086.01
535.27	1095.60
535.63	1105.20
535.98	1107.31
536.34	1121.12
536.69	1110.58
537.05	1109.18
537.41	1108.48
537.76	1116.90
538.12	1099.12
538.47	1096.78
538.83	1091.63
539.18	1090.46
539.54	1082.97
539.89	1090.46
540.25	1102.63
540.60	1096.31
540.96	1095.14
541.31	1091.63
541.67	1085.54
542.02	1076.88
542.38	1078.99
542.73	1080.63
543.09	1085.54
543.44	1087.18
543.80	1087.65
544.15	1092.56
544.51	1094.90
544.86	1087.18
545.22	1081.56
545.57	1084.60
545.93	1089.52
546.28	1083.43
546.64	1090.46
546.99	1088.35
547.35	1082.50
547.70	1079.69
548.05	1076.65
548.41	1075.01
548.76	1083.67
549.12	1080.86
549.47	1071.03
549.83	1073.14
550.18	1074.54
550.53	1076.18
550.89	1080.63
551.24	1082.03
551.60	1099.35
551.95	1101.46
552.30	1100.52
552.66	1096.54
553.01	1091.39
553.37	1077.35
553.72	1067.28
554.07	1066.35
554.43	1070.09
554.78	1079.69
555.13	1082.97
555.49	1085.31
555.84	1082.50
556.19	1083.67
556.55	1090.22
556.90	1084.84
557.26	1082.03
557.61	1077.58
557.96	1075.48
558.32	1064.48
558.67	1068.45
559.02	1067.28
559.37	1067.28
559.73	1062.84
560.08	1063.07
560.43	1059.09
560.79	1066.11
561.14	1072.43
561.49	1077.58
561.85	1075.71
562.20	1072.67
562.55	1083.20
562.90	1080.39
563.26	1079.46
563.61	1084.60
563.96	1091.39
564.32	1080.86
564.67	1089.05
565.02	1091.86
565.37	1088.12
565.73	1077.82
566.08	1078.52
566.43	1064.01
566.78	1060.73
567.14	1066.11
567.49	1077.82
567.84	1073.37
568.19	1080.16
568.54	1075.94
568.90	1073.37
569.25	1063.31
569.60	1064.01
569.95	1065.41
570.31	1072.67
570.66	1074.77
571.01	1077.11
571.36	1068.22
571.71	1064.01
572.06	1052.07
572.42	1049.26
572.77	1061.43
573.12	1073.14
573.47	1075.48
573.82	1089.29
574.18	1095.37
574.53	1088.58
574.88	1091.86
575.23	1085.54
575.58	1077.58
575.93	1067.05
576.28	1066.58
576.64	1056.05
576.99	1062.60
577.34	1068.45
577.69	1080.86
578.04	1083.43
578.39	1085.07
578.74	1086.48
579.09	1081.56
579.44	1069.39
579.80	1070.56
580.15	1079.22
580.50	1076.18
580.85	1079.46
581.20	1084.37
581.55	1077.11
581.90	1071.26
582.25	1069.62
582.60	1058.62
582.95	1055.35
583.30	1063.31
583.65	1064.48
584.00	1069.16
584.35	1077.82
584.71	1079.22
585.06	1080.86
585.41	1077.58
585.76	1080.16
586.11	1089.75
586.46	1094.90
586.81	1083.20
587.16	1088.58
587.51	1082.03
587.86	1075.01
588.21	1078.99
588.56	1086.94
588.91	1086.71
589.26	1099.12
589.61	1094.90
589.96	1081.09
590.31	1071.26
590.66	1068.45
591.01	1059.56
591.36	1062.84
591.71	1071.97
592.06	1085.07
592.41	1078.75
592.76	1076.88
593.10	1084.84
593.45	1086.71
593.80	1085.31
594.15	1103.56
594.50	1101.46
594.85	1093.97
595.20	1092.56
595.55	1083.67
595.90	1071.50
596.25	1076.88
596.60	1079.92
596.95	1086.94
597.30	1093.50
597.64	1147.56
597.99	1155.05
598.34	1146.86
598.69	1135.39
599.04	1138.67
599.39	1082.03
599.74	1070.80
600.09	1080.39
600.44	1084.84
600.78	1083.20
601.13	1090.46
601.48	1090.92
601.83	1087.18
602.18	1086.94
602.53	1080.63
602.88	1077.11
603.22	1082.26
603.57	1078.75
603.92	1072.20
604.27	1072.90
604.62	1078.28
604.97	1082.26
605.31	1087.18
605.66	1098.41
606.01	1103.56
606.36	1095.84
606.71	1085.07
607.05	1088.12
607.40	1085.31
607.75	1086.24
608.10	1088.12
608.44	1096.78
608.79	1092.33
609.14	1097.71
609.49	1091.63
609.84	1087.88
610.18	1082.73
610.53	1080.63
610.88	1078.52
611.23	1079.92
611.57	1099.12
611.92	1101.92
612.27	1099.58
612.62	1089.99
612.96	1088.82
613.31	1083.67
613.66	1086.24
614.00	1100.29
614.35	1111.52
614.70	1108.48
615.05	1099.58
615.39	1098.18
615.74	1089.52
616.09	1086.94
616.43	1091.39
616.78	1090.69
617.13	1088.35
617.47	1095.60
617.82	1090.22
618.17	1089.99
618.51	1080.63
618.86	1088.12
619.21	1079.46
619.55	1078.99
619.90	1071.97
620.25	1085.77
620.59	1079.46
620.94	1074.31
621.29	1077.11
621.63	1085.54
621.98	1076.18
622.32	1076.18
622.67	1078.99
623.02	1082.03
623.36	1078.05
623.71	1087.88
624.05	1087.65
624.40	1079.69
624.75	1072.43
625.09	1072.20
625.44	1069.62
625.78	1066.58
626.13	1078.75
626.48	1080.86
626.82	1093.73
627.17	1102.39
627.51	1102.63
627.86	1095.37
628.20	1093.50
628.55	1080.16
628.89	1064.24
629.24	1062.60
629.58	1077.11
629.93	1079.92
630.28	1079.69
630.62	1089.75
630.97	1092.09
631.31	1081.56
631.66	1079.46
632.00	1079.46
632.35	1076.88
632.69	1079.22
633.04	1092.09
633.38	1083.20
633.73	1092.09
634.07	1090.69
634.42	1092.33
634.76	1089.05
635.11	1097.95
635.45	1091.86
635.79	1094.20
636.14	1098.41
636.48	1091.63
636.83	1097.24
637.17	1103.56
637.52	1101.22
637.86	1096.78
638.21	1086.94
638.55	1079.92
638.89	1070.09
639.24	1072.43
639.58	1068.92
639.93	1077.35
640.27	1073.37
640.61	1077.35
640.96	1078.99
641.30	1078.52
641.65	1080.39
641.99	1092.33
642.33	1094.20
642.68	1085.31
643.02	1096.78
643.37	1083.90
643.71	1069.86
644.05	1076.65
644.40	1070.56
644.74	1056.75
645.08	1069.62
645.43	1070.56
645.77	1067.99
646.11	1083.67
646.46	1089.75
646.80	1090.22
647.14	1089.29
647.49	1085.54
647.83	1078.99
648.17	1075.94
648.52	1080.63
648.86	1087.18
649.20	1094.43
649.55	1094.43
649.89	1084.60
650.23	1080.16
650.57	1079.46
650.92	1070.09
651.26	1072.20
651.60	1081.33
651.95	1084.84
652.29	1093.50
652.63	1091.86
652.97	1085.31
653.32	1088.12
653.66	1079.22
654.00	1069.39
654.34	1069.86
654.69	1080.39
655.03	1089.05
655.37	1093.26
655.71	1094.90
656.05	1102.39
656.40	1102.16
656.74	1087.18
657.08	1083.43
657.42	1092.09
657.76	1090.69
658.11	1090.22
658.45	1088.35
658.79	1086.01
659.13	1081.56
659.47	1075.94
659.82	1078.75
660.16	1084.37
660.50	1088.12
660.84	1081.80
661.18	1078.75
661.52	1066.58
661.87	1065.65
662.21	1064.01
662.55	1065.65
662.89	1071.03
663.23	1083.67
663.57	1079.69
663.91	1088.12
664.25	1090.46
664.60	1089.99
664.94	1083.90
665.28	1091.16
665.62	1086.48
665.96	1079.46
666.30	1077.82
666.64	1072.67
666.98	1080.16
667.32	1078.52
667.66	1095.84
668.01	1090.92
668.35	1091.16
668.69	1082.26
669.03	1081.33
669.37	1073.14
669.71	1082.97
670.05	1085.07
670.39	1080.39
670.73	1081.80
671.07	1079.92
671.41	1076.41
671.75	1078.52
672.09	1083.90
672.43	1086.48
672.77	1090.22
673.11	1085.77
673.45	1086.01
673.79	1088.35
674.13	1082.97
674.47	1083.43
674.81	1089.05
675.15	1082.03
675.49	1081.80
675.83	1092.09
676.17	1092.80
676.51	1092.80
676.85	1101.22
677.19	1095.84
677.53	1094.90
677.87	1092.09
678.21	1097.71
678.55	1094.90
678.89	1098.18
679.23	1090.92
679.57	1088.35
679.90	1079.92
680.24	1076.18
680.58	1066.11
680.92	1055.35
681.26	1059.33
681.60	1063.31
681.94	1068.22
682.28	1071.26
682.62	1075.01
682.96	1073.60
683.29	1079.46
683.63	1075.24
683.97	1073.84
684.31	1079.92
684.65	1081.56
684.99	1080.63
685.33	1091.16
685.67	1101.69
686.00	1109.18
686.34	1104.03
686.68	1102.86
687.02	1097.24
687.36	1092.80
687.70	1091.16
688.03	1096.31
688.37	1077.11
688.71	1078.99
689.05	1083.43
689.39	1081.09
689.72	1077.11
690.06	1094.67
690.40	1097.01
690.74	1094.43
691.08	1091.86
691.41	1087.41
691.75	1077.58
692.09	1068.45
692.43	1053.48
692.76	1055.11
693.10	1055.11
693.44	1065.18
693.78	1062.60
694.11	1079.22
694.45	1074.54
694.79	1071.03
695.13	1065.88
695.46	1070.33
695.80	1062.14
696.14	1065.18
696.48	1069.62
696.81	1070.56
697.15	1076.65
697.49	1084.60
697.82	1080.63
698.16	1084.37
698.50	1086.24
698.83	1078.28
699.17	1073.37
699.51	1082.03
699.84	1084.14
700.18	1087.18
700.52	1091.16
700.85	1104.26
701.19	1105.67
701.53	1100.05
701.86	1097.71
702.20	1095.84
702.54	1086.01
702.87	1088.82
703.21	1086.24
703.55	1079.46
703.88	1082.97
704.22	1087.88
704.55	1070.09
704.89	1092.56
705.23	1099.35
705.56	1103.80
705.90	1089.05
706.23	1098.88
706.57	1081.09
706.91	1078.05
707.24	1079.92
707.58	1088.12
707.91	1093.50
708.25	1090.22
708.58	1085.77
708.92	1076.18
709.26	1076.18
709.59	1082.26
709.93	1084.14
710.26	1087.88
710.60	1081.56
710.93	1088.58
711.27	1078.05
711.60	1088.58
711.94	1082.73
712.27	1089.99
712.61	1082.26
712.94	1085.77
713.28	1072.90
713.61	1077.35
713.95	1075.94
714.28	1089.99
714.62	1074.07
714.95	1078.75
715.29	1085.54
715.62	1091.39
715.96	1084.60
716.29	1103.33
716.63	1106.84
716.96	1105.20
717.29	1097.48
717.63	1086.24
717.96	1081.09
718.30	1078.99
718.63	1079.92
718.97	1081.09
719.30	1088.58
719.63	1088.35
719.97	1084.37
720.30	1086.48
720.64	1090.69
720.97	1078.28
721.30	1078.28
721.64	1077.35
721.97	1073.60
722.31	1074.07
722.64	1077.35
722.97	1077.58
723.31	1082.26
723.64	1079.92
723.97	1082.03
724.31	1089.52
724.64	1087.41
724.98	1089.75
725.31	1092.33
725.64	1086.48
725.98	1082.03
726.31	1079.22
726.64	1074.07
726.97	1080.63
727.31	1093.26
727.64	1095.60
727.97	1099.12
728.31	1099.35
728.64	1091.16
728.97	1078.05
729.31	1087.18
729.64	1086.71
729.97	1084.37
730.30	1086.24
730.64	1085.07
730.97	1089.52
731.30	1090.22
731.63	1098.18
731.97	1094.67
732.30	1099.12
732.63	1084.14
732.96	1090.46
733.30	1089.29
733.63	1088.12
733.96	1092.33
734.29	1085.77
734.63	1087.18
734.96	1081.80
735.29	1076.41
735.62	1061.20
735.95	1067.28
736.29	1060.26
736.62	1060.96
736.95	1064.24
737.28	1078.99
737.61	1081.56
737.94	1082.97
738.28	1080.39
738.61	1084.37
738.94	1081.09
739.27	1068.45
739.60	1065.41
739.93	1064.24
740.27	1062.37
740.60	1057.69
740.93	1065.88
741.26	1066.82
741.59	1074.54
741.92	1075.24
742.25	1079.22
742.58	1091.86
742.91	1088.58
743.25	1090.92
743.58	1093.03
743.91	1097.71
744.24	1083.43
744.57	1082.26
744.90	1081.09
745.23	1082.97
745.56	1082.50
745.89	1082.50
746.22	1089.05
746.55	1087.41
746.88	1087.65
747.21	1081.09
747.54	1097.48
747.87	1091.86
748.20	1095.60
748.53	1094.43
748.87	1100.99
749.20	1094.67
749.53	1089.99
749.86	1086.71
750.19	1093.50
750.52	1083.20
750.85	1070.33
751.18	1077.35
751.51	1074.31
751.84	1068.45
752.16	1067.52
752.49	1082.97
752.82	1083.67
753.15	1080.86
753.48	1081.80
753.81	1087.18
754.14	1081.56
754.47	1084.84
754.80	1086.94
755.13	1080.16
755.46	1076.65
755.79	1070.09
756.12	1066.35
756.45	1066.11
756.78	1069.86
757.11	1071.97
757.43	1077.35
757.76	1073.60
758.09	1072.90
758.42	1072.20
758.75	1072.43
759.08	1072.20
759.41	1077.58
759.74	1075.71
760.07	1067.52
760.39	1065.88
760.72	1066.58
761.05	1058.16
761.38	1062.84
761.71	1070.33
762.04	1073.37
762.36	1072.43
762.69	1083.20
763.02	1077.58
763.35	1075.24
763.68	1079.92
764.01	1078.99
764.33	1075.48
764.66	1073.14
764.99	1073.37
765.32	1071.50
765.65	1075.48
765.97	1076.41
766.30	1088.35
