SpectraSuite Data File
++++++++++++++++++++++++++++++++++++
Date: Mon Aug 26 10:25:54 PDT 2019
User: corrico
Dark Spectrum Present: No
Reference Spectrum Present: No
Number of Sampled Component Spectra: 1
Spectrometers: USB2+H06089
Integration Time (usec): 10000 (USB2+H06089)
Spectra Averaged: 2 (USB2+H06089)
Boxcar Smoothing: 2 (USB2+H06089)
Correct for Electrical Dark: No (USB2+H06089)
Strobe/Lamp Enabled: No (USB2+H06089)
Correct for Detector Non-linearity: No (USB2+H06089)
Correct for Stray Light: No (USB2+H06089)
Number of Pixels in Processed Spectrum: 2048
>>>>>Begin Processed Spectral Data<<<<<
339.70	1056.75
340.07	1056.75
340.45	1019.30
340.82	992.39
341.19	963.36
341.57	933.17
341.94	916.79
342.31	906.26
342.69	896.66
343.06	895.02
343.43	887.53
343.81	899.00
344.18	899.47
344.55	903.21
344.93	904.62
345.30	911.40
345.67	905.79
346.04	914.21
346.42	925.45
346.79	931.30
347.16	947.92
347.54	950.49
347.91	952.36
348.28	967.81
348.65	979.98
349.03	990.51
349.40	1013.22
349.77	1026.32
350.14	1032.64
350.52	1038.50
350.89	1035.22
351.26	1042.24
351.63	1042.71
352.01	1039.43
352.38	1052.30
352.75	1061.67
353.12	1056.05
353.50	1062.60
353.87	1075.48
354.24	1074.07
354.61	1081.56
354.98	1094.67
355.36	1100.52
355.73	1093.50
356.10	1093.97
356.47	1083.90
356.84	1072.90
357.22	1067.05
357.59	1074.31
357.96	1078.75
358.33	1081.33
358.70	1088.58
359.08	1093.03
359.45	1086.94
359.82	1079.22
360.19	1079.22
360.56	1075.71
360.94	1075.01
361.31	1064.48
361.68	1067.28
362.05	1063.54
362.42	1063.31
362.79	1055.82
363.16	1061.43
363.54	1058.16
363.91	1059.79
364.28	1066.11
364.65	1065.41
365.02	1067.52
365.39	1073.84
365.76	1085.77
366.14	1082.26
366.51	1085.77
366.88	1090.22
367.25	1083.67
367.62	1077.11
367.99	1074.54
368.36	1076.18
368.73	1075.48
369.10	1080.63
369.48	1077.35
369.85	1068.92
370.22	1065.41
370.59	1069.86
370.96	1064.48
371.33	1064.01
371.70	1078.75
372.07	1086.01
372.44	1088.82
372.81	1082.26
373.18	1078.99
373.55	1067.05
373.93	1056.28
374.30	1053.24
374.67	1064.48
375.04	1060.03
375.41	1055.35
375.78	1061.90
376.15	1051.84
376.52	1046.69
376.89	1058.16
377.26	1065.41
377.63	1055.11
378.00	1057.45
378.37	1058.16
378.74	1061.90
379.11	1062.84
379.48	1071.97
379.85	1066.35
380.22	1067.52
380.59	1061.90
380.96	1064.01
381.33	1060.96
381.70	1062.60
382.07	1050.67
382.44	1044.58
382.81	1038.26
383.18	1042.24
383.55	1040.60
383.92	1047.86
384.29	1045.75
384.66	1058.62
385.03	1053.94
385.40	1063.77
385.77	1071.26
386.14	1077.11
386.51	1076.88
386.88	1078.52
387.25	1082.26
387.62	1079.22
387.99	1082.03
388.36	1075.24
388.73	1078.28
389.10	1074.54
389.46	1077.35
389.83	1073.60
390.20	1072.43
390.57	1067.99
390.94	1074.77
391.31	1067.52
391.68	1067.99
392.05	1074.54
392.42	1076.88
392.79	1063.07
393.16	1069.16
393.53	1071.97
393.89	1066.58
394.26	1075.71
394.63	1083.43
395.00	1088.12
395.37	1083.67
395.74	1082.50
396.11	1078.05
396.48	1063.54
396.84	1054.88
397.21	1052.54
397.58	1061.43
397.95	1059.56
398.32	1075.71
398.69	1077.58
399.06	1085.77
399.42	1075.24
399.79	1076.41
400.16	1073.14
400.53	1075.71
400.90	1082.73
401.27	1090.22
401.64	1093.73
402.00	1088.58
402.37	1080.16
402.74	1070.80
403.11	1069.16
403.48	1063.77
403.84	1059.79
404.21	1061.67
404.58	1066.11
404.95	1060.50
405.32	1068.69
405.68	1076.41
406.05	1082.97
406.42	1085.31
406.79	1086.94
407.16	1081.80
407.52	1088.82
407.89	1085.77
408.26	1079.46
408.63	1071.26
408.99	1072.67
409.36	1060.73
409.73	1051.60
410.10	1064.94
410.47	1079.92
410.83	1074.31
411.20	1084.84
411.57	1096.78
411.94	1090.69
412.30	1084.37
412.67	1085.77
413.04	1080.63
413.40	1069.86
413.77	1052.77
414.14	1058.16
414.51	1061.90
414.87	1057.69
415.24	1071.03
415.61	1084.84
415.97	1079.22
416.34	1082.50
416.71	1086.94
417.08	1082.26
417.44	1079.22
417.81	1064.01
418.18	1053.48
418.54	1057.69
418.91	1058.62
419.28	1058.16
419.64	1078.99
420.01	1075.24
420.38	1076.65
420.74	1079.92
421.11	1082.73
421.48	1085.07
421.84	1100.29
422.21	1096.78
422.58	1094.20
422.94	1092.56
423.31	1094.90
423.68	1082.26
424.04	1081.09
424.41	1077.35
424.77	1067.75
425.14	1053.71
425.51	1072.43
425.87	1070.09
426.24	1082.73
426.61	1086.24
426.97	1090.46
427.34	1082.50
427.70	1080.16
428.07	1060.73
428.44	1064.94
428.80	1066.35
429.17	1049.73
429.53	1048.56
429.90	1056.28
430.27	1060.26
430.63	1057.69
431.00	1067.52
431.36	1073.84
431.73	1069.16
432.09	1062.37
432.46	1065.18
432.83	1074.54
433.19	1070.80
433.56	1078.52
433.92	1084.14
434.29	1083.67
434.65	1069.39
435.02	1078.99
435.38	1078.99
435.75	1070.56
436.11	1067.05
436.48	1067.75
436.84	1061.20
437.21	1060.96
437.57	1062.37
437.94	1075.48
438.30	1085.07
438.67	1083.20
439.03	1079.69
439.40	1080.39
439.76	1074.54
440.13	1075.48
440.49	1081.56
440.86	1080.63
441.22	1081.33
441.59	1073.14
441.95	1060.96
442.32	1055.11
442.68	1059.79
443.05	1068.22
443.41	1065.88
443.78	1070.33
444.14	1074.07
444.51	1071.03
444.87	1067.05
445.24	1081.80
445.60	1082.73
445.96	1080.63
446.33	1075.71
446.69	1071.03
447.06	1067.28
447.42	1072.90
447.79	1075.48
448.15	1082.26
448.51	1082.03
448.88	1076.65
449.24	1072.43
449.61	1073.60
449.97	1078.52
450.33	1083.67
450.70	1079.92
451.06	1082.73
451.43	1075.94
451.79	1064.48
452.15	1065.65
452.52	1078.75
452.88	1069.39
453.24	1073.14
453.61	1077.58
453.97	1076.41
454.34	1065.65
454.70	1071.97
455.06	1074.31
455.43	1075.71
455.79	1075.94
456.15	1092.33
456.52	1089.05
456.88	1094.43
457.24	1091.86
457.61	1095.37
457.97	1079.46
458.33	1084.84
458.70	1077.11
459.06	1078.75
459.42	1071.26
459.79	1081.80
460.15	1084.84
460.51	1091.86
460.88	1088.35
461.24	1090.22
461.60	1082.97
461.96	1075.01
462.33	1068.45
462.69	1074.31
463.05	1079.22
463.42	1083.90
463.78	1087.65
464.14	1086.01
464.50	1085.54
464.87	1083.90
465.23	1084.84
465.59	1077.82
465.95	1078.99
466.32	1086.01
466.68	1087.41
467.04	1081.80
467.40	1091.39
467.77	1087.88
468.13	1076.65
468.49	1063.77
468.85	1060.50
469.22	1056.05
469.58	1057.22
469.94	1072.90
470.30	1081.33
470.66	1085.07
471.03	1088.12
471.39	1091.86
471.75	1086.24
472.11	1086.94
472.47	1083.43
472.84	1083.43
473.20	1078.99
473.56	1069.86
473.92	1063.31
474.28	1064.48
474.65	1064.71
475.01	1064.24
475.37	1070.56
475.73	1078.52
476.09	1084.14
476.45	1089.52
476.81	1090.46
477.18	1088.12
477.54	1086.01
477.90	1080.63
478.26	1075.71
478.62	1067.52
478.98	1070.09
479.34	1073.37
479.71	1081.09
480.07	1070.09
480.43	1080.16
480.79	1073.60
481.15	1078.75
481.51	1080.63
481.87	1087.65
482.23	1087.65
482.59	1092.80
482.96	1091.86
483.32	1084.14
483.68	1088.12
484.04	1084.60
484.40	1084.14
484.76	1080.39
485.12	1071.03
485.48	1075.48
485.84	1074.07
486.20	1078.05
486.56	1074.54
486.92	1081.09
487.28	1078.28
487.64	1080.39
488.00	1079.22
488.37	1077.82
488.73	1076.65
489.09	1071.73
489.45	1076.41
489.81	1076.65
490.17	1085.07
490.53	1082.50
490.89	1074.77
491.25	1074.54
491.61	1073.84
491.97	1065.41
492.33	1080.63
492.69	1083.20
493.05	1086.24
493.41	1081.09
493.77	1085.07
494.13	1070.56
494.49	1080.39
494.85	1082.26
495.21	1088.12
495.57	1084.37
495.93	1091.63
496.29	1086.94
496.64	1070.09
497.00	1075.01
497.36	1077.35
497.72	1086.94
498.08	1095.84
498.44	1100.75
498.80	1096.78
499.16	1098.41
499.52	1083.67
499.88	1072.90
500.24	1078.75
500.60	1071.26
500.96	1067.99
501.32	1077.35
501.68	1081.56
502.03	1075.01
502.39	1072.90
502.75	1075.24
503.11	1072.90
503.47	1072.43
503.83	1084.60
504.19	1090.46
504.55	1089.29
504.91	1095.37
505.26	1095.84
505.62	1095.84
505.98	1093.03
506.34	1090.92
506.70	1089.29
507.06	1093.26
507.42	1085.54
507.78	1081.33
508.13	1087.18
508.49	1093.26
508.85	1082.03
509.21	1083.90
509.57	1097.24
509.93	1099.58
510.28	1086.01
510.64	1094.20
511.00	1091.63
511.36	1089.29
511.72	1081.56
512.07	1077.58
512.43	1083.20
512.79	1088.12
513.15	1075.94
513.51	1080.16
513.86	1086.48
514.22	1084.60
514.58	1081.56
514.94	1086.48
515.30	1089.29
515.65	1086.94
516.01	1084.37
516.37	1080.63
516.73	1084.14
517.08	1081.33
517.44	1084.37
517.80	1083.20
518.16	1086.71
518.51	1090.46
518.87	1089.52
519.23	1100.05
519.59	1097.48
519.94	1098.18
520.30	1099.35
520.66	1098.41
521.01	1089.52
521.37	1088.58
521.73	1100.05
522.09	1088.35
522.44	1085.31
522.80	1080.39
523.16	1073.14
523.51	1066.11
523.87	1073.60
524.23	1071.97
524.58	1081.56
524.94	1093.03
525.30	1088.12
525.65	1087.65
526.01	1098.88
526.37	1095.84
526.72	1092.80
527.08	1089.52
527.44	1093.97
527.79	1086.71
528.15	1087.18
528.51	1075.94
528.86	1085.77
529.22	1085.54
529.58	1086.94
529.93	1089.29
530.29	1103.56
530.65	1100.75
531.00	1094.20
531.36	1097.71
531.71	1092.33
532.07	1094.67
532.43	1086.71
532.78	1088.35
533.14	1092.33
533.49	1090.69
533.85	1092.09
534.21	1095.14
534.56	1099.58
534.92	1103.09
535.27	1102.39
535.63	1104.73
535.98	1105.67
536.34	1108.48
536.69	1097.48
537.05	1095.60
537.41	1094.43
537.76	1103.56
538.12	1090.69
538.47	1091.16
538.83	1095.37
539.18	1091.39
539.54	1081.56
539.89	1088.35
540.25	1084.84
540.60	1084.37
540.96	1081.09
541.31	1078.52
541.67	1091.63
542.02	1089.99
542.38	1088.58
542.73	1093.50
543.09	1108.95
543.44	1109.41
543.80	1112.22
544.15	1111.75
544.51	1102.86
544.86	1100.52
545.22	1087.88
545.57	1092.09
545.93	1095.14
546.28	1102.63
546.64	1096.07
546.99	1097.95
547.35	1094.43
547.70	1092.80
548.05	1083.67
548.41	1076.65
548.76	1066.58
549.12	1077.35
549.47	1086.94
549.83	1101.92
550.18	1111.75
550.53	1122.05
550.89	1112.92
551.24	1098.18
551.60	1093.97
551.95	1103.33
552.30	1100.75
552.66	1099.12
553.01	1096.31
553.37	1096.07
553.72	1089.29
554.07	1095.60
554.43	1093.73
554.78	1104.97
555.13	1093.26
555.49	1087.41
555.84	1080.39
556.19	1079.22
556.55	1080.39
556.90	1088.12
557.26	1084.37
557.61	1078.52
557.96	1075.71
558.32	1068.45
558.67	1072.43
559.02	1079.69
559.37	1082.73
559.73	1093.73
560.08	1103.09
560.43	1099.58
560.79	1092.09
561.14	1091.39
561.49	1085.77
561.85	1083.20
562.20	1082.97
562.55	1085.07
562.90	1086.71
563.26	1093.26
563.61	1092.33
563.96	1094.20
564.32	1093.26
564.67	1089.75
565.02	1082.97
565.37	1069.62
565.73	1066.35
566.08	1071.03
566.43	1071.03
566.78	1076.88
567.14	1083.20
567.49	1085.54
567.84	1081.56
568.19	1098.88
568.54	1098.88
568.90	1103.80
569.25	1103.09
569.60	1104.97
569.95	1094.67
570.31	1084.60
570.66	1093.26
571.01	1090.92
571.36	1102.63
571.71	1105.67
572.06	1111.29
572.42	1101.22
572.77	1105.90
573.12	1085.07
573.47	1077.11
573.82	1075.48
574.18	1077.11
574.53	1072.90
574.88	1074.07
575.23	1073.37
575.58	1070.09
575.93	1060.96
576.28	1057.22
576.64	1062.37
576.99	1060.26
577.34	1060.96
577.69	1071.97
578.04	1073.14
578.39	1076.65
578.74	1078.52
579.09	1084.60
579.44	1072.43
579.80	1086.01
580.15	1076.18
580.50	1076.18
580.85	1061.90
581.20	1061.90
581.55	1058.16
581.90	1061.67
582.25	1062.14
582.60	1070.33
582.95	1073.60
583.30	1066.82
583.65	1075.01
584.00	1077.35
584.35	1084.60
584.71	1097.95
585.06	1103.33
585.41	1098.65
585.76	1094.67
586.11	1101.46
586.46	1092.56
586.81	1088.58
587.16	1089.29
587.51	1094.67
587.86	1076.65
588.21	1082.26
588.56	1079.22
588.91	1079.92
589.26	1085.31
589.61	1087.41
589.96	1075.71
590.31	1070.33
590.66	1070.80
591.01	1065.88
591.36	1067.52
591.71	1064.48
592.06	1076.88
592.41	1073.60
592.76	1071.26
593.10	1072.67
593.45	1078.28
593.80	1075.01
594.15	1081.80
594.50	1091.39
594.85	1100.05
595.20	1106.61
595.55	1108.71
595.90	1096.54
596.25	1090.69
596.60	1091.86
596.95	1086.94
597.30	1086.71
597.64	1139.84
597.99	1144.29
598.34	1133.99
598.69	1133.05
599.04	1128.37
599.39	1087.18
599.74	1076.65
600.09	1078.28
600.44	1074.54
600.78	1067.75
601.13	1075.24
601.48	1073.37
601.83	1069.62
602.18	1076.88
602.53	1088.58
602.88	1075.01
603.22	1082.26
603.57	1091.63
603.92	1093.03
604.27	1091.39
604.62	1098.88
604.97	1094.67
605.31	1090.69
605.66	1086.01
606.01	1084.84
606.36	1080.63
606.71	1088.12
607.05	1087.88
607.40	1087.18
607.75	1084.84
608.10	1071.97
608.44	1063.54
608.79	1062.84
609.14	1073.60
609.49	1083.90
609.84	1093.97
610.18	1098.41
610.53	1108.95
610.88	1112.92
611.23	1105.44
611.57	1112.46
611.92	1111.29
612.27	1105.90
612.62	1091.86
612.96	1101.22
613.31	1095.14
613.66	1098.88
614.00	1093.73
614.35	1098.18
614.70	1089.99
615.05	1088.58
615.39	1087.18
615.74	1088.35
616.09	1091.39
616.43	1100.05
616.78	1103.09
617.13	1097.48
617.47	1097.95
617.82	1099.12
618.17	1086.24
618.51	1083.90
618.86	1082.73
619.21	1083.43
619.55	1071.50
619.90	1074.31
620.25	1081.80
620.59	1092.33
620.94	1088.82
621.29	1105.20
621.63	1106.61
621.98	1100.75
622.32	1090.22
622.67	1097.95
623.02	1095.37
623.36	1096.78
623.71	1092.80
624.05	1097.48
624.40	1094.90
624.75	1082.50
625.09	1079.46
625.44	1079.46
625.78	1084.14
626.13	1089.05
626.48	1098.65
626.82	1100.75
627.17	1102.86
627.51	1108.48
627.86	1099.58
628.20	1101.46
628.55	1091.86
628.89	1097.24
629.24	1085.54
629.58	1081.33
629.93	1077.11
630.28	1082.26
630.62	1066.82
630.97	1053.94
631.31	1055.82
631.66	1057.92
632.00	1067.05
632.35	1080.63
632.69	1096.07
633.04	1104.26
633.38	1105.90
633.73	1095.14
634.07	1089.05
634.42	1088.35
634.76	1078.28
635.11	1075.01
635.45	1078.52
635.79	1079.69
636.14	1082.50
636.48	1083.20
636.83	1082.03
637.17	1083.20
637.52	1086.48
637.86	1078.99
638.21	1093.50
638.55	1099.58
638.89	1103.56
639.24	1103.80
639.58	1109.65
639.93	1101.69
640.27	1088.35
640.61	1081.56
640.96	1075.48
641.30	1066.11
641.65	1063.07
641.99	1069.39
642.33	1071.26
642.68	1072.20
643.02	1076.18
643.37	1077.58
643.71	1079.92
644.05	1083.90
644.40	1084.60
644.74	1083.20
645.08	1076.88
645.43	1061.43
645.77	1058.62
646.11	1061.43
646.46	1060.96
646.80	1067.99
647.14	1080.86
647.49	1072.43
647.83	1075.94
648.17	1080.16
648.52	1080.39
648.86	1075.94
649.20	1082.03
649.55	1082.73
649.89	1081.80
650.23	1083.67
650.57	1086.71
650.92	1083.90
651.26	1086.94
651.60	1084.14
651.95	1077.11
652.29	1068.45
652.63	1078.52
652.97	1072.43
653.32	1078.05
653.66	1090.22
654.00	1093.97
654.34	1090.22
654.69	1092.33
655.03	1089.29
655.37	1080.86
655.71	1094.67
656.05	1087.65
656.40	1086.01
656.74	1091.86
657.08	1090.69
657.42	1075.94
657.76	1080.63
658.11	1079.69
658.45	1076.18
658.79	1082.73
659.13	1093.03
659.47	1091.86
659.82	1088.12
660.16	1083.43
660.50	1074.54
660.84	1069.86
661.18	1078.75
661.52	1078.75
661.87	1078.99
662.21	1074.77
662.55	1071.50
662.89	1054.18
663.23	1058.62
663.57	1056.75
663.91	1060.26
664.25	1057.69
664.60	1067.28
664.94	1068.45
665.28	1073.37
665.62	1083.90
665.96	1089.05
666.30	1088.58
666.64	1093.50
666.98	1093.03
667.32	1089.52
667.66	1089.05
668.01	1094.20
668.35	1084.60
668.69	1086.24
669.03	1085.54
669.37	1088.35
669.71	1085.54
670.05	1090.46
670.39	1093.50
670.73	1086.94
671.07	1086.48
671.41	1089.99
671.75	1087.88
672.09	1080.86
672.43	1090.22
672.77	1090.46
673.11	1089.52
673.45	1094.67
673.79	1102.39
674.13	1100.52
674.47	1091.39
674.81	1088.35
675.15	1079.92
675.49	1084.84
675.83	1078.99
676.17	1085.54
676.51	1084.84
676.85	1081.33
677.19	1071.73
677.53	1070.33
677.87	1071.03
678.21	1062.84
678.55	1077.35
678.89	1077.82
679.23	1088.58
679.57	1086.24
679.90	1088.82
680.24	1074.77
680.58	1068.92
680.92	1055.11
681.26	1063.07
681.60	1064.48
681.94	1071.03
682.28	1072.90
682.62	1081.80
682.96	1076.18
683.29	1075.01
683.63	1075.94
683.97	1089.75
684.31	1095.37
684.65	1098.41
684.99	1104.73
685.33	1106.84
685.67	1092.09
686.00	1084.14
686.34	1086.94
686.68	1080.16
687.02	1076.41
687.36	1081.33
687.70	1079.69
688.03	1068.22
688.37	1072.67
688.71	1066.58
689.05	1067.28
689.39	1069.16
689.72	1084.60
690.06	1083.67
690.40	1096.31
690.74	1095.14
691.08	1096.31
691.41	1080.63
691.75	1077.58
692.09	1061.90
692.43	1063.77
692.76	1078.05
693.10	1082.73
693.44	1086.94
693.78	1098.41
694.11	1093.50
694.45	1076.18
694.79	1076.18
695.13	1072.43
695.46	1073.14
695.80	1082.26
696.14	1086.24
696.48	1088.35
696.81	1093.03
697.15	1086.94
697.49	1084.37
697.82	1079.46
698.16	1084.84
698.50	1091.16
698.83	1095.84
699.17	1100.75
699.51	1105.20
699.84	1099.12
700.18	1097.95
700.52	1094.90
700.85	1086.24
701.19	1089.99
701.53	1090.22
701.86	1081.33
702.20	1089.75
702.54	1086.01
702.87	1074.54
703.21	1075.94
703.55	1080.39
703.88	1070.33
704.22	1081.09
704.55	1082.73
704.89	1076.41
705.23	1077.82
705.56	1084.37
705.90	1081.09
706.23	1085.07
706.57	1090.46
706.91	1082.50
707.24	1083.90
707.58	1080.86
707.91	1084.37
708.25	1076.88
708.58	1076.18
708.92	1079.22
709.26	1079.46
709.59	1076.18
709.93	1084.37
710.26	1088.35
710.60	1075.94
710.93	1075.94
711.27	1076.41
711.60	1067.28
711.94	1078.99
712.27	1082.50
712.61	1084.60
712.94	1084.84
713.28	1085.31
713.61	1073.84
713.95	1075.24
714.28	1070.80
714.62	1072.90
714.95	1077.82
715.29	1083.20
715.62	1075.71
715.96	1080.39
716.29	1080.63
716.63	1086.71
716.96	1073.60
717.29	1079.22
717.63	1071.03
717.96	1072.43
718.30	1071.03
718.63	1090.46
718.97	1085.54
719.30	1088.35
719.63	1088.12
719.97	1084.84
720.30	1083.20
720.64	1084.84
720.97	1092.33
721.30	1088.35
721.64	1100.52
721.97	1088.12
722.31	1098.41
722.64	1093.03
722.97	1098.18
723.31	1094.67
723.64	1108.24
723.97	1103.56
724.31	1103.09
724.64	1096.54
724.98	1094.20
725.31	1082.73
725.64	1090.46
725.98	1088.58
726.31	1092.33
726.64	1082.50
726.97	1091.39
727.31	1082.03
727.64	1091.63
727.97	1086.24
728.31	1089.75
728.64	1085.77
728.97	1093.03
729.31	1089.75
729.64	1083.67
729.97	1081.80
730.30	1074.31
730.64	1074.54
730.97	1080.16
731.30	1092.33
731.63	1082.73
731.97	1097.24
732.30	1085.07
732.63	1074.54
732.96	1074.54
733.30	1090.69
733.63	1086.24
733.96	1094.67
734.29	1098.88
734.63	1090.92
734.96	1090.22
735.29	1080.86
735.62	1073.60
735.95	1073.37
736.29	1080.63
736.62	1070.56
736.95	1087.18
737.28	1087.65
737.61	1089.52
737.94	1089.29
738.28	1092.56
738.61	1084.37
738.94	1093.97
739.27	1081.80
739.60	1079.69
739.93	1078.99
740.27	1076.65
740.60	1078.99
740.93	1089.29
741.26	1093.97
741.59	1092.56
741.92	1091.86
742.25	1088.12
742.58	1084.84
742.91	1083.43
743.25	1097.48
743.58	1089.99
743.91	1077.82
744.24	1083.20
744.57	1080.86
744.90	1072.43
745.23	1081.80
745.56	1090.92
745.89	1089.99
746.22	1086.48
746.55	1088.12
746.88	1089.75
747.21	1086.24
747.54	1078.05
747.87	1085.31
748.20	1083.43
748.53	1080.86
748.87	1084.14
749.20	1091.16
749.53	1100.75
749.86	1109.88
750.19	1114.10
750.52	1120.88
750.85	1115.50
751.18	1105.90
751.51	1095.60
751.84	1088.58
752.16	1089.05
752.49	1093.26
752.82	1090.92
753.15	1096.78
753.48	1089.29
753.81	1076.88
754.14	1066.58
754.47	1067.52
754.80	1062.14
755.13	1075.48
755.46	1084.60
755.79	1089.52
756.12	1092.09
756.45	1095.14
756.78	1089.99
757.11	1084.84
757.43	1081.09
757.76	1074.31
758.09	1072.20
758.42	1070.56
758.75	1075.71
759.08	1091.63
759.41	1097.48
759.74	1093.03
760.07	1091.86
760.39	1090.92
760.72	1085.54
761.05	1083.43
761.38	1087.88
761.71	1086.48
762.04	1079.46
762.36	1074.07
762.69	1066.82
763.02	1067.99
763.35	1076.88
763.68	1084.84
764.01	1084.14
764.33	1092.33
764.66	1092.80
764.99	1077.82
765.32	1067.99
765.65	1076.41
765.97	1070.33
766.30	1064.48
