SpectraSuite Data File
++++++++++++++++++++++++++++++++++++
Date: Mon Aug 26 10:25:56 PDT 2019
User: corrico
Dark Spectrum Present: No
Reference Spectrum Present: No
Number of Sampled Component Spectra: 1
Spectrometers: USB2+H06089
Integration Time (usec): 10000 (USB2+H06089)
Spectra Averaged: 2 (USB2+H06089)
Boxcar Smoothing: 2 (USB2+H06089)
Correct for Electrical Dark: No (USB2+H06089)
Strobe/Lamp Enabled: No (USB2+H06089)
Correct for Detector Non-linearity: No (USB2+H06089)
Correct for Stray Light: No (USB2+H06089)
Number of Pixels in Processed Spectrum: 2048
>>>>>Begin Processed Spectral Data<<<<<
339.70	1033.35
340.07	1033.35
340.45	999.64
340.82	982.09
341.19	962.90
341.57	938.79
341.94	927.09
342.31	914.45
342.69	915.85
343.06	917.02
343.43	920.77
343.81	911.87
344.18	924.04
344.55	912.57
344.93	911.40
345.30	907.89
345.67	918.89
346.04	922.41
346.42	939.49
346.79	940.43
347.16	945.34
347.54	951.43
347.91	954.00
348.28	962.66
348.65	981.85
349.03	989.34
349.40	1003.15
349.77	1020.71
350.14	1025.86
350.52	1021.41
350.89	1029.13
351.26	1039.20
351.63	1033.11
352.01	1038.50
352.38	1046.92
352.75	1062.14
353.12	1059.56
353.50	1072.20
353.87	1070.33
354.24	1068.22
354.61	1064.01
354.98	1067.28
355.36	1066.82
355.73	1066.35
356.10	1066.11
356.47	1076.88
356.84	1080.63
357.22	1086.01
357.59	1089.05
357.96	1097.24
358.33	1089.99
358.70	1090.69
359.08	1081.56
359.45	1075.24
359.82	1073.14
360.19	1073.37
360.56	1065.18
360.94	1077.35
361.31	1082.03
361.68	1082.26
362.05	1073.37
362.42	1070.80
362.79	1066.82
363.16	1069.16
363.54	1064.48
363.91	1068.92
364.28	1076.65
364.65	1066.82
365.02	1068.45
365.39	1072.43
365.76	1076.18
366.14	1073.60
366.51	1074.54
366.88	1078.75
367.25	1078.05
367.62	1071.73
367.99	1073.14
368.36	1070.80
368.73	1060.96
369.10	1065.18
369.48	1069.62
369.85	1062.60
370.22	1072.43
370.59	1075.94
370.96	1062.37
371.33	1062.14
371.70	1072.43
372.07	1075.01
372.44	1081.56
372.81	1100.99
373.18	1093.50
373.55	1081.33
373.93	1071.03
374.30	1069.86
374.67	1064.71
375.04	1076.18
375.41	1087.18
375.78	1090.69
376.15	1078.28
376.52	1073.84
376.89	1072.43
377.26	1073.60
377.63	1074.31
378.00	1089.75
378.37	1093.50
378.74	1085.31
379.11	1079.22
379.48	1077.58
379.85	1063.31
380.22	1054.88
380.59	1053.01
380.96	1055.35
381.33	1060.73
381.70	1072.90
382.07	1076.88
382.44	1078.28
382.81	1077.11
383.18	1082.50
383.55	1074.07
383.92	1072.90
384.29	1075.71
384.66	1081.56
385.03	1072.67
385.40	1078.28
385.77	1081.56
386.14	1086.48
386.51	1082.73
386.88	1080.16
387.25	1079.46
387.62	1078.52
387.99	1068.69
388.36	1067.05
388.73	1069.62
389.10	1072.67
389.46	1076.65
389.83	1092.09
390.20	1092.09
390.57	1099.12
390.94	1106.14
391.31	1100.52
391.68	1087.65
392.05	1089.29
392.42	1072.43
392.79	1051.60
393.16	1050.43
393.53	1046.92
393.89	1041.54
394.26	1062.84
394.63	1068.92
395.00	1070.09
395.37	1072.67
395.74	1074.31
396.11	1067.28
396.48	1069.39
396.84	1068.69
397.21	1073.14
397.58	1080.16
397.95	1070.09
398.32	1066.35
398.69	1063.77
399.06	1060.03
399.42	1050.20
399.79	1052.54
400.16	1051.37
400.53	1055.58
400.90	1062.60
401.27	1064.01
401.64	1071.03
402.00	1068.22
402.37	1066.35
402.74	1070.56
403.11	1074.77
403.48	1069.39
403.84	1073.60
404.21	1086.01
404.58	1079.69
404.95	1078.75
405.32	1079.22
405.68	1078.05
406.05	1070.80
406.42	1074.77
406.79	1072.20
407.16	1075.71
407.52	1079.92
407.89	1082.03
408.26	1078.28
408.63	1084.14
408.99	1084.14
409.36	1081.09
409.73	1082.97
410.10	1092.80
410.47	1099.12
410.83	1104.50
411.20	1107.07
411.57	1098.41
411.94	1099.35
412.30	1092.33
412.67	1098.18
413.04	1095.60
413.40	1089.99
413.77	1078.99
414.14	1079.22
414.51	1075.71
414.87	1084.14
415.24	1090.69
415.61	1094.67
415.97	1088.82
416.34	1072.43
416.71	1063.31
417.08	1068.22
417.44	1067.99
417.81	1068.22
418.18	1071.03
418.54	1070.56
418.91	1068.45
419.28	1061.67
419.64	1070.80
420.01	1076.88
420.38	1080.16
420.74	1083.43
421.11	1083.20
421.48	1075.94
421.84	1082.97
422.21	1073.84
422.58	1067.28
422.94	1067.05
423.31	1064.01
423.68	1050.43
424.04	1066.11
424.41	1061.43
424.77	1066.82
425.14	1068.45
425.51	1078.52
425.87	1072.90
426.24	1079.69
426.61	1090.22
426.97	1097.24
427.34	1091.16
427.70	1087.41
428.07	1091.16
428.44	1074.77
428.80	1063.77
429.17	1061.43
429.53	1068.22
429.90	1062.60
430.27	1068.22
430.63	1070.33
431.00	1071.26
431.36	1067.52
431.73	1069.39
432.09	1066.35
432.46	1071.97
432.83	1067.05
433.19	1067.99
433.56	1066.82
433.92	1072.67
434.29	1075.94
434.65	1076.41
435.02	1074.07
435.38	1074.54
435.75	1066.58
436.11	1061.20
436.48	1067.28
436.84	1073.14
437.21	1077.58
437.57	1086.24
437.94	1085.07
438.30	1082.73
438.67	1067.05
439.03	1058.16
439.40	1059.33
439.76	1065.41
440.13	1068.45
440.49	1081.09
440.86	1083.67
441.22	1071.73
441.59	1068.69
441.95	1061.67
442.32	1061.43
442.68	1063.07
443.05	1073.14
443.41	1070.80
443.78	1069.62
444.14	1067.28
444.51	1070.56
444.87	1069.16
445.24	1074.54
445.60	1082.03
445.96	1081.80
446.33	1083.67
446.69	1083.90
447.06	1078.05
447.42	1086.94
447.79	1086.48
448.15	1080.16
448.51	1080.16
448.88	1074.31
449.24	1075.24
449.61	1083.43
449.97	1079.69
450.33	1080.63
450.70	1088.82
451.06	1083.20
451.43	1080.63
451.79	1084.84
452.15	1071.03
452.52	1064.01
452.88	1064.94
453.24	1067.75
453.61	1074.07
453.97	1088.82
454.34	1092.33
454.70	1093.50
455.06	1089.99
455.43	1082.26
455.79	1074.31
456.15	1073.84
456.52	1065.88
456.88	1055.82
457.24	1063.07
457.61	1063.07
457.97	1067.52
458.33	1060.73
458.70	1060.96
459.06	1059.79
459.42	1069.39
459.79	1068.69
460.15	1069.62
460.51	1072.67
460.88	1070.09
461.24	1065.18
461.60	1063.77
461.96	1075.01
462.33	1082.97
462.69	1082.03
463.05	1085.31
463.42	1075.24
463.78	1071.73
464.14	1065.65
464.50	1060.26
464.87	1053.71
465.23	1061.90
465.59	1058.86
465.95	1064.71
466.32	1067.05
466.68	1067.99
467.04	1071.26
467.40	1063.31
467.77	1068.69
468.13	1070.33
468.49	1075.71
468.85	1069.62
469.22	1085.31
469.58	1074.54
469.94	1088.35
470.30	1088.12
470.66	1094.43
471.03	1093.26
471.39	1099.35
471.75	1093.97
472.11	1091.39
472.47	1095.84
472.84	1089.99
473.20	1082.73
473.56	1081.33
473.92	1087.18
474.28	1087.65
474.65	1100.52
475.01	1109.18
475.37	1104.97
475.73	1097.95
476.09	1093.26
476.45	1087.88
476.81	1084.84
477.18	1089.52
477.54	1098.41
477.90	1104.50
478.26	1103.56
478.62	1095.14
478.98	1094.90
479.34	1076.18
479.71	1068.45
480.07	1063.31
480.43	1069.62
480.79	1066.58
481.15	1081.33
481.51	1077.11
481.87	1076.65
482.23	1070.56
482.59	1071.26
482.96	1071.26
483.32	1079.22
483.68	1086.24
484.04	1087.88
484.40	1088.12
484.76	1092.80
485.12	1102.16
485.48	1102.16
485.84	1110.82
486.20	1105.44
486.56	1099.12
486.92	1091.39
487.28	1088.12
487.64	1076.65
488.00	1084.60
488.37	1080.16
488.73	1073.37
489.09	1069.86
489.45	1096.54
489.81	1089.75
490.17	1096.07
490.53	1098.18
490.89	1096.78
491.25	1077.35
491.61	1080.39
491.97	1085.31
492.33	1086.24
492.69	1085.77
493.05	1087.65
493.41	1087.88
493.77	1081.80
494.13	1087.18
494.49	1091.39
494.85	1089.99
495.21	1091.63
495.57	1084.60
495.93	1069.62
496.29	1069.16
496.64	1062.60
497.00	1054.18
497.36	1066.82
497.72	1083.20
498.08	1084.60
498.44	1100.99
498.80	1103.56
499.16	1092.80
499.52	1088.58
499.88	1095.14
500.24	1087.41
500.60	1089.75
500.96	1089.75
501.32	1084.84
501.68	1077.58
502.03	1077.82
502.39	1080.16
502.75	1088.12
503.11	1087.65
503.47	1089.29
503.83	1091.86
504.19	1088.58
504.55	1078.99
504.91	1080.86
505.26	1082.97
505.62	1071.73
505.98	1077.82
506.34	1083.90
506.70	1086.94
507.06	1087.65
507.42	1094.20
507.78	1088.58
508.13	1080.63
508.49	1076.88
508.85	1077.58
509.21	1084.84
509.57	1097.48
509.93	1093.73
510.28	1093.26
510.64	1094.67
511.00	1093.97
511.36	1080.86
511.72	1091.63
512.07	1099.58
512.43	1096.54
512.79	1093.97
513.15	1091.16
513.51	1084.37
513.86	1087.18
514.22	1086.48
514.58	1071.73
514.94	1076.88
515.30	1082.03
515.65	1078.28
516.01	1077.11
516.37	1084.14
516.73	1088.82
517.08	1092.09
517.44	1090.69
517.80	1089.52
518.16	1098.41
518.51	1098.18
518.87	1095.60
519.23	1095.37
519.59	1100.05
519.94	1093.26
520.30	1091.39
520.66	1090.92
521.01	1089.52
521.37	1094.20
521.73	1098.18
522.09	1099.82
522.44	1097.48
522.80	1103.80
523.16	1095.84
523.51	1100.29
523.87	1100.52
524.23	1103.09
524.58	1092.56
524.94	1092.80
525.30	1075.48
525.65	1079.92
526.01	1081.80
526.37	1085.54
526.72	1088.58
527.08	1095.84
527.44	1083.43
527.79	1083.43
528.15	1093.26
528.51	1100.75
528.86	1099.82
529.22	1101.92
529.58	1100.99
529.93	1083.20
530.29	1070.56
530.65	1079.69
531.00	1082.03
531.36	1091.39
531.71	1099.82
532.07	1100.29
532.43	1096.78
532.78	1098.41
533.14	1100.75
533.49	1088.12
533.85	1093.73
534.21	1089.99
534.56	1101.69
534.92	1090.22
535.27	1101.92
535.63	1095.37
535.98	1097.95
536.34	1082.03
536.69	1075.24
537.05	1078.52
537.41	1075.71
537.76	1076.18
538.12	1064.48
538.47	1073.37
538.83	1073.14
539.18	1071.50
539.54	1072.67
539.89	1089.75
540.25	1086.24
540.60	1080.39
540.96	1080.63
541.31	1076.88
541.67	1064.24
542.02	1071.03
542.38	1075.01
542.73	1081.56
543.09	1087.88
543.44	1095.14
543.80	1086.71
544.15	1077.58
544.51	1076.88
544.86	1075.48
545.22	1070.80
545.57	1075.01
545.93	1072.43
546.28	1072.67
546.64	1069.86
546.99	1069.86
547.35	1074.77
547.70	1087.41
548.05	1085.31
548.41	1085.07
548.76	1091.16
549.12	1089.05
549.47	1086.48
549.83	1091.63
550.18	1090.46
550.53	1096.31
550.89	1094.43
551.24	1096.54
551.60	1088.82
551.95	1088.12
552.30	1084.37
552.66	1084.14
553.01	1079.22
553.37	1079.92
553.72	1084.84
554.07	1085.77
554.43	1088.35
554.78	1089.75
555.13	1082.50
555.49	1070.33
555.84	1072.20
556.19	1065.18
556.55	1064.48
556.90	1072.90
557.26	1083.43
557.61	1084.14
557.96	1093.26
558.32	1101.92
558.67	1101.92
559.02	1091.63
559.37	1087.18
559.73	1085.77
560.08	1086.01
560.43	1093.50
560.79	1100.05
561.14	1108.48
561.49	1104.73
561.85	1092.80
562.20	1085.54
562.55	1096.54
562.90	1090.22
563.26	1094.90
563.61	1097.01
563.96	1097.71
564.32	1090.22
564.67	1092.56
565.02	1091.86
565.37	1104.26
565.73	1110.12
566.08	1110.35
566.43	1099.82
566.78	1092.56
567.14	1088.58
567.49	1081.56
567.84	1077.35
568.19	1086.94
568.54	1088.35
568.90	1074.07
569.25	1081.80
569.60	1088.58
569.95	1078.52
570.31	1078.75
570.66	1089.29
571.01	1082.50
571.36	1078.52
571.71	1088.12
572.06	1100.75
572.42	1099.35
572.77	1094.43
573.12	1092.09
573.47	1098.65
573.82	1094.67
574.18	1093.73
574.53	1099.58
574.88	1093.26
575.23	1089.75
575.58	1076.88
575.93	1078.28
576.28	1077.58
576.64	1078.75
576.99	1073.14
577.34	1067.99
577.69	1076.65
578.04	1077.58
578.39	1095.37
578.74	1089.29
579.09	1097.24
579.44	1086.94
579.80	1088.35
580.15	1080.86
580.50	1080.63
580.85	1077.58
581.20	1078.05
581.55	1072.20
581.90	1071.73
582.25	1069.39
582.60	1070.33
582.95	1065.18
583.30	1065.65
583.65	1067.05
584.00	1081.56
584.35	1084.37
584.71	1091.86
585.06	1102.39
585.41	1099.35
585.76	1099.58
586.11	1101.69
586.46	1103.80
586.81	1104.97
587.16	1104.73
587.51	1096.78
587.86	1092.09
588.21	1096.31
588.56	1086.94
588.91	1081.33
589.26	1082.73
589.61	1086.48
589.96	1074.77
590.31	1078.99
590.66	1083.43
591.01	1079.46
591.36	1082.26
591.71	1093.50
592.06	1079.22
592.41	1070.09
592.76	1074.54
593.10	1072.20
593.45	1055.58
593.80	1076.18
594.15	1077.11
594.50	1069.16
594.85	1069.39
595.20	1078.05
595.55	1073.84
595.90	1075.24
596.25	1086.71
596.60	1087.41
596.95	1095.37
597.30	1086.71
597.64	1146.86
597.99	1143.59
598.34	1139.84
598.69	1139.14
599.04	1137.73
599.39	1094.20
599.74	1093.50
600.09	1094.20
600.44	1086.71
600.78	1098.65
601.13	1092.33
601.48	1091.63
601.83	1092.80
602.18	1082.97
602.53	1077.58
602.88	1073.14
603.22	1068.45
603.57	1068.69
603.92	1078.99
604.27	1072.43
604.62	1063.54
604.97	1067.52
605.31	1075.94
605.66	1074.77
606.01	1074.54
606.36	1074.07
606.71	1074.07
607.05	1060.73
607.40	1062.84
607.75	1069.86
608.10	1076.88
608.44	1065.18
608.79	1068.69
609.14	1057.45
609.49	1064.24
609.84	1068.22
610.18	1087.88
610.53	1093.50
610.88	1109.88
611.23	1112.92
611.57	1108.24
611.92	1100.05
612.27	1088.12
612.62	1077.82
612.96	1067.05
613.31	1071.97
613.66	1072.20
614.00	1084.37
614.35	1086.01
614.70	1085.77
615.05	1079.92
615.39	1075.71
615.74	1067.05
616.09	1080.86
616.43	1084.84
616.78	1089.99
617.13	1090.69
617.47	1090.46
617.82	1084.60
618.17	1080.63
618.51	1082.03
618.86	1082.73
619.21	1090.92
619.55	1089.29
619.90	1091.63
620.25	1090.92
620.59	1086.01
620.94	1073.60
621.29	1068.45
621.63	1064.24
621.98	1063.31
622.32	1068.45
622.67	1077.58
623.02	1082.97
623.36	1089.75
623.71	1086.01
624.05	1086.48
624.40	1076.65
624.75	1071.26
625.09	1074.31
625.44	1083.67
625.78	1086.24
626.13	1090.46
626.48	1095.14
626.82	1081.80
627.17	1069.62
627.51	1062.37
627.86	1068.45
628.20	1065.88
628.55	1071.50
628.89	1078.99
629.24	1084.60
629.58	1081.33
629.93	1084.14
630.28	1086.01
630.62	1079.46
630.97	1076.65
631.31	1075.01
631.66	1069.86
632.00	1074.54
632.35	1075.01
632.69	1086.24
633.04	1093.73
633.38	1086.94
633.73	1075.94
634.07	1080.39
634.42	1065.41
634.76	1059.79
635.11	1065.18
635.45	1070.09
635.79	1066.35
636.14	1076.41
636.48	1075.48
636.83	1074.07
637.17	1081.09
637.52	1092.56
637.86	1088.58
638.21	1088.12
638.55	1093.03
638.89	1085.07
639.24	1080.63
639.58	1081.80
639.93	1081.33
640.27	1083.90
640.61	1089.75
640.96	1088.82
641.30	1079.22
641.65	1083.20
641.99	1084.84
642.33	1073.60
642.68	1071.73
643.02	1085.07
643.37	1087.18
643.71	1078.99
644.05	1091.16
644.40	1093.03
644.74	1087.41
645.08	1072.67
645.43	1075.48
645.77	1067.99
646.11	1061.90
646.46	1066.11
646.80	1076.88
647.14	1074.77
647.49	1082.50
647.83	1083.67
648.17	1080.16
648.52	1083.20
648.86	1078.99
649.20	1068.45
649.55	1067.75
649.89	1070.09
650.23	1067.05
650.57	1070.33
650.92	1065.88
651.26	1069.39
651.60	1077.58
651.95	1086.01
652.29	1096.78
652.63	1106.84
652.97	1117.37
653.32	1104.73
653.66	1102.86
654.00	1094.20
654.34	1096.07
654.69	1088.58
655.03	1090.69
655.37	1083.43
655.71	1087.41
656.05	1081.80
656.40	1084.60
656.74	1083.20
657.08	1079.22
657.42	1075.71
657.76	1079.22
658.11	1074.77
658.45	1077.35
658.79	1078.75
659.13	1082.50
659.47	1086.01
659.82	1089.99
660.16	1095.37
660.50	1101.22
660.84	1093.03
661.18	1092.80
661.52	1092.09
661.87	1087.41
662.21	1086.01
662.55	1086.94
662.89	1085.07
663.23	1082.26
663.57	1079.69
663.91	1077.11
664.25	1085.07
664.60	1080.16
664.94	1076.65
665.28	1072.43
665.62	1078.28
665.96	1078.75
666.30	1077.58
666.64	1079.92
666.98	1084.37
667.32	1078.52
667.66	1072.90
668.01	1073.60
668.35	1073.37
668.69	1078.52
669.03	1076.18
669.37	1075.24
669.71	1087.41
670.05	1085.54
670.39	1087.41
670.73	1094.43
671.07	1099.82
671.41	1091.16
671.75	1090.92
672.09	1086.24
672.43	1079.22
672.77	1073.84
673.11	1068.22
673.45	1067.52
673.79	1063.31
674.13	1062.37
674.47	1065.18
674.81	1067.28
675.15	1071.50
675.49	1073.37
675.83	1077.82
676.17	1083.67
676.51	1086.24
676.85	1084.37
677.19	1075.94
677.53	1079.22
677.87	1065.18
678.21	1063.31
678.55	1071.50
678.89	1080.86
679.23	1064.24
679.57	1069.62
679.90	1068.22
680.24	1063.77
680.58	1063.77
680.92	1082.26
681.26	1083.43
681.60	1086.71
681.94	1087.65
682.28	1084.60
682.62	1087.41
682.96	1091.86
683.29	1093.73
683.63	1077.58
683.97	1083.43
684.31	1071.97
684.65	1069.62
684.99	1068.69
685.33	1071.50
685.67	1075.94
686.00	1076.88
686.34	1079.46
686.68	1069.16
687.02	1076.41
687.36	1072.67
687.70	1083.20
688.03	1079.22
688.37	1085.31
688.71	1084.14
689.05	1094.20
689.39	1093.50
689.72	1088.35
690.06	1092.33
690.40	1092.80
690.74	1081.09
691.08	1065.88
691.41	1076.65
691.75	1074.31
692.09	1075.71
692.43	1071.50
692.76	1081.80
693.10	1079.22
693.44	1084.37
693.78	1083.67
694.11	1092.09
694.45	1090.92
694.79	1093.73
695.13	1082.03
695.46	1085.54
695.80	1080.86
696.14	1078.99
696.48	1075.24
696.81	1088.12
697.15	1093.03
697.49	1094.43
697.82	1089.75
698.16	1086.24
698.50	1073.84
698.83	1069.16
699.17	1065.18
699.51	1071.73
699.84	1080.16
700.18	1086.24
700.52	1070.33
700.85	1071.26
701.19	1071.97
701.53	1076.65
701.86	1071.03
702.20	1079.69
702.54	1082.50
702.87	1084.60
703.21	1075.94
703.55	1079.92
703.88	1085.07
704.22	1077.82
704.55	1076.41
704.89	1076.18
705.23	1079.69
705.56	1081.33
705.90	1081.33
706.23	1084.84
706.57	1085.07
706.91	1082.26
707.24	1083.20
707.58	1089.99
707.91	1080.16
708.25	1072.43
708.58	1077.11
708.92	1074.07
709.26	1072.20
709.59	1073.14
709.93	1079.22
710.26	1084.37
710.60	1087.18
710.93	1080.16
711.27	1080.86
711.60	1084.60
711.94	1081.56
712.27	1080.63
712.61	1092.56
712.94	1093.97
713.28	1090.46
713.61	1090.22
713.95	1089.75
714.28	1078.75
714.62	1073.84
714.95	1069.16
715.29	1062.60
715.62	1063.07
715.96	1072.43
716.29	1081.56
716.63	1077.11
716.96	1075.94
717.29	1072.90
717.63	1070.80
717.96	1071.50
718.30	1081.33
718.63	1078.05
718.97	1078.99
719.30	1074.54
719.63	1068.22
719.97	1069.86
720.30	1086.94
720.64	1083.20
720.97	1085.31
721.30	1096.54
721.64	1087.88
721.97	1075.94
722.31	1082.73
722.64	1089.05
722.97	1077.11
723.31	1077.58
723.64	1077.35
723.97	1075.24
724.31	1079.69
724.64	1083.43
724.98	1091.16
725.31	1096.31
725.64	1103.56
725.98	1098.88
726.31	1106.14
726.64	1099.82
726.97	1091.16
727.31	1088.58
727.64	1084.37
727.97	1075.94
728.31	1079.46
728.64	1088.35
728.97	1089.75
729.31	1088.58
729.64	1093.73
729.97	1097.24
730.30	1098.88
730.64	1093.03
730.97	1102.16
731.30	1098.65
731.63	1097.95
731.97	1085.31
732.30	1082.73
732.63	1068.69
732.96	1074.07
733.30	1079.92
733.63	1084.37
733.96	1081.09
734.29	1086.48
734.63	1078.52
734.96	1070.56
735.29	1073.84
735.62	1077.35
735.95	1079.92
736.29	1082.26
736.62	1081.56
736.95	1086.71
737.28	1093.73
737.61	1099.82
737.94	1098.41
738.28	1092.80
738.61	1090.46
738.94	1087.65
739.27	1085.31
739.60	1088.82
739.93	1091.86
740.27	1094.20
740.60	1085.31
740.93	1084.84
741.26	1073.14
741.59	1064.94
741.92	1064.48
742.25	1075.94
742.58	1071.97
742.91	1089.52
743.25	1099.58
743.58	1094.43
743.91	1093.50
744.24	1096.54
744.57	1092.09
744.90	1089.75
745.23	1086.01
745.56	1094.90
745.89	1086.71
746.22	1081.80
746.55	1080.16
746.88	1080.86
747.21	1067.99
747.54	1065.88
747.87	1065.65
748.20	1061.90
748.53	1050.43
748.87	1052.07
749.20	1059.09
749.53	1059.56
749.86	1060.26
750.19	1071.50
750.52	1067.75
750.85	1061.67
751.18	1058.62
751.51	1063.54
751.84	1071.26
752.16	1074.54
752.49	1084.14
752.82	1093.03
753.15	1099.35
753.48	1097.24
753.81	1098.41
754.14	1094.43
754.47	1091.86
754.80	1083.43
755.13	1089.29
755.46	1084.60
755.79	1086.01
756.12	1089.75
756.45	1100.99
756.78	1092.56
757.11	1095.84
757.43	1104.73
757.76	1106.14
758.09	1099.35
758.42	1101.22
758.75	1105.44
759.08	1093.97
759.41	1083.90
759.74	1085.31
760.07	1078.52
760.39	1072.20
760.72	1068.92
761.05	1064.94
761.38	1057.45
761.71	1067.75
762.04	1080.86
762.36	1083.20
762.69	1088.35
763.02	1099.82
763.35	1085.31
763.68	1081.56
764.01	1086.24
764.33	1090.69
764.66	1084.14
764.99	1082.50
765.32	1066.35
765.65	1057.92
765.97	1049.73
766.30	1050.43
