SpectraSuite Data File
++++++++++++++++++++++++++++++++++++
Date: Mon Aug 26 10:25:56 PDT 2019
User: corrico
Dark Spectrum Present: No
Reference Spectrum Present: No
Number of Sampled Component Spectra: 1
Spectrometers: USB2+H06089
Integration Time (usec): 10000 (USB2+H06089)
Spectra Averaged: 2 (USB2+H06089)
Boxcar Smoothing: 2 (USB2+H06089)
Correct for Electrical Dark: No (USB2+H06089)
Strobe/Lamp Enabled: No (USB2+H06089)
Correct for Detector Non-linearity: No (USB2+H06089)
Correct for Stray Light: No (USB2+H06089)
Number of Pixels in Processed Spectrum: 2048
>>>>>Begin Processed Spectral Data<<<<<
339.70	993.56
340.07	993.56
340.45	978.11
340.82	962.43
341.19	952.60
341.57	931.07
341.94	928.49
342.31	920.30
342.69	913.51
343.06	899.23
343.43	905.55
343.81	891.28
344.18	884.96
344.55	879.34
344.93	886.83
345.30	892.21
345.67	902.04
346.04	913.75
346.42	932.00
346.79	946.28
347.16	956.34
347.54	968.28
347.91	979.28
348.28	993.56
348.65	996.60
349.03	1001.52
349.40	1006.20
349.77	1012.52
350.14	1010.41
350.52	1020.47
350.89	1024.92
351.26	1035.92
351.63	1033.58
352.01	1042.47
352.38	1043.18
352.75	1048.79
353.12	1051.84
353.50	1056.99
353.87	1060.03
354.24	1065.18
354.61	1066.82
354.98	1071.03
355.36	1083.43
355.73	1083.67
356.10	1079.22
356.47	1084.14
356.84	1080.16
357.22	1075.71
357.59	1073.37
357.96	1078.75
358.33	1075.48
358.70	1061.67
359.08	1058.86
359.45	1061.90
359.82	1058.39
360.19	1054.41
360.56	1062.84
360.94	1066.58
361.31	1068.69
361.68	1062.60
362.05	1066.58
362.42	1078.28
362.79	1071.97
363.16	1077.58
363.54	1080.39
363.91	1082.97
364.28	1073.37
364.65	1071.73
365.02	1066.58
365.39	1072.20
365.76	1063.77
366.14	1064.71
366.51	1076.18
366.88	1069.62
367.25	1066.82
367.62	1072.90
367.99	1075.71
368.36	1070.09
368.73	1065.88
369.10	1065.18
369.48	1073.37
369.85	1070.33
370.22	1074.54
370.59	1082.73
370.96	1082.50
371.33	1072.43
371.70	1070.09
372.07	1061.90
372.44	1069.16
372.81	1068.69
373.18	1072.20
373.55	1079.69
373.93	1090.22
374.30	1080.86
374.67	1084.60
375.04	1076.88
375.41	1079.69
375.78	1074.07
376.15	1076.41
376.52	1077.11
376.89	1082.50
377.26	1081.09
377.63	1084.84
378.00	1091.16
378.37	1088.35
378.74	1078.75
379.11	1066.11
379.48	1069.62
379.85	1075.71
380.22	1072.90
380.59	1077.82
380.96	1077.35
381.33	1068.45
381.70	1047.16
382.07	1058.16
382.44	1066.11
382.81	1067.05
383.18	1074.07
383.55	1081.80
383.92	1078.05
384.29	1073.84
384.66	1093.97
385.03	1086.24
385.40	1096.07
385.77	1099.58
386.14	1085.07
386.51	1070.80
386.88	1072.20
387.25	1063.07
387.62	1057.22
387.99	1068.22
388.36	1066.11
388.73	1068.22
389.10	1067.52
389.46	1063.77
389.83	1069.39
390.20	1080.86
390.57	1074.31
390.94	1077.11
391.31	1085.31
391.68	1083.20
392.05	1070.56
392.42	1075.94
392.79	1066.35
393.16	1061.90
393.53	1061.90
393.89	1071.03
394.26	1067.05
394.63	1068.22
395.00	1071.50
395.37	1074.07
395.74	1072.20
396.11	1078.99
396.48	1089.05
396.84	1085.07
397.21	1078.99
397.58	1078.99
397.95	1074.54
398.32	1074.31
398.69	1069.16
399.06	1071.97
399.42	1067.75
399.79	1072.67
400.16	1063.54
400.53	1065.65
400.90	1071.97
401.27	1078.28
401.64	1069.62
402.00	1073.14
402.37	1081.33
402.74	1077.11
403.11	1083.20
403.48	1092.33
403.84	1096.07
404.21	1093.73
404.58	1097.48
404.95	1091.16
405.32	1094.43
405.68	1086.71
406.05	1089.75
406.42	1080.86
406.79	1072.67
407.16	1074.07
407.52	1076.88
407.89	1071.97
408.26	1074.77
408.63	1086.01
408.99	1075.94
409.36	1078.99
409.73	1075.48
410.10	1078.28
410.47	1076.88
410.83	1077.11
411.20	1079.22
411.57	1083.90
411.94	1079.92
412.30	1077.58
412.67	1075.71
413.04	1071.73
413.40	1074.77
413.77	1075.01
414.14	1065.88
414.51	1068.69
414.87	1072.67
415.24	1062.84
415.61	1070.80
415.97	1074.31
416.34	1074.54
416.71	1068.45
417.08	1080.39
417.44	1073.60
417.81	1072.20
418.18	1072.43
418.54	1075.24
418.91	1064.71
419.28	1060.50
419.64	1060.03
420.01	1064.94
420.38	1067.75
420.74	1066.11
421.11	1069.39
421.48	1077.11
421.84	1073.60
422.21	1077.58
422.58	1082.03
422.94	1080.86
423.31	1076.88
423.68	1081.33
424.04	1075.01
424.41	1083.20
424.77	1085.54
425.14	1089.29
425.51	1075.71
425.87	1073.14
426.24	1072.20
426.61	1074.77
426.97	1070.33
427.34	1084.37
427.70	1092.09
428.07	1077.58
428.44	1071.26
428.80	1077.35
429.17	1071.26
429.53	1072.20
429.90	1077.11
430.27	1074.07
430.63	1064.71
431.00	1063.77
431.36	1054.65
431.73	1062.60
432.09	1065.88
432.46	1074.54
432.83	1076.18
433.19	1073.84
433.56	1075.71
433.92	1078.28
434.29	1085.07
434.65	1081.09
435.02	1094.20
435.38	1094.20
435.75	1092.56
436.11	1076.88
436.48	1074.31
436.84	1068.22
437.21	1068.22
437.57	1074.07
437.94	1083.90
438.30	1090.22
438.67	1082.26
439.03	1076.41
439.40	1072.20
439.76	1064.01
440.13	1064.48
440.49	1068.45
440.86	1065.65
441.22	1066.58
441.59	1059.09
441.95	1058.62
442.32	1069.39
442.68	1077.11
443.05	1076.18
443.41	1080.39
443.78	1082.26
444.14	1072.43
444.51	1073.60
444.87	1067.75
445.24	1073.60
445.60	1082.97
445.96	1084.60
446.33	1082.97
446.69	1087.88
447.06	1086.94
447.42	1076.88
447.79	1075.24
448.15	1071.03
448.51	1066.82
448.88	1064.71
449.24	1069.39
449.61	1070.33
449.97	1071.73
450.33	1073.14
450.70	1077.58
451.06	1072.67
451.43	1079.92
451.79	1077.58
452.15	1076.18
452.52	1077.11
452.88	1069.86
453.24	1064.48
453.61	1060.26
453.97	1057.22
454.34	1053.71
454.70	1061.67
455.06	1064.24
455.43	1064.94
455.79	1073.84
456.15	1075.01
456.52	1075.24
456.88	1065.18
457.24	1064.48
457.61	1063.31
457.97	1057.45
458.33	1051.60
458.70	1067.75
459.06	1075.01
459.42	1073.60
459.79	1070.33
460.15	1075.94
460.51	1074.77
460.88	1081.09
461.24	1083.67
461.60	1089.29
461.96	1079.92
462.33	1077.58
462.69	1064.24
463.05	1062.37
463.42	1067.75
463.78	1069.16
464.14	1060.73
464.50	1066.11
464.87	1071.97
465.23	1067.99
465.59	1073.84
465.95	1082.50
466.32	1078.99
466.68	1072.20
467.04	1073.37
467.40	1074.54
467.77	1069.39
468.13	1069.39
468.49	1069.39
468.85	1077.35
469.22	1076.65
469.58	1079.22
469.94	1081.56
470.30	1093.26
470.66	1082.03
471.03	1075.94
471.39	1074.31
471.75	1084.14
472.11	1073.60
472.47	1073.14
472.84	1076.41
473.20	1078.28
473.56	1077.58
473.92	1083.20
474.28	1079.22
474.65	1099.12
475.01	1100.75
475.37	1095.14
475.73	1096.07
476.09	1109.88
476.45	1100.75
476.81	1093.50
477.18	1094.20
477.54	1094.20
477.90	1091.63
478.26	1080.63
478.62	1084.14
478.98	1081.33
479.34	1071.73
479.71	1071.73
480.07	1075.94
480.43	1076.88
480.79	1067.75
481.15	1076.18
481.51	1073.60
481.87	1069.16
482.23	1069.62
482.59	1078.28
482.96	1070.33
483.32	1068.92
483.68	1060.96
484.04	1057.45
484.40	1058.86
484.76	1057.22
485.12	1056.99
485.48	1071.73
485.84	1069.62
486.20	1064.01
486.56	1078.05
486.92	1088.35
487.28	1085.54
487.64	1092.80
488.00	1092.56
488.37	1091.86
488.73	1081.80
489.09	1071.97
489.45	1069.86
489.81	1076.41
490.17	1067.52
490.53	1065.18
490.89	1078.99
491.25	1077.35
491.61	1082.26
491.97	1080.63
492.33	1081.56
492.69	1075.71
493.05	1076.41
493.41	1073.84
493.77	1078.28
494.13	1082.97
494.49	1081.56
494.85	1087.18
495.21	1080.16
495.57	1076.18
495.93	1078.99
496.29	1096.78
496.64	1092.33
497.00	1105.90
497.36	1104.97
497.72	1103.56
498.08	1095.37
498.44	1095.37
498.80	1079.22
499.16	1079.69
499.52	1076.41
499.88	1071.97
500.24	1075.24
500.60	1085.07
500.96	1083.67
501.32	1085.07
501.68	1085.31
502.03	1083.90
502.39	1085.07
502.75	1095.60
503.11	1089.05
503.47	1083.67
503.83	1079.22
504.19	1064.48
504.55	1054.18
504.91	1065.18
505.26	1062.60
505.62	1074.07
505.98	1080.39
506.34	1084.60
506.70	1077.58
507.06	1080.39
507.42	1081.33
507.78	1078.75
508.13	1086.94
508.49	1084.84
508.85	1082.97
509.21	1073.14
509.57	1080.16
509.93	1078.99
510.28	1084.60
510.64	1091.63
511.00	1094.43
511.36	1088.35
511.72	1088.12
512.07	1083.67
512.43	1086.48
512.79	1083.67
513.15	1087.88
513.51	1089.75
513.86	1098.41
514.22	1093.50
514.58	1096.31
514.94	1092.56
515.30	1088.35
515.65	1085.77
516.01	1084.14
516.37	1087.65
516.73	1096.31
517.08	1100.05
517.44	1096.54
517.80	1092.33
518.16	1086.48
518.51	1084.37
518.87	1080.39
519.23	1080.86
519.59	1100.75
519.94	1102.39
520.30	1107.78
520.66	1108.95
521.01	1100.99
521.37	1085.31
521.73	1083.43
522.09	1076.88
522.44	1079.22
522.80	1095.84
523.16	1103.09
523.51	1109.88
523.87	1111.29
524.23	1094.20
524.58	1080.63
524.94	1073.60
525.30	1071.97
525.65	1076.88
526.01	1093.26
526.37	1105.67
526.72	1105.90
527.08	1100.05
527.44	1102.39
527.79	1101.92
528.15	1101.46
528.51	1105.90
528.86	1096.54
529.22	1090.69
529.58	1093.03
529.93	1086.24
530.29	1094.67
530.65	1104.26
531.00	1097.01
531.36	1082.50
531.71	1087.18
532.07	1069.86
532.43	1079.22
532.78	1085.31
533.14	1102.86
533.49	1105.44
533.85	1122.05
534.21	1116.20
534.56	1123.46
534.92	1108.48
535.27	1096.78
535.63	1096.54
535.98	1092.80
536.34	1086.94
536.69	1094.43
537.05	1098.88
537.41	1091.16
537.76	1088.12
538.12	1084.84
538.47	1074.54
538.83	1080.63
539.18	1082.03
539.54	1085.54
539.89	1082.26
540.25	1096.31
540.60	1096.78
540.96	1091.86
541.31	1097.48
541.67	1103.09
542.02	1090.69
542.38	1080.86
542.73	1083.20
543.09	1082.97
543.44	1079.69
543.80	1092.33
544.15	1096.31
544.51	1099.35
544.86	1094.43
545.22	1095.37
545.57	1092.80
545.93	1090.92
546.28	1079.46
546.64	1081.80
546.99	1082.03
547.35	1076.88
547.70	1074.54
548.05	1074.54
548.41	1075.01
548.76	1068.22
549.12	1069.39
549.47	1066.82
549.83	1074.77
550.18	1068.45
550.53	1075.48
550.89	1082.97
551.24	1084.60
551.60	1079.92
551.95	1087.88
552.30	1084.14
552.66	1082.03
553.01	1090.92
553.37	1092.56
553.72	1085.54
554.07	1094.67
554.43	1083.67
554.78	1084.84
555.13	1096.78
555.49	1099.58
555.84	1091.39
556.19	1096.78
556.55	1091.16
556.90	1076.88
557.26	1074.31
557.61	1070.56
557.96	1074.54
558.32	1076.65
558.67	1082.97
559.02	1083.20
559.37	1090.92
559.73	1082.03
560.08	1078.99
560.43	1077.35
560.79	1078.52
561.14	1073.60
561.49	1076.65
561.85	1079.92
562.20	1087.18
562.55	1086.94
562.90	1085.54
563.26	1097.01
563.61	1094.67
563.96	1088.35
564.32	1083.90
564.67	1083.67
565.02	1080.16
565.37	1079.46
565.73	1082.03
566.08	1087.41
566.43	1088.12
566.78	1072.90
567.14	1074.77
567.49	1074.54
567.84	1071.03
568.19	1072.43
568.54	1081.56
568.90	1076.65
569.25	1067.28
569.60	1067.52
569.95	1068.92
570.31	1065.18
570.66	1070.09
571.01	1068.92
571.36	1068.92
571.71	1078.75
572.06	1084.37
572.42	1088.12
572.77	1098.88
573.12	1104.26
573.47	1092.09
573.82	1090.92
574.18	1084.84
574.53	1074.07
574.88	1069.16
575.23	1069.16
575.58	1069.62
575.93	1069.86
576.28	1075.01
576.64	1076.18
576.99	1084.37
577.34	1076.65
577.69	1071.73
578.04	1074.77
578.39	1076.41
578.74	1075.71
579.09	1079.46
579.44	1086.94
579.80	1087.88
580.15	1082.73
580.50	1075.01
580.85	1078.99
581.20	1079.22
581.55	1075.01
581.90	1087.65
582.25	1094.67
582.60	1093.26
582.95	1089.29
583.30	1098.41
583.65	1093.26
584.00	1100.05
584.35	1102.39
584.71	1103.80
585.06	1094.90
585.41	1098.18
585.76	1082.97
586.11	1084.37
586.46	1078.99
586.81	1079.92
587.16	1072.67
587.51	1077.35
587.86	1077.35
588.21	1083.43
588.56	1092.33
588.91	1096.31
589.26	1082.50
589.61	1081.33
589.96	1080.63
590.31	1075.24
590.66	1082.50
591.01	1096.54
591.36	1103.56
591.71	1105.44
592.06	1106.37
592.41	1095.37
592.76	1094.90
593.10	1079.69
593.45	1080.16
593.80	1081.56
594.15	1081.09
594.50	1079.22
594.85	1086.71
595.20	1083.20
595.55	1083.67
595.90	1089.29
596.25	1096.54
596.60	1091.63
596.95	1093.73
597.30	1097.95
597.64	1152.71
597.99	1152.25
598.34	1156.69
598.69	1148.50
599.04	1137.50
599.39	1077.11
599.74	1074.07
600.09	1067.75
600.44	1073.84
600.78	1072.90
601.13	1073.14
601.48	1079.69
601.83	1075.48
602.18	1080.16
602.53	1077.82
602.88	1078.75
603.22	1067.99
603.57	1077.58
603.92	1071.97
604.27	1076.65
604.62	1064.48
604.97	1070.33
605.31	1069.16
605.66	1079.69
606.01	1082.73
606.36	1090.46
606.71	1091.63
607.05	1088.12
607.40	1081.80
607.75	1088.12
608.10	1095.84
608.44	1091.39
608.79	1095.60
609.14	1089.29
609.49	1082.73
609.84	1087.18
610.18	1088.12
610.53	1091.63
610.88	1104.73
611.23	1110.58
611.57	1111.99
611.92	1116.67
612.27	1111.29
612.62	1108.01
612.96	1096.31
613.31	1085.31
613.66	1085.54
614.00	1089.52
614.35	1081.33
614.70	1080.63
615.05	1083.43
615.39	1084.37
615.74	1091.63
616.09	1092.56
616.43	1087.41
616.78	1088.82
617.13	1081.56
617.47	1081.33
617.82	1082.26
618.17	1096.31
618.51	1093.97
618.86	1089.29
619.21	1072.43
619.55	1064.94
619.90	1056.99
620.25	1054.18
620.59	1061.20
620.94	1069.39
621.29	1076.88
621.63	1078.99
621.98	1082.50
622.32	1088.58
622.67	1091.39
623.02	1099.12
623.36	1096.78
623.71	1098.41
624.05	1090.92
624.40	1085.54
624.75	1085.54
625.09	1090.92
625.44	1090.69
625.78	1096.78
626.13	1101.46
626.48	1096.54
626.82	1095.14
627.17	1090.69
627.51	1091.39
627.86	1082.97
628.20	1082.03
628.55	1082.03
628.89	1079.46
629.24	1071.50
629.58	1073.60
629.93	1074.77
630.28	1077.58
630.62	1071.26
630.97	1075.24
631.31	1069.39
631.66	1065.65
632.00	1061.20
632.35	1072.43
632.69	1071.73
633.04	1072.20
633.38	1073.14
633.73	1080.63
634.07	1076.65
634.42	1076.88
634.76	1088.82
635.11	1086.71
635.45	1075.71
635.79	1068.45
636.14	1065.65
636.48	1061.90
636.83	1070.56
637.17	1074.07
637.52	1095.14
637.86	1097.95
638.21	1096.07
638.55	1099.58
638.89	1099.35
639.24	1085.07
639.58	1089.52
639.93	1094.67
640.27	1083.43
640.61	1081.33
640.96	1094.43
641.30	1082.97
641.65	1078.75
641.99	1086.71
642.33	1085.77
642.68	1079.46
643.02	1082.03
643.37	1081.56
643.71	1075.94
644.05	1078.05
644.40	1083.90
644.74	1083.20
645.08	1088.35
645.43	1087.65
645.77	1082.03
646.11	1069.39
646.46	1070.80
646.80	1058.62
647.14	1061.90
647.49	1068.92
647.83	1071.03
648.17	1074.07
648.52	1087.18
648.86	1077.11
649.20	1081.80
649.55	1069.16
649.89	1072.67
650.23	1070.09
650.57	1076.88
650.92	1075.01
651.26	1098.88
651.60	1093.50
651.95	1090.22
652.29	1082.26
652.63	1082.50
652.97	1069.86
653.32	1073.84
653.66	1082.03
654.00	1084.84
654.34	1080.86
654.69	1083.20
655.03	1070.80
655.37	1063.07
655.71	1064.71
656.05	1061.67
656.40	1065.18
656.74	1069.16
657.08	1073.84
657.42	1075.71
657.76	1077.11
658.11	1075.24
658.45	1084.84
658.79	1082.26
659.13	1090.92
659.47	1098.65
659.82	1102.63
660.16	1096.31
660.50	1095.14
660.84	1084.14
661.18	1085.77
661.52	1078.75
661.87	1084.60
662.21	1083.90
662.55	1082.26
662.89	1083.67
663.23	1079.69
663.57	1075.01
663.91	1081.80
664.25	1084.60
664.60	1078.99
664.94	1088.58
665.28	1078.75
665.62	1069.86
665.96	1072.90
666.30	1072.90
666.64	1074.31
666.98	1081.80
667.32	1089.29
667.66	1087.41
668.01	1089.75
668.35	1074.77
668.69	1079.22
669.03	1072.90
669.37	1074.07
669.71	1068.69
670.05	1083.20
670.39	1072.43
670.73	1076.88
671.07	1075.71
671.41	1070.56
671.75	1066.35
672.09	1067.28
672.43	1070.80
672.77	1076.41
673.11	1081.33
673.45	1080.86
673.79	1082.26
674.13	1075.48
674.47	1066.58
674.81	1063.07
675.15	1059.09
675.49	1058.62
675.83	1059.33
676.17	1076.88
676.51	1082.26
676.85	1090.46
677.19	1098.41
677.53	1103.56
677.87	1091.63
678.21	1087.65
678.55	1085.07
678.89	1079.92
679.23	1071.50
679.57	1081.33
679.90	1086.01
680.24	1084.84
680.58	1087.88
680.92	1087.41
681.26	1074.07
681.60	1086.71
681.94	1089.99
682.28	1094.20
682.62	1095.60
682.96	1099.58
683.29	1081.33
683.63	1082.50
683.97	1076.18
684.31	1078.28
684.65	1075.94
684.99	1076.18
685.33	1071.26
685.67	1066.35
686.00	1071.26
686.34	1074.54
686.68	1075.71
687.02	1075.01
687.36	1079.22
687.70	1072.43
688.03	1075.48
688.37	1070.56
688.71	1076.65
689.05	1075.71
689.39	1078.28
689.72	1080.16
690.06	1095.37
690.40	1097.48
690.74	1104.97
691.08	1106.37
691.41	1096.31
691.75	1088.35
692.09	1081.80
692.43	1088.82
692.76	1091.39
693.10	1092.09
693.44	1099.82
693.78	1086.24
694.11	1068.22
694.45	1060.50
694.79	1054.18
695.13	1042.71
695.46	1051.84
695.80	1062.60
696.14	1059.56
696.48	1077.82
696.81	1083.90
697.15	1095.84
697.49	1095.37
697.82	1095.37
698.16	1088.82
698.50	1082.50
698.83	1068.69
699.17	1067.52
699.51	1080.16
699.84	1073.14
700.18	1069.39
700.52	1081.56
700.85	1078.28
701.19	1067.99
701.53	1059.56
701.86	1069.39
702.20	1056.52
702.54	1059.09
702.87	1063.07
703.21	1070.33
703.55	1077.82
703.88	1091.39
704.22	1088.82
704.55	1087.65
704.89	1095.84
705.23	1083.43
705.56	1078.52
705.90	1077.58
706.23	1075.48
706.57	1071.50
706.91	1077.11
707.24	1078.05
707.58	1081.56
707.91	1081.09
708.25	1082.26
708.58	1074.07
708.92	1078.52
709.26	1082.26
709.59	1084.84
709.93	1087.18
710.26	1098.18
710.60	1098.88
710.93	1090.69
711.27	1085.31
711.60	1078.28
711.94	1071.97
712.27	1066.58
712.61	1078.05
712.94	1095.14
713.28	1089.05
713.61	1094.67
713.95	1096.78
714.28	1088.82
714.62	1071.73
714.95	1080.86
715.29	1083.90
715.62	1084.84
715.96	1086.48
716.29	1089.99
716.63	1084.60
716.96	1079.46
717.29	1082.26
717.63	1071.73
717.96	1072.20
718.30	1074.77
718.63	1066.35
718.97	1061.67
719.30	1074.77
719.63	1073.14
719.97	1066.82
720.30	1072.90
720.64	1075.94
720.97	1058.16
721.30	1062.14
721.64	1082.26
721.97	1084.60
722.31	1079.69
722.64	1086.01
722.97	1084.84
723.31	1068.22
723.64	1067.28
723.97	1061.20
724.31	1076.88
724.64	1079.46
724.98	1081.56
725.31	1078.28
725.64	1082.03
725.98	1072.67
726.31	1064.94
726.64	1063.07
726.97	1066.11
727.31	1072.43
727.64	1069.62
727.97	1068.92
728.31	1075.71
728.64	1069.62
728.97	1061.20
729.31	1074.54
729.64	1083.20
729.97	1092.09
730.30	1095.37
730.64	1100.99
730.97	1084.60
731.30	1079.69
731.63	1071.50
731.97	1075.71
732.30	1077.35
732.63	1081.09
732.96	1083.43
733.30	1075.94
733.63	1078.52
733.96	1072.67
734.29	1072.43
734.63	1075.48
734.96	1086.01
735.29	1079.46
735.62	1082.26
735.95	1090.69
736.29	1091.16
736.62	1100.52
736.95	1103.09
737.28	1104.03
737.61	1114.10
737.94	1105.67
738.28	1093.03
738.61	1089.99
738.94	1087.18
739.27	1075.01
739.60	1079.69
739.93	1084.84
740.27	1098.65
740.60	1099.35
740.93	1095.60
741.26	1096.78
741.59	1092.80
741.92	1073.60
742.25	1076.41
742.58	1067.99
742.91	1065.41
743.25	1057.69
743.58	1064.94
743.91	1057.69
744.24	1067.52
744.57	1072.90
744.90	1084.14
745.23	1088.58
745.56	1089.29
745.89	1087.41
746.22	1087.88
746.55	1084.37
746.88	1079.92
747.21	1079.92
747.54	1079.92
747.87	1081.80
748.20	1080.63
748.53	1082.73
748.87	1083.20
749.20	1082.26
749.53	1082.97
749.86	1080.63
750.19	1077.35
750.52	1075.24
750.85	1073.84
751.18	1060.73
751.51	1064.71
751.84	1068.92
752.16	1076.41
752.49	1075.24
752.82	1081.56
753.15	1083.43
753.48	1079.46
753.81	1074.31
754.14	1075.94
754.47	1079.22
754.80	1071.97
755.13	1075.24
755.46	1078.52
755.79	1087.18
756.12	1081.56
756.45	1080.63
756.78	1079.46
757.11	1079.69
757.43	1070.56
757.76	1072.20
758.09	1074.31
758.42	1078.99
758.75	1084.84
759.08	1086.48
759.41	1089.29
759.74	1088.58
760.07	1082.73
760.39	1086.48
760.72	1094.90
761.05	1094.43
761.38	1098.88
761.71	1100.52
762.04	1087.18
762.36	1078.99
762.69	1078.52
763.02	1079.46
763.35	1073.60
763.68	1069.86
764.01	1070.33
764.33	1068.22
764.66	1061.67
764.99	1064.94
765.32	1079.69
765.65	1082.03
765.97	1085.07
766.30	1089.29
