SpectraSuite Data File
++++++++++++++++++++++++++++++++++++
Date: Mon Aug 26 10:25:58 PDT 2019
User: corrico
Dark Spectrum Present: No
Reference Spectrum Present: No
Number of Sampled Component Spectra: 1
Spectrometers: USB2+H06089
Integration Time (usec): 10000 (USB2+H06089)
Spectra Averaged: 2 (USB2+H06089)
Boxcar Smoothing: 2 (USB2+H06089)
Correct for Electrical Dark: No (USB2+H06089)
Strobe/Lamp Enabled: No (USB2+H06089)
Correct for Detector Non-linearity: No (USB2+H06089)
Correct for Stray Light: No (USB2+H06089)
Number of Pixels in Processed Spectrum: 2048
>>>>>Begin Processed Spectral Data<<<<<
339.70	1060.26
340.07	1060.26
340.45	1027.73
340.82	995.20
341.19	957.28
341.57	933.64
341.94	912.34
342.31	907.43
342.69	909.30
343.06	908.36
343.43	899.94
343.81	901.81
344.18	897.83
344.55	893.85
344.93	916.09
345.30	916.09
345.67	924.98
346.04	937.38
346.42	952.83
346.79	955.87
347.16	977.88
347.54	974.83
347.91	974.60
348.28	977.88
348.65	988.88
349.03	992.39
349.40	1004.32
349.77	1021.41
350.14	1026.32
350.52	1032.41
350.89	1035.92
351.26	1044.58
351.63	1042.47
352.01	1065.41
352.38	1065.41
352.75	1071.26
353.12	1076.65
353.50	1083.20
353.87	1071.97
354.24	1070.33
354.61	1075.24
354.98	1084.84
355.36	1089.75
355.73	1094.20
356.10	1097.48
356.47	1099.82
356.84	1094.43
357.22	1093.26
357.59	1093.50
357.96	1099.35
358.33	1091.39
358.70	1089.29
359.08	1087.41
359.45	1081.56
359.82	1074.77
360.19	1069.39
360.56	1073.37
360.94	1068.69
361.31	1067.75
361.68	1058.86
362.05	1067.05
362.42	1063.54
362.79	1068.45
363.16	1068.69
363.54	1078.28
363.91	1079.22
364.28	1069.86
364.65	1065.41
365.02	1070.56
365.39	1069.16
365.76	1056.28
366.14	1059.56
366.51	1061.90
366.88	1056.28
367.25	1053.94
367.62	1065.41
367.99	1064.94
368.36	1062.37
368.73	1060.96
369.10	1061.43
369.48	1063.77
369.85	1063.77
370.22	1067.99
370.59	1074.77
370.96	1067.99
371.33	1061.20
371.70	1071.50
372.07	1061.90
372.44	1059.56
372.81	1066.82
373.18	1066.35
373.55	1058.86
373.93	1061.20
374.30	1058.39
374.67	1054.41
375.04	1065.18
375.41	1063.31
375.78	1059.33
376.15	1066.11
376.52	1069.86
376.89	1069.39
377.26	1081.33
377.63	1085.54
378.00	1080.63
378.37	1081.80
378.74	1076.18
379.11	1067.75
379.48	1060.73
379.85	1062.60
380.22	1062.37
380.59	1064.01
380.96	1060.50
381.33	1070.80
381.70	1069.39
382.07	1072.43
382.44	1067.52
382.81	1071.50
383.18	1076.88
383.55	1076.88
383.92	1076.88
384.29	1081.56
384.66	1085.07
385.03	1078.28
385.40	1082.03
385.77	1079.92
386.14	1079.92
386.51	1080.39
386.88	1076.88
387.25	1074.31
387.62	1065.41
387.99	1057.92
388.36	1054.65
388.73	1048.56
389.10	1044.58
389.46	1056.05
389.83	1063.31
390.20	1060.96
390.57	1078.75
390.94	1076.88
391.31	1069.39
391.68	1075.71
392.05	1075.24
392.42	1070.09
392.79	1070.80
393.16	1079.22
393.53	1074.77
393.89	1072.20
394.26	1072.43
394.63	1081.33
395.00	1075.71
395.37	1073.84
395.74	1079.69
396.11	1069.16
396.48	1062.60
396.84	1059.56
397.21	1063.31
397.58	1054.88
397.95	1063.54
398.32	1069.86
398.69	1067.75
399.06	1070.56
399.42	1087.88
399.79	1088.12
400.16	1085.31
400.53	1093.50
400.90	1070.80
401.27	1060.26
401.64	1064.94
402.00	1062.37
402.37	1060.26
402.74	1071.97
403.11	1074.31
403.48	1074.31
403.84	1079.22
404.21	1073.14
404.58	1067.52
404.95	1066.58
405.32	1059.33
405.68	1054.65
406.05	1054.18
406.42	1054.88
406.79	1045.99
407.16	1041.54
407.52	1045.52
407.89	1047.62
408.26	1062.14
408.63	1069.39
408.99	1082.03
409.36	1083.43
409.73	1086.94
410.10	1083.43
410.47	1089.05
410.83	1086.48
411.20	1081.56
411.57	1081.56
411.94	1078.99
412.30	1079.46
412.67	1077.11
413.04	1075.71
413.40	1073.84
413.77	1075.01
414.14	1064.48
414.51	1064.48
414.87	1059.33
415.24	1060.26
415.61	1068.45
415.97	1079.46
416.34	1073.84
416.71	1086.71
417.08	1089.75
417.44	1083.43
417.81	1081.33
418.18	1088.58
418.54	1082.03
418.91	1079.69
419.28	1076.65
419.64	1068.92
420.01	1066.11
420.38	1067.99
420.74	1072.20
421.11	1064.48
421.48	1071.03
421.84	1071.50
422.21	1067.52
422.58	1065.65
422.94	1066.35
423.31	1064.01
423.68	1058.62
424.04	1067.99
424.41	1065.41
424.77	1073.60
425.14	1075.48
425.51	1084.14
425.87	1078.28
426.24	1081.33
426.61	1078.52
426.97	1076.65
427.34	1078.28
427.70	1084.37
428.07	1083.20
428.44	1083.90
428.80	1090.22
429.17	1083.67
429.53	1075.24
429.90	1067.52
430.27	1071.50
430.63	1066.82
431.00	1073.60
431.36	1078.99
431.73	1093.26
432.09	1088.58
432.46	1090.92
432.83	1089.29
433.19	1089.52
433.56	1088.35
433.92	1092.56
434.29	1090.69
434.65	1088.82
435.02	1089.99
435.38	1083.20
435.75	1074.54
436.11	1076.18
436.48	1080.39
436.84	1072.43
437.21	1069.16
437.57	1080.16
437.94	1072.43
438.30	1074.54
438.67	1090.92
439.03	1087.65
439.40	1090.46
439.76	1096.31
440.13	1093.97
440.49	1087.65
440.86	1102.39
441.22	1103.09
441.59	1109.41
441.95	1112.22
442.32	1104.26
442.68	1102.39
443.05	1086.71
443.41	1073.84
443.78	1061.67
444.14	1059.09
444.51	1060.26
444.87	1064.24
445.24	1068.45
445.60	1076.88
445.96	1084.37
446.33	1068.45
446.69	1076.88
447.06	1073.14
447.42	1082.26
447.79	1078.28
448.15	1086.71
448.51	1079.22
448.88	1083.20
449.24	1075.24
449.61	1093.26
449.97	1101.22
450.33	1098.88
450.70	1096.54
451.06	1086.48
451.43	1078.99
451.79	1063.07
452.15	1071.50
452.52	1079.92
452.88	1078.05
453.24	1061.43
453.61	1077.35
453.97	1071.26
454.34	1065.18
454.70	1076.88
455.06	1083.67
455.43	1082.50
455.79	1081.09
456.15	1086.94
456.52	1077.82
456.88	1079.46
457.24	1071.97
457.61	1079.22
457.97	1068.45
458.33	1080.39
458.70	1074.31
459.06	1077.11
459.42	1072.43
459.79	1073.60
460.15	1066.11
460.51	1070.33
460.88	1075.71
461.24	1074.07
461.60	1072.20
461.96	1072.90
462.33	1069.62
462.69	1063.07
463.05	1070.80
463.42	1070.56
463.78	1066.82
464.14	1072.90
464.50	1074.77
464.87	1067.52
465.23	1073.37
465.59	1083.20
465.95	1078.99
466.32	1080.86
466.68	1084.60
467.04	1092.09
467.40	1086.01
467.77	1091.16
468.13	1098.18
468.49	1092.33
468.85	1084.60
469.22	1085.77
469.58	1078.28
469.94	1061.67
470.30	1056.52
470.66	1063.31
471.03	1056.99
471.39	1053.01
471.75	1062.14
472.11	1069.86
472.47	1067.05
472.84	1078.52
473.20	1093.03
473.56	1085.31
473.92	1073.37
474.28	1070.33
474.65	1052.54
475.01	1045.99
475.37	1054.41
475.73	1063.31
476.09	1057.92
476.45	1069.62
476.81	1072.43
477.18	1070.80
477.54	1072.90
477.90	1076.65
478.26	1076.88
478.62	1073.37
478.98	1069.39
479.34	1080.16
479.71	1082.97
480.07	1083.20
480.43	1089.52
480.79	1095.84
481.15	1090.46
481.51	1093.73
481.87	1096.31
482.23	1097.48
482.59	1098.41
482.96	1091.39
483.32	1092.33
483.68	1089.29
484.04	1087.41
484.40	1084.37
484.76	1083.20
485.12	1082.03
485.48	1081.56
485.84	1076.88
486.20	1073.37
486.56	1081.33
486.92	1080.63
487.28	1072.90
487.64	1069.86
488.00	1069.16
488.37	1068.22
488.73	1062.37
489.09	1068.45
489.45	1073.84
489.81	1074.54
490.17	1081.33
490.53	1091.63
490.89	1089.29
491.25	1083.67
491.61	1094.90
491.97	1094.20
492.33	1090.22
492.69	1090.22
493.05	1098.88
493.41	1097.48
493.77	1089.05
494.13	1084.37
494.49	1088.12
494.85	1074.77
495.21	1067.52
495.57	1074.31
495.93	1078.28
496.29	1086.24
496.64	1091.63
497.00	1086.94
497.36	1078.05
497.72	1070.56
498.08	1063.77
498.44	1065.88
498.80	1068.22
499.16	1065.18
499.52	1074.07
499.88	1071.26
500.24	1067.05
500.60	1064.24
500.96	1076.41
501.32	1074.07
501.68	1083.43
502.03	1094.43
502.39	1104.26
502.75	1095.37
503.11	1096.31
503.47	1085.77
503.83	1086.01
504.19	1083.67
504.55	1081.80
504.91	1080.39
505.26	1084.60
505.62	1080.16
505.98	1077.11
506.34	1087.65
506.70	1091.39
507.06	1087.18
507.42	1080.86
507.78	1074.54
508.13	1070.09
508.49	1070.56
508.85	1075.01
509.21	1078.05
509.57	1088.58
509.93	1088.82
510.28	1079.46
510.64	1077.82
511.00	1078.99
511.36	1074.54
511.72	1066.58
512.07	1073.37
512.43	1078.52
512.79	1080.39
513.15	1082.73
513.51	1089.75
513.86	1097.95
514.22	1091.39
514.58	1093.73
514.94	1098.41
515.30	1102.39
515.65	1093.50
516.01	1100.29
516.37	1093.73
516.73	1093.50
517.08	1096.54
517.44	1097.71
517.80	1093.97
518.16	1100.99
518.51	1100.29
518.87	1096.07
519.23	1094.67
519.59	1096.31
519.94	1091.63
520.30	1085.31
520.66	1082.03
521.01	1087.18
521.37	1087.41
521.73	1097.01
522.09	1101.46
522.44	1104.03
522.80	1098.88
523.16	1102.86
523.51	1098.88
523.87	1103.33
524.23	1104.26
524.58	1108.01
524.94	1095.84
525.30	1092.09
525.65	1087.41
526.01	1086.01
526.37	1084.60
526.72	1090.22
527.08	1094.67
527.44	1088.82
527.79	1091.63
528.15	1096.78
528.51	1096.31
528.86	1095.37
529.22	1110.82
529.58	1116.67
529.93	1110.35
530.29	1119.01
530.65	1129.78
531.00	1113.63
531.36	1104.97
531.71	1106.61
532.07	1095.60
532.43	1081.09
532.78	1082.26
533.14	1072.67
533.49	1071.73
533.85	1086.71
534.21	1086.71
534.56	1092.56
534.92	1101.22
535.27	1105.20
535.63	1094.20
535.98	1095.14
536.34	1088.58
536.69	1080.39
537.05	1079.46
537.41	1077.11
537.76	1082.03
538.12	1086.24
538.47	1094.90
538.83	1091.39
539.18	1085.07
539.54	1076.65
539.89	1075.94
540.25	1076.65
540.60	1075.01
540.96	1088.82
541.31	1089.75
541.67	1096.54
542.02	1087.18
542.38	1086.94
542.73	1093.03
543.09	1096.78
543.44	1086.94
543.80	1086.94
544.15	1081.09
544.51	1069.39
544.86	1067.99
545.22	1066.35
545.57	1069.62
545.93	1070.56
546.28	1077.35
546.64	1083.43
546.99	1093.73
547.35	1092.09
547.70	1094.67
548.05	1086.94
548.41	1081.56
548.76	1075.48
549.12	1088.58
549.47	1092.56
549.83	1093.50
550.18	1098.18
550.53	1098.18
550.89	1094.43
551.24	1092.56
551.60	1093.50
551.95	1087.41
552.30	1081.33
552.66	1081.09
553.01	1080.86
553.37	1088.82
553.72	1096.07
554.07	1114.56
554.43	1113.16
554.78	1116.67
555.13	1108.01
555.49	1110.58
555.84	1093.97
556.19	1090.22
556.55	1082.73
556.90	1088.12
557.26	1080.39
557.61	1083.90
557.96	1091.63
558.32	1099.12
558.67	1088.82
559.02	1089.99
559.37	1087.41
559.73	1078.99
560.08	1067.52
560.43	1072.90
560.79	1073.60
561.14	1074.54
561.49	1079.22
561.85	1091.39
562.20	1096.31
562.55	1088.58
562.90	1080.86
563.26	1078.28
563.61	1076.18
563.96	1065.65
564.32	1075.71
564.67	1083.43
565.02	1086.01
565.37	1091.86
565.73	1102.16
566.08	1092.09
566.43	1092.80
566.78	1092.56
567.14	1081.09
567.49	1076.41
567.84	1080.63
568.19	1080.39
568.54	1076.88
568.90	1082.26
569.25	1084.60
569.60	1093.50
569.95	1093.73
570.31	1089.05
570.66	1088.58
571.01	1085.31
571.36	1076.18
571.71	1075.01
572.06	1080.63
572.42	1081.33
572.77	1086.48
573.12	1085.54
573.47	1102.86
573.82	1100.99
574.18	1089.75
574.53	1082.97
574.88	1086.94
575.23	1069.62
575.58	1073.60
575.93	1081.09
576.28	1089.52
576.64	1090.46
576.99	1094.90
577.34	1088.12
577.69	1090.22
578.04	1086.94
578.39	1085.77
578.74	1086.01
579.09	1086.24
579.44	1086.48
579.80	1077.58
580.15	1072.20
580.50	1074.31
580.85	1077.35
581.20	1075.94
581.55	1079.92
581.90	1083.90
582.25	1079.69
582.60	1076.65
582.95	1081.33
583.30	1081.33
583.65	1068.45
584.00	1073.14
584.35	1079.46
584.71	1071.73
585.06	1081.56
585.41	1091.39
585.76	1086.94
586.11	1080.39
586.46	1081.33
586.81	1059.56
587.16	1065.65
587.51	1063.31
587.86	1065.65
588.21	1068.92
588.56	1089.75
588.91	1098.18
589.26	1106.84
589.61	1106.37
589.96	1104.50
590.31	1098.65
590.66	1088.82
591.01	1083.20
591.36	1085.54
591.71	1086.94
592.06	1090.69
592.41	1093.03
592.76	1088.12
593.10	1081.33
593.45	1091.86
593.80	1079.92
594.15	1074.77
594.50	1075.01
594.85	1086.71
595.20	1078.28
595.55	1073.84
595.90	1067.75
596.25	1070.80
596.60	1063.77
596.95	1067.05
597.30	1081.33
597.64	1127.90
597.99	1142.42
598.34	1160.44
598.69	1166.76
599.04	1161.37
599.39	1109.41
599.74	1093.26
600.09	1076.88
600.44	1067.52
600.78	1071.03
601.13	1085.77
601.48	1085.31
601.83	1086.01
602.18	1082.26
602.53	1078.05
602.88	1071.50
603.22	1075.01
603.57	1070.80
603.92	1078.52
604.27	1078.28
604.62	1075.48
604.97	1071.73
605.31	1076.18
605.66	1070.56
606.01	1068.45
606.36	1086.01
606.71	1084.60
607.05	1084.60
607.40	1086.48
607.75	1098.65
608.10	1091.39
608.44	1099.58
608.79	1102.39
609.14	1099.82
609.49	1090.22
609.84	1081.80
610.18	1073.14
610.53	1071.03
610.88	1064.48
611.23	1072.20
611.57	1080.63
611.92	1089.75
612.27	1091.86
612.62	1098.18
612.96	1098.41
613.31	1095.14
613.66	1089.05
614.00	1089.05
614.35	1088.58
614.70	1085.54
615.05	1079.69
615.39	1090.46
615.74	1089.52
616.09	1090.92
616.43	1085.07
616.78	1086.94
617.13	1078.75
617.47	1079.46
617.82	1079.69
618.17	1085.54
618.51	1084.14
618.86	1087.88
619.21	1089.75
619.55	1087.65
619.90	1088.82
620.25	1097.48
620.59	1098.41
620.94	1093.97
621.29	1099.58
621.63	1095.37
621.98	1095.37
622.32	1105.20
622.67	1111.29
623.02	1099.35
623.36	1099.82
623.71	1104.97
624.05	1090.46
624.40	1085.07
624.75	1094.43
625.09	1091.86
625.44	1080.63
625.78	1078.52
626.13	1081.33
626.48	1079.46
626.82	1081.80
627.17	1086.71
627.51	1085.54
627.86	1084.37
628.20	1085.77
628.55	1082.73
628.89	1070.80
629.24	1064.24
629.58	1060.73
629.93	1063.77
630.28	1067.75
630.62	1072.67
630.97	1077.82
631.31	1079.92
631.66	1076.65
632.00	1070.56
632.35	1076.65
632.69	1083.43
633.04	1075.48
633.38	1072.43
633.73	1080.39
634.07	1072.20
634.42	1065.65
634.76	1073.84
635.11	1074.77
635.45	1076.88
635.79	1084.84
636.14	1096.78
636.48	1102.16
636.83	1110.35
637.17	1104.26
637.52	1113.63
637.86	1108.95
638.21	1100.05
638.55	1099.35
638.89	1099.35
639.24	1083.90
639.58	1087.18
639.93	1088.35
640.27	1077.58
640.61	1078.75
640.96	1082.50
641.30	1083.43
641.65	1086.94
641.99	1083.43
642.33	1081.33
642.68	1080.63
643.02	1071.03
643.37	1064.01
643.71	1067.28
644.05	1075.71
644.40	1079.92
644.74	1089.05
645.08	1090.69
645.43	1097.01
645.77	1084.37
646.11	1082.97
646.46	1082.50
646.80	1086.24
647.14	1085.54
647.49	1093.97
647.83	1091.63
648.17	1087.88
648.52	1085.54
648.86	1084.37
649.20	1076.65
649.55	1079.92
649.89	1087.65
650.23	1092.80
650.57	1093.03
650.92	1099.12
651.26	1100.99
651.60	1093.03
651.95	1081.09
652.29	1082.97
652.63	1085.54
652.97	1075.24
653.32	1074.31
653.66	1086.71
654.00	1075.24
654.34	1070.56
654.69	1080.86
655.03	1072.20
655.37	1069.62
655.71	1074.07
656.05	1074.54
656.40	1071.26
656.74	1084.37
657.08	1083.67
657.42	1087.18
657.76	1085.54
658.11	1090.92
658.45	1093.03
658.79	1094.67
659.13	1089.75
659.47	1094.67
659.82	1087.65
660.16	1076.88
660.50	1068.22
660.84	1075.48
661.18	1075.71
661.52	1065.41
661.87	1066.58
662.21	1076.65
662.55	1075.71
662.89	1078.52
663.23	1093.26
663.57	1105.90
663.91	1100.29
664.25	1108.01
664.60	1105.67
664.94	1097.24
665.28	1082.26
665.62	1083.67
665.96	1076.18
666.30	1082.73
666.64	1081.80
666.98	1086.24
667.32	1085.54
667.66	1086.48
668.01	1073.14
668.35	1073.14
668.69	1076.41
669.03	1073.84
669.37	1070.33
669.71	1076.88
670.05	1082.97
670.39	1081.56
670.73	1085.54
671.07	1085.54
671.41	1088.82
671.75	1084.14
672.09	1082.26
672.43	1078.99
672.77	1081.09
673.11	1075.01
673.45	1082.03
673.79	1080.39
674.13	1089.52
674.47	1088.35
674.81	1087.65
675.15	1077.58
675.49	1074.77
675.83	1061.20
676.17	1062.60
676.51	1050.67
676.85	1058.16
677.19	1067.52
677.53	1073.14
677.87	1082.50
678.21	1095.84
678.55	1090.92
678.89	1081.56
679.23	1084.14
679.57	1075.24
679.90	1074.07
680.24	1070.56
680.58	1081.56
680.92	1076.18
681.26	1071.97
681.60	1073.37
681.94	1082.26
682.28	1074.07
682.62	1075.71
682.96	1085.07
683.29	1091.39
683.63	1091.16
683.97	1095.84
684.31	1101.92
684.65	1100.52
684.99	1101.22
685.33	1099.58
685.67	1092.33
686.00	1096.07
686.34	1077.11
686.68	1078.52
687.02	1088.12
687.36	1084.84
687.70	1080.86
688.03	1086.24
688.37	1078.52
688.71	1068.45
689.05	1072.67
689.39	1066.58
689.72	1081.33
690.06	1070.56
690.40	1072.67
690.74	1078.99
691.08	1082.03
691.41	1076.65
691.75	1086.94
692.09	1094.20
692.43	1085.31
692.76	1082.73
693.10	1079.92
693.44	1081.33
693.78	1072.67
694.11	1083.20
694.45	1083.67
694.79	1083.90
695.13	1075.01
695.46	1073.84
695.80	1067.28
696.14	1070.80
696.48	1073.60
696.81	1082.03
697.15	1091.63
697.49	1087.41
697.82	1091.16
698.16	1086.24
698.50	1079.92
698.83	1071.73
699.17	1075.48
699.51	1065.41
699.84	1075.01
700.18	1077.11
700.52	1081.09
700.85	1087.41
701.19	1092.80
701.53	1089.29
701.86	1101.92
702.20	1093.73
702.54	1082.97
702.87	1081.33
703.21	1078.75
703.55	1062.37
703.88	1072.67
704.22	1082.73
704.55	1086.48
704.89	1086.71
705.23	1092.09
705.56	1089.99
705.90	1089.99
706.23	1086.94
706.57	1090.22
706.91	1094.20
707.24	1088.12
707.58	1079.46
707.91	1080.39
708.25	1079.22
708.58	1070.80
708.92	1069.16
709.26	1080.16
709.59	1083.20
709.93	1092.80
710.26	1101.92
710.60	1102.39
710.93	1083.67
711.27	1081.56
711.60	1079.92
711.94	1076.18
712.27	1082.97
712.61	1096.07
712.94	1094.43
713.28	1087.18
713.61	1088.35
713.95	1072.90
714.28	1063.31
714.62	1058.39
714.95	1057.92
715.29	1055.35
715.62	1068.69
715.96	1078.05
716.29	1091.86
716.63	1094.90
716.96	1091.63
717.29	1094.20
717.63	1100.52
717.96	1098.18
718.30	1092.09
718.63	1094.20
718.97	1088.82
719.30	1090.92
719.63	1092.80
719.97	1097.01
720.30	1096.31
720.64	1104.03
720.97	1089.75
721.30	1080.63
721.64	1074.54
721.97	1082.26
722.31	1073.84
722.64	1081.09
722.97	1074.07
723.31	1073.60
723.64	1073.14
723.97	1070.33
724.31	1068.92
724.64	1069.62
724.98	1068.22
725.31	1060.96
725.64	1062.60
725.98	1066.58
726.31	1071.73
726.64	1086.94
726.97	1089.52
727.31	1097.48
727.64	1087.65
727.97	1095.14
728.31	1086.94
728.64	1092.09
728.97	1092.09
729.31	1093.50
729.64	1095.14
729.97	1093.97
730.30	1082.03
730.64	1081.56
730.97	1081.56
731.30	1072.67
731.63	1072.20
731.97	1074.31
732.30	1076.41
732.63	1080.63
732.96	1083.20
733.30	1081.09
733.63	1082.03
733.96	1077.82
734.29	1077.35
734.63	1075.48
734.96	1078.99
735.29	1082.03
735.62	1080.39
735.95	1081.56
736.29	1081.56
736.62	1074.77
736.95	1075.24
737.28	1081.80
737.61	1076.65
737.94	1076.41
738.28	1075.24
738.61	1075.94
738.94	1073.37
739.27	1080.39
739.60	1085.31
739.93	1089.99
740.27	1088.82
740.60	1097.01
740.93	1097.48
741.26	1082.50
741.59	1087.18
741.92	1086.48
742.25	1066.82
742.58	1062.37
742.91	1072.43
743.25	1071.03
743.58	1068.45
743.91	1075.24
744.24	1076.65
744.57	1072.20
744.90	1079.92
745.23	1083.67
745.56	1074.54
745.89	1075.94
746.22	1078.28
746.55	1070.80
746.88	1073.37
747.21	1086.24
747.54	1078.28
747.87	1084.60
748.20	1087.18
748.53	1086.48
748.87	1085.07
749.20	1089.99
749.53	1083.90
749.86	1092.56
750.19	1090.46
750.52	1089.05
750.85	1090.92
751.18	1092.33
751.51	1085.07
751.84	1084.60
752.16	1081.56
752.49	1074.77
752.82	1070.80
753.15	1066.11
753.48	1074.54
753.81	1080.16
754.14	1084.60
754.47	1095.60
754.80	1092.33
755.13	1078.52
755.46	1074.07
755.79	1076.65
756.12	1077.82
756.45	1086.71
756.78	1099.58
757.11	1106.84
757.43	1099.58
757.76	1092.80
758.09	1081.56
758.42	1083.67
758.75	1075.48
759.08	1085.54
759.41	1089.29
759.74	1092.56
760.07	1085.31
760.39	1093.03
760.72	1088.82
761.05	1085.54
761.38	1094.20
761.71	1089.29
762.04	1092.56
762.36	1094.20
762.69	1089.29
763.02	1087.41
763.35	1096.78
763.68	1089.99
764.01	1083.20
764.33	1080.39
764.66	1075.24
764.99	1064.01
765.32	1057.69
765.65	1063.77
765.97	1079.22
766.30	1074.54
