SpectraSuite Data File
++++++++++++++++++++++++++++++++++++
Date: Mon Aug 26 10:25:56 PDT 2019
User: corrico
Dark Spectrum Present: No
Reference Spectrum Present: No
Number of Sampled Component Spectra: 1
Spectrometers: USB2+H06089
Integration Time (usec): 10000 (USB2+H06089)
Spectra Averaged: 2 (USB2+H06089)
Boxcar Smoothing: 2 (USB2+H06089)
Correct for Electrical Dark: No (USB2+H06089)
Strobe/Lamp Enabled: No (USB2+H06089)
Correct for Detector Non-linearity: No (USB2+H06089)
Correct for Stray Light: No (USB2+H06089)
Number of Pixels in Processed Spectrum: 2048
>>>>>Begin Processed Spectral Data<<<<<
339.70	987.71
340.07	987.71
340.45	970.62
340.82	962.66
341.19	943.47
341.57	917.02
341.94	911.17
342.31	895.49
342.69	883.79
343.06	889.64
343.43	901.57
343.81	891.74
344.18	896.43
344.55	893.15
344.93	884.72
345.30	896.43
345.67	923.34
346.04	937.85
346.42	957.28
346.79	975.07
347.16	966.64
347.54	973.90
347.91	981.62
348.28	993.32
348.65	1001.52
349.03	1021.41
349.40	1016.26
349.77	1020.47
350.14	1017.90
350.52	1024.22
350.89	1025.62
351.26	1033.81
351.63	1039.20
352.01	1046.22
352.38	1048.56
352.75	1044.35
353.12	1055.82
353.50	1052.77
353.87	1058.86
354.24	1062.14
354.61	1070.33
354.98	1068.22
355.36	1078.28
355.73	1077.58
356.10	1084.14
356.47	1086.94
356.84	1085.07
357.22	1084.60
357.59	1086.01
357.96	1073.60
358.33	1078.52
358.70	1082.26
359.08	1085.31
359.45	1082.50
359.82	1093.50
360.19	1094.90
360.56	1088.82
360.94	1086.24
361.31	1086.01
361.68	1082.50
362.05	1080.63
362.42	1086.48
362.79	1089.52
363.16	1096.07
363.54	1091.86
363.91	1078.99
364.28	1069.86
364.65	1064.94
365.02	1063.54
365.39	1063.07
365.76	1070.09
366.14	1070.09
366.51	1068.92
366.88	1058.39
367.25	1060.73
367.62	1065.18
367.99	1067.28
368.36	1066.11
368.73	1067.75
369.10	1068.69
369.48	1067.75
369.85	1070.09
370.22	1078.75
370.59	1075.01
370.96	1076.88
371.33	1075.24
371.70	1068.69
372.07	1046.22
372.44	1052.30
372.81	1048.33
373.18	1048.56
373.55	1053.94
373.93	1063.31
374.30	1065.41
374.67	1066.58
375.04	1057.22
375.41	1059.33
375.78	1075.01
376.15	1073.60
376.52	1077.11
376.89	1077.82
377.26	1072.43
377.63	1052.07
378.00	1053.71
378.37	1062.84
378.74	1065.18
379.11	1068.69
379.48	1073.14
379.85	1061.43
380.22	1064.01
380.59	1079.22
380.96	1077.58
381.33	1087.65
381.70	1104.26
382.07	1083.20
382.44	1070.33
382.81	1083.43
383.18	1077.82
383.55	1068.45
383.92	1075.01
384.29	1076.18
384.66	1054.41
385.03	1057.69
385.40	1060.26
385.77	1061.67
386.14	1073.37
386.51	1083.90
386.88	1082.03
387.25	1078.75
387.62	1079.22
387.99	1068.92
388.36	1079.22
388.73	1081.33
389.10	1092.33
389.46	1096.78
389.83	1090.92
390.20	1078.99
390.57	1070.56
390.94	1067.99
391.31	1065.88
391.68	1077.11
392.05	1086.48
392.42	1096.54
392.79	1097.95
393.16	1102.16
393.53	1099.35
393.89	1091.86
394.26	1088.58
394.63	1081.33
395.00	1075.94
395.37	1068.69
395.74	1069.39
396.11	1067.52
396.48	1069.16
396.84	1066.35
397.21	1065.41
397.58	1057.92
397.95	1053.48
398.32	1056.99
398.69	1059.79
399.06	1064.94
399.42	1068.22
399.79	1081.56
400.16	1083.90
400.53	1070.33
400.90	1067.75
401.27	1068.69
401.64	1054.65
402.00	1045.05
402.37	1063.77
402.74	1069.86
403.11	1071.97
403.48	1078.99
403.84	1077.11
404.21	1071.97
404.58	1071.03
404.95	1080.16
405.32	1073.14
405.68	1077.11
406.05	1082.26
406.42	1084.37
406.79	1072.67
407.16	1070.33
407.52	1067.52
407.89	1063.07
408.26	1055.58
408.63	1055.35
408.99	1067.05
409.36	1080.86
409.73	1072.90
410.10	1080.86
410.47	1086.71
410.83	1083.67
411.20	1076.88
411.57	1073.37
411.94	1071.50
412.30	1061.90
412.67	1065.18
413.04	1063.77
413.40	1074.07
413.77	1080.16
414.14	1087.41
414.51	1078.28
414.87	1065.65
415.24	1057.69
415.61	1053.01
415.97	1051.84
416.34	1056.28
416.71	1075.71
417.08	1081.33
417.44	1076.88
417.81	1086.48
418.18	1087.41
418.54	1078.05
418.91	1068.45
419.28	1064.94
419.64	1057.22
420.01	1059.79
420.38	1064.24
420.74	1069.62
421.11	1077.35
421.48	1086.01
421.84	1089.05
422.21	1097.48
422.58	1105.90
422.94	1108.48
423.31	1093.50
423.68	1089.05
424.04	1086.48
424.41	1072.43
424.77	1068.22
425.14	1074.31
425.51	1075.94
425.87	1071.50
426.24	1086.94
426.61	1085.07
426.97	1080.39
427.34	1082.26
427.70	1076.65
428.07	1073.60
428.44	1073.14
428.80	1074.54
429.17	1066.82
429.53	1067.05
429.90	1065.65
430.27	1060.50
430.63	1067.75
431.00	1076.65
431.36	1074.31
431.73	1081.09
432.09	1089.52
432.46	1080.63
432.83	1070.80
433.19	1071.97
433.56	1063.07
433.92	1065.18
434.29	1072.20
434.65	1074.77
435.02	1073.84
435.38	1080.63
435.75	1080.16
436.11	1077.82
436.48	1079.46
436.84	1086.94
437.21	1084.60
437.57	1081.09
437.94	1079.22
438.30	1086.01
438.67	1082.26
439.03	1079.69
439.40	1080.16
439.76	1078.75
440.13	1075.94
440.49	1078.05
440.86	1074.07
441.22	1085.31
441.59	1083.90
441.95	1083.90
442.32	1083.90
442.68	1089.99
443.05	1078.28
443.41	1081.80
443.78	1092.80
444.14	1093.03
444.51	1090.69
444.87	1088.35
445.24	1091.63
445.60	1084.84
445.96	1088.12
446.33	1086.94
446.69	1091.86
447.06	1093.50
447.42	1088.58
447.79	1086.94
448.15	1087.65
448.51	1094.90
448.88	1084.60
449.24	1084.14
449.61	1075.48
449.97	1072.90
450.33	1067.75
450.70	1075.48
451.06	1078.75
451.43	1077.35
451.79	1086.01
452.15	1085.77
452.52	1075.94
452.88	1068.69
453.24	1084.60
453.61	1081.80
453.97	1078.05
454.34	1089.75
454.70	1086.71
455.06	1076.65
455.43	1077.58
455.79	1080.86
456.15	1072.90
456.52	1074.31
456.88	1077.11
457.24	1078.99
457.61	1081.56
457.97	1082.03
458.33	1087.65
458.70	1085.54
459.06	1081.80
459.42	1079.46
459.79	1081.56
460.15	1082.50
460.51	1086.48
460.88	1081.33
461.24	1073.84
461.60	1071.26
461.96	1072.67
462.33	1069.16
462.69	1071.73
463.05	1083.90
463.42	1086.01
463.78	1091.63
464.14	1089.05
464.50	1098.41
464.87	1097.95
465.23	1099.35
465.59	1091.86
465.95	1089.05
466.32	1076.65
466.68	1065.41
467.04	1060.50
467.40	1054.18
467.77	1066.35
468.13	1074.77
468.49	1087.65
468.85	1092.56
469.22	1100.75
469.58	1096.07
469.94	1090.92
470.30	1077.82
470.66	1067.99
471.03	1066.82
471.39	1067.05
471.75	1069.86
472.11	1074.07
472.47	1081.80
472.84	1071.03
473.20	1072.90
473.56	1065.41
473.92	1066.58
474.28	1067.05
474.65	1077.82
475.01	1073.84
475.37	1090.92
475.73	1088.82
476.09	1092.09
476.45	1092.09
476.81	1084.84
477.18	1078.75
477.54	1078.52
477.90	1077.82
478.26	1081.33
478.62	1093.97
478.98	1083.20
479.34	1085.07
479.71	1078.75
480.07	1074.31
480.43	1071.26
480.79	1081.56
481.15	1077.82
481.51	1093.50
481.87	1094.67
482.23	1091.63
482.59	1085.07
482.96	1092.80
483.32	1083.43
483.68	1084.60
484.04	1080.39
484.40	1085.07
484.76	1082.73
485.12	1086.01
485.48	1078.75
485.84	1082.26
486.20	1082.97
486.56	1075.01
486.92	1073.84
487.28	1075.01
487.64	1079.46
488.00	1073.60
488.37	1077.35
488.73	1068.45
489.09	1065.41
489.45	1070.56
489.81	1081.33
490.17	1082.50
490.53	1087.41
490.89	1094.43
491.25	1081.56
491.61	1073.84
491.97	1078.05
492.33	1079.46
492.69	1079.46
493.05	1076.88
493.41	1075.48
493.77	1079.92
494.13	1078.99
494.49	1078.99
494.85	1077.58
495.21	1082.26
495.57	1072.20
495.93	1076.18
496.29	1075.94
496.64	1089.75
497.00	1094.90
497.36	1099.58
497.72	1098.65
498.08	1104.50
498.44	1105.44
498.80	1100.29
499.16	1101.69
499.52	1104.03
499.88	1102.86
500.24	1088.35
500.60	1085.07
500.96	1072.90
501.32	1071.97
501.68	1070.56
502.03	1086.71
502.39	1087.18
502.75	1106.84
503.11	1108.95
503.47	1108.95
503.83	1103.80
504.19	1104.03
504.55	1094.90
504.91	1099.58
505.26	1098.88
505.62	1096.54
505.98	1095.60
506.34	1097.71
506.70	1085.54
507.06	1082.03
507.42	1092.80
507.78	1102.16
508.13	1101.22
508.49	1111.52
508.85	1103.80
509.21	1097.01
509.57	1096.54
509.93	1094.43
510.28	1091.63
510.64	1094.67
511.00	1091.86
511.36	1082.03
511.72	1078.52
512.07	1076.41
512.43	1078.99
512.79	1078.75
513.15	1080.16
513.51	1082.73
513.86	1088.12
514.22	1095.37
514.58	1085.77
514.94	1089.75
515.30	1094.20
515.65	1086.94
516.01	1075.24
516.37	1090.22
516.73	1082.03
517.08	1077.11
517.44	1080.86
517.80	1086.71
518.16	1088.58
518.51	1082.97
518.87	1081.80
519.23	1077.58
519.59	1073.84
519.94	1066.35
520.30	1091.63
520.66	1101.92
521.01	1112.46
521.37	1120.88
521.73	1132.59
522.09	1121.12
522.44	1114.10
522.80	1106.84
523.16	1107.07
523.51	1099.58
523.87	1108.48
524.23	1110.35
524.58	1111.05
524.94	1106.61
525.30	1103.09
525.65	1091.39
526.01	1082.26
526.37	1081.80
526.72	1076.41
527.08	1075.94
527.44	1074.77
527.79	1087.18
528.15	1085.07
528.51	1099.12
528.86	1097.48
529.22	1092.09
529.58	1086.01
529.93	1095.37
530.29	1086.01
530.65	1080.16
531.00	1077.11
531.36	1082.97
531.71	1076.41
532.07	1081.56
532.43	1096.07
532.78	1107.31
533.14	1103.56
533.49	1094.43
533.85	1098.65
534.21	1089.75
534.56	1086.01
534.92	1077.11
535.27	1084.37
535.63	1080.39
535.98	1086.94
536.34	1088.58
536.69	1100.75
537.05	1097.01
537.41	1092.80
537.76	1088.58
538.12	1091.63
538.47	1079.92
538.83	1075.48
539.18	1077.82
539.54	1070.09
539.89	1064.01
540.25	1069.62
540.60	1068.45
540.96	1071.73
541.31	1081.09
541.67	1082.50
542.02	1084.37
542.38	1097.01
542.73	1089.75
543.09	1094.43
543.44	1097.95
543.80	1097.24
544.15	1096.31
544.51	1100.05
544.86	1099.12
545.22	1098.41
545.57	1097.48
545.93	1101.69
546.28	1098.41
546.64	1098.88
546.99	1097.24
547.35	1100.52
547.70	1093.03
548.05	1099.35
548.41	1096.07
548.76	1101.92
549.12	1100.75
549.47	1100.75
549.83	1102.86
550.18	1103.09
550.53	1097.01
550.89	1102.63
551.24	1097.71
551.60	1089.29
551.95	1080.16
552.30	1074.31
552.66	1075.24
553.01	1089.05
553.37	1089.52
553.72	1096.07
554.07	1104.50
554.43	1098.18
554.78	1097.24
555.13	1100.29
555.49	1104.26
555.84	1095.84
556.19	1095.37
556.55	1096.31
556.90	1082.26
557.26	1079.22
557.61	1079.69
557.96	1090.69
558.32	1079.22
558.67	1093.97
559.02	1099.58
559.37	1111.75
559.73	1100.05
560.08	1093.97
560.43	1089.05
560.79	1078.28
561.14	1068.22
561.49	1070.80
561.85	1076.88
562.20	1084.84
562.55	1083.67
562.90	1089.52
563.26	1088.35
563.61	1089.05
563.96	1078.75
564.32	1091.39
564.67	1088.12
565.02	1084.37
565.37	1081.09
565.73	1093.26
566.08	1093.73
566.43	1097.24
566.78	1103.80
567.14	1099.12
567.49	1085.77
567.84	1073.14
568.19	1077.82
568.54	1073.84
568.90	1089.75
569.25	1091.63
569.60	1083.43
569.95	1074.07
570.31	1082.03
570.66	1078.52
571.01	1084.37
571.36	1095.37
571.71	1101.92
572.06	1098.18
572.42	1091.86
572.77	1090.69
573.12	1093.03
573.47	1092.80
573.82	1087.41
574.18	1093.73
574.53	1099.12
574.88	1095.60
575.23	1081.33
575.58	1083.90
575.93	1076.41
576.28	1078.28
576.64	1085.77
576.99	1100.05
577.34	1100.29
577.69	1104.73
578.04	1101.69
578.39	1102.39
578.74	1098.41
579.09	1089.52
579.44	1089.52
579.80	1090.69
580.15	1089.29
580.50	1090.46
580.85	1090.46
581.20	1087.88
581.55	1077.35
581.90	1063.07
582.25	1067.28
582.60	1068.92
582.95	1064.01
583.30	1059.33
583.65	1071.26
584.00	1057.22
584.35	1051.84
584.71	1052.07
585.06	1057.69
585.41	1057.45
585.76	1061.20
586.11	1070.09
586.46	1075.24
586.81	1076.88
587.16	1077.58
587.51	1080.63
587.86	1086.94
588.21	1089.52
588.56	1091.39
588.91	1092.09
589.26	1096.07
589.61	1085.77
589.96	1083.90
590.31	1073.60
590.66	1074.54
591.01	1075.94
591.36	1080.39
591.71	1075.48
592.06	1081.33
592.41	1073.84
592.76	1076.18
593.10	1081.56
593.45	1085.31
593.80	1094.20
594.15	1099.58
594.50	1094.43
594.85	1091.39
595.20	1087.65
595.55	1077.82
595.90	1072.43
596.25	1082.03
596.60	1076.65
596.95	1085.07
597.30	1085.77
597.64	1136.56
597.99	1123.69
598.34	1115.97
598.69	1109.18
599.04	1115.97
599.39	1069.86
599.74	1066.11
600.09	1079.46
600.44	1075.71
600.78	1068.92
601.13	1066.58
601.48	1059.56
601.83	1050.90
602.18	1051.37
602.53	1055.82
602.88	1059.79
603.22	1074.77
603.57	1069.39
603.92	1079.69
604.27	1083.67
604.62	1090.69
604.97	1092.56
605.31	1090.46
605.66	1087.18
606.01	1086.24
606.36	1080.63
606.71	1071.26
607.05	1082.73
607.40	1090.22
607.75	1084.60
608.10	1075.48
608.44	1085.54
608.79	1093.03
609.14	1080.63
609.49	1080.86
609.84	1091.63
610.18	1100.52
610.53	1099.82
610.88	1111.99
611.23	1109.41
611.57	1100.05
611.92	1091.39
612.27	1089.75
612.62	1086.48
612.96	1089.75
613.31	1095.60
613.66	1091.63
614.00	1079.46
614.35	1075.01
614.70	1080.63
615.05	1079.69
615.39	1077.11
615.74	1095.14
616.09	1089.05
616.43	1083.43
616.78	1088.58
617.13	1082.97
617.47	1074.77
617.82	1078.28
618.17	1081.33
618.51	1071.97
618.86	1078.05
619.21	1077.58
619.55	1085.54
619.90	1086.48
620.25	1082.97
620.59	1087.41
620.94	1092.80
621.29	1085.77
621.63	1093.97
621.98	1098.65
622.32	1096.07
622.67	1084.14
623.02	1093.26
623.36	1086.71
623.71	1082.73
624.05	1092.56
624.40	1097.01
624.75	1093.50
625.09	1089.75
625.44	1098.41
625.78	1097.24
626.13	1102.63
626.48	1100.29
626.82	1091.39
627.17	1092.80
627.51	1085.54
627.86	1078.28
628.20	1070.56
628.55	1083.20
628.89	1076.88
629.24	1070.56
629.58	1065.88
629.93	1079.22
630.28	1072.90
630.62	1077.82
630.97	1086.24
631.31	1085.54
631.66	1079.46
632.00	1080.39
632.35	1082.73
632.69	1080.63
633.04	1088.35
633.38	1088.58
633.73	1085.54
634.07	1075.48
634.42	1069.16
634.76	1078.28
635.11	1071.26
635.45	1077.35
635.79	1082.73
636.14	1093.03
636.48	1076.65
636.83	1082.03
637.17	1071.73
637.52	1069.86
637.86	1072.90
638.21	1076.41
638.55	1083.43
638.89	1089.05
639.24	1095.84
639.58	1087.18
639.93	1094.43
640.27	1080.39
640.61	1082.50
640.96	1082.26
641.30	1087.18
641.65	1082.50
641.99	1083.90
642.33	1083.90
642.68	1077.82
643.02	1081.09
643.37	1092.80
643.71	1109.65
644.05	1105.90
644.40	1109.18
644.74	1100.52
645.08	1090.46
645.43	1076.88
645.77	1084.84
646.11	1084.84
646.46	1088.35
646.80	1087.65
647.14	1100.29
647.49	1100.29
647.83	1101.22
648.17	1104.73
648.52	1105.67
648.86	1097.48
649.20	1096.54
649.55	1089.99
649.89	1082.50
650.23	1090.46
650.57	1087.65
650.92	1082.03
651.26	1087.88
651.60	1093.73
651.95	1089.29
652.29	1091.16
652.63	1091.86
652.97	1087.65
653.32	1088.82
653.66	1085.31
654.00	1086.94
654.34	1084.60
654.69	1085.07
655.03	1081.56
655.37	1078.28
655.71	1083.43
656.05	1088.82
656.40	1094.20
656.74	1081.56
657.08	1085.77
657.42	1084.60
657.76	1081.80
658.11	1068.92
658.45	1078.52
658.79	1073.84
659.13	1072.67
659.47	1069.16
659.82	1077.35
660.16	1076.41
660.50	1076.88
660.84	1064.24
661.18	1068.22
661.52	1067.52
661.87	1066.35
662.21	1065.41
662.55	1068.22
662.89	1071.73
663.23	1075.48
663.57	1075.71
663.91	1073.37
664.25	1078.75
664.60	1071.03
664.94	1062.37
665.28	1065.88
665.62	1072.67
665.96	1070.56
666.30	1078.99
666.64	1082.73
666.98	1080.16
667.32	1073.37
667.66	1067.99
668.01	1065.41
668.35	1075.01
668.69	1076.41
669.03	1084.84
669.37	1087.18
669.71	1083.90
670.05	1075.71
670.39	1073.14
670.73	1072.20
671.07	1076.41
671.41	1081.33
671.75	1084.37
672.09	1088.12
672.43	1091.16
672.77	1094.43
673.11	1087.18
673.45	1090.22
673.79	1087.41
674.13	1088.82
674.47	1086.24
674.81	1086.71
675.15	1081.33
675.49	1077.11
675.83	1067.99
676.17	1067.99
676.51	1079.22
676.85	1078.52
677.19	1079.69
677.53	1080.39
677.87	1071.26
678.21	1057.45
678.55	1059.79
678.89	1063.31
679.23	1055.11
679.57	1066.11
679.90	1067.99
680.24	1072.67
680.58	1067.05
680.92	1086.01
681.26	1085.31
681.60	1095.14
681.94	1088.58
682.28	1092.56
682.62	1088.82
682.96	1084.84
683.29	1079.69
683.63	1074.77
683.97	1075.71
684.31	1073.37
684.65	1074.07
684.99	1072.20
685.33	1080.16
685.67	1082.03
686.00	1085.31
686.34	1079.92
686.68	1077.11
687.02	1071.03
687.36	1062.14
687.70	1058.62
688.03	1067.28
688.37	1071.50
688.71	1069.16
689.05	1077.35
689.39	1080.39
689.72	1079.92
690.06	1075.71
690.40	1080.86
690.74	1082.97
691.08	1086.24
691.41	1092.09
691.75	1100.05
692.09	1107.31
692.43	1103.56
692.76	1092.56
693.10	1085.07
693.44	1077.11
693.78	1081.56
694.11	1086.71
694.45	1081.56
694.79	1080.39
695.13	1088.12
695.46	1072.90
695.80	1077.58
696.14	1093.26
696.48	1095.14
696.81	1088.58
697.15	1086.01
697.49	1086.94
697.82	1084.60
698.16	1088.12
698.50	1098.41
698.83	1106.61
699.17	1094.43
699.51	1085.07
699.84	1076.88
700.18	1069.39
700.52	1066.35
700.85	1073.84
701.19	1075.71
701.53	1076.88
701.86	1078.75
702.20	1075.71
702.54	1072.67
702.87	1076.88
703.21	1074.54
703.55	1075.01
703.88	1074.77
704.22	1068.22
704.55	1070.56
704.89	1076.65
705.23	1078.99
705.56	1080.39
705.90	1088.58
706.23	1080.86
706.57	1079.46
706.91	1075.24
707.24	1077.82
707.58	1075.24
707.91	1080.39
708.25	1083.20
708.58	1082.26
708.92	1089.75
709.26	1093.03
709.59	1088.12
709.93	1085.77
710.26	1080.39
710.60	1068.92
710.93	1059.33
711.27	1058.39
711.60	1051.60
711.94	1048.33
712.27	1052.77
712.61	1058.39
712.94	1059.79
713.28	1076.41
713.61	1090.46
713.95	1088.82
714.28	1088.58
714.62	1086.01
714.95	1077.58
715.29	1073.37
715.62	1078.28
715.96	1080.39
716.29	1075.01
716.63	1063.54
716.96	1061.67
717.29	1051.60
717.63	1049.73
717.96	1064.01
718.30	1078.75
718.63	1089.99
718.97	1096.78
719.30	1088.82
719.63	1086.71
719.97	1077.58
720.30	1076.65
720.64	1076.18
720.97	1078.52
721.30	1082.73
721.64	1088.35
721.97	1076.18
722.31	1069.39
722.64	1078.05
722.97	1077.58
723.31	1065.88
723.64	1070.80
723.97	1075.48
724.31	1077.82
724.64	1076.18
724.98	1085.77
725.31	1083.20
725.64	1085.07
725.98	1078.52
726.31	1069.39
726.64	1067.52
726.97	1069.86
727.31	1062.37
727.64	1058.62
727.97	1069.62
728.31	1074.31
728.64	1062.14
728.97	1070.33
729.31	1075.94
729.64	1076.65
729.97	1088.35
730.30	1104.26
730.64	1101.69
730.97	1094.43
731.30	1094.20
731.63	1078.05
731.97	1070.33
732.30	1067.75
732.63	1073.84
732.96	1067.28
733.30	1070.33
733.63	1071.97
733.96	1078.28
734.29	1078.52
734.63	1081.80
734.96	1078.99
735.29	1081.33
735.62	1082.73
735.95	1077.82
736.29	1071.26
736.62	1076.18
736.95	1072.90
737.28	1078.05
737.61	1086.24
737.94	1083.90
738.28	1077.58
738.61	1081.09
738.94	1068.69
739.27	1062.60
739.60	1067.99
739.93	1059.56
740.27	1060.50
740.60	1068.22
740.93	1068.45
741.26	1072.67
741.59	1082.26
741.92	1080.39
742.25	1077.11
742.58	1085.77
742.91	1087.88
743.25	1094.67
743.58	1090.92
743.91	1094.43
744.24	1087.18
744.57	1079.46
744.90	1078.52
745.23	1083.20
745.56	1076.18
745.89	1078.28
746.22	1085.31
746.55	1074.54
746.88	1068.45
747.21	1066.82
747.54	1062.60
747.87	1055.58
748.20	1060.26
748.53	1070.56
748.87	1072.90
749.20	1067.05
749.53	1068.69
749.86	1073.37
750.19	1065.65
750.52	1076.41
750.85	1084.84
751.18	1086.24
751.51	1076.18
751.84	1082.73
752.16	1076.88
752.49	1067.99
752.82	1066.35
753.15	1071.50
753.48	1075.94
753.81	1073.60
754.14	1077.58
754.47	1076.41
754.80	1088.82
755.13	1072.90
755.46	1069.39
755.79	1074.77
756.12	1088.58
756.45	1081.56
756.78	1094.67
757.11	1098.41
757.43	1091.39
757.76	1081.56
758.09	1073.37
758.42	1072.67
758.75	1064.01
759.08	1075.48
759.41	1074.54
759.74	1083.43
760.07	1065.18
760.39	1067.75
760.72	1063.31
761.05	1061.90
761.38	1065.18
761.71	1081.33
762.04	1077.58
762.36	1083.90
762.69	1086.94
763.02	1080.63
763.35	1079.22
763.68	1080.16
764.01	1078.52
764.33	1080.39
764.66	1078.05
764.99	1073.84
765.32	1093.03
765.65	1093.97
765.97	1087.41
766.30	1091.63
