SpectraSuite Data File
++++++++++++++++++++++++++++++++++++
Date: Mon Aug 26 10:25:55 PDT 2019
User: corrico
Dark Spectrum Present: No
Reference Spectrum Present: No
Number of Sampled Component Spectra: 1
Spectrometers: USB2+H06089
Integration Time (usec): 10000 (USB2+H06089)
Spectra Averaged: 2 (USB2+H06089)
Boxcar Smoothing: 2 (USB2+H06089)
Correct for Electrical Dark: No (USB2+H06089)
Strobe/Lamp Enabled: No (USB2+H06089)
Correct for Detector Non-linearity: No (USB2+H06089)
Correct for Stray Light: No (USB2+H06089)
Number of Pixels in Processed Spectrum: 2048
>>>>>Begin Processed Spectral Data<<<<<
339.70	1015.79
340.07	1015.79
340.45	979.05
340.82	965.47
341.19	943.70
341.57	920.77
341.94	921.23
342.31	911.87
342.69	903.68
343.06	906.49
343.43	912.11
343.81	916.09
344.18	919.13
344.55	930.13
344.93	935.28
345.30	934.58
345.67	930.83
346.04	939.73
346.42	935.51
346.79	932.94
347.16	940.43
347.54	953.30
347.91	969.45
348.28	981.62
348.65	992.86
349.03	998.24
349.40	1017.20
349.77	1013.69
350.14	1029.13
350.52	1032.18
350.89	1050.67
351.26	1040.37
351.63	1049.03
352.01	1046.45
352.38	1060.50
352.75	1055.82
353.12	1058.86
353.50	1063.31
353.87	1059.56
354.24	1055.35
354.61	1051.60
354.98	1053.71
355.36	1057.22
355.73	1061.20
356.10	1071.50
356.47	1080.16
356.84	1083.67
357.22	1089.75
357.59	1092.80
357.96	1093.50
358.33	1099.82
358.70	1102.16
359.08	1092.09
359.45	1094.43
359.82	1091.16
360.19	1092.80
360.56	1087.18
360.94	1086.24
361.31	1079.46
361.68	1077.58
362.05	1064.71
362.42	1067.52
362.79	1078.05
363.16	1078.99
363.54	1078.05
363.91	1093.03
364.28	1100.05
364.65	1092.56
365.02	1092.56
365.39	1092.56
365.76	1075.71
366.14	1066.11
366.51	1063.31
366.88	1066.11
367.25	1067.05
367.62	1064.71
367.99	1063.77
368.36	1064.48
368.73	1061.90
369.10	1059.09
369.48	1063.07
369.85	1065.88
370.22	1064.24
370.59	1067.28
370.96	1070.09
371.33	1067.75
371.70	1065.41
372.07	1073.37
372.44	1067.05
372.81	1062.14
373.18	1069.86
373.55	1079.46
373.93	1075.01
374.30	1077.11
374.67	1076.41
375.04	1068.92
375.41	1059.33
375.78	1052.77
376.15	1042.94
376.52	1051.37
376.89	1053.94
377.26	1056.05
377.63	1060.50
378.00	1080.39
378.37	1076.41
378.74	1082.26
379.11	1083.67
379.48	1087.41
379.85	1082.50
380.22	1093.97
380.59	1087.88
380.96	1084.60
381.33	1073.84
381.70	1078.52
382.07	1065.41
382.44	1081.09
382.81	1082.50
383.18	1085.77
383.55	1082.73
383.92	1078.28
384.29	1064.24
384.66	1061.90
385.03	1065.18
385.40	1057.22
385.77	1068.69
386.14	1072.90
386.51	1071.73
386.88	1070.80
387.25	1071.03
387.62	1068.92
387.99	1081.56
388.36	1094.20
388.73	1095.60
389.10	1102.16
389.46	1107.54
389.83	1091.86
390.20	1088.35
390.57	1085.77
390.94	1082.03
391.31	1072.43
391.68	1076.18
392.05	1086.94
392.42	1095.60
392.79	1108.71
393.16	1098.18
393.53	1098.18
393.89	1081.56
394.26	1074.77
394.63	1058.86
395.00	1066.35
395.37	1058.62
395.74	1067.75
396.11	1068.22
396.48	1074.77
396.84	1081.56
397.21	1077.11
397.58	1066.58
397.95	1066.82
398.32	1062.37
398.69	1060.50
399.06	1075.24
399.42	1081.56
399.79	1077.11
400.16	1069.16
400.53	1060.26
400.90	1057.69
401.27	1058.16
401.64	1070.33
402.00	1075.71
402.37	1084.37
402.74	1085.31
403.11	1081.56
403.48	1069.62
403.84	1079.92
404.21	1074.07
404.58	1059.79
404.95	1060.03
405.32	1063.07
405.68	1053.01
406.05	1057.92
406.42	1060.50
406.79	1064.94
407.16	1073.37
407.52	1071.03
407.89	1075.48
408.26	1082.26
408.63	1078.05
408.99	1071.73
409.36	1081.09
409.73	1076.18
410.10	1069.86
410.47	1072.20
410.83	1064.71
411.20	1058.62
411.57	1054.41
411.94	1064.24
412.30	1055.82
412.67	1065.41
413.04	1058.62
413.40	1052.54
413.77	1056.99
414.14	1058.86
414.51	1059.33
414.87	1059.33
415.24	1071.50
415.61	1064.01
415.97	1063.54
416.34	1061.20
416.71	1064.48
417.08	1052.77
417.44	1060.50
417.81	1069.39
418.18	1064.48
418.54	1065.88
418.91	1079.69
419.28	1073.60
419.64	1066.82
420.01	1072.90
420.38	1075.48
420.74	1065.88
421.11	1064.48
421.48	1065.88
421.84	1069.86
422.21	1074.54
422.58	1085.31
422.94	1081.56
423.31	1081.80
423.68	1068.92
424.04	1071.26
424.41	1063.31
424.77	1063.31
425.14	1067.75
425.51	1077.58
425.87	1072.90
426.24	1079.92
426.61	1088.12
426.97	1097.24
427.34	1099.82
427.70	1103.09
428.07	1102.16
428.44	1097.71
428.80	1093.73
429.17	1092.80
429.53	1092.80
429.90	1094.90
430.27	1092.56
430.63	1091.16
431.00	1089.29
431.36	1090.22
431.73	1085.77
432.09	1089.05
432.46	1082.50
432.83	1079.92
433.19	1075.71
433.56	1067.52
433.92	1072.43
434.29	1083.20
434.65	1082.97
435.02	1084.14
435.38	1085.07
435.75	1082.03
436.11	1075.71
436.48	1077.11
436.84	1083.90
437.21	1095.14
437.57	1090.22
437.94	1076.88
438.30	1070.33
438.67	1058.86
439.03	1062.60
439.40	1071.50
439.76	1081.09
440.13	1079.69
440.49	1088.35
440.86	1086.24
441.22	1083.90
441.59	1090.46
441.95	1096.07
442.32	1095.84
442.68	1092.09
443.05	1093.26
443.41	1089.52
443.78	1092.80
444.14	1087.41
444.51	1086.94
444.87	1083.43
445.24	1083.67
445.60	1074.77
445.96	1078.05
446.33	1074.07
446.69	1076.88
447.06	1067.75
447.42	1079.22
447.79	1075.48
448.15	1087.65
448.51	1072.67
448.88	1078.05
449.24	1067.52
449.61	1063.77
449.97	1037.79
450.33	1048.33
450.70	1050.20
451.06	1050.90
451.43	1060.73
451.79	1075.48
452.15	1073.60
452.52	1073.14
452.88	1082.97
453.24	1085.07
453.61	1086.24
453.97	1095.14
454.34	1091.86
454.70	1082.73
455.06	1073.14
455.43	1072.67
455.79	1063.54
456.15	1075.24
456.52	1076.18
456.88	1074.07
457.24	1079.22
457.61	1087.18
457.97	1079.46
458.33	1086.48
458.70	1097.71
459.06	1096.78
459.42	1089.52
459.79	1082.73
460.15	1078.28
460.51	1074.31
460.88	1065.41
461.24	1070.56
461.60	1071.97
461.96	1071.03
462.33	1081.56
462.69	1097.01
463.05	1093.97
463.42	1101.69
463.78	1103.33
464.14	1090.69
464.50	1086.71
464.87	1093.26
465.23	1084.84
465.59	1089.29
465.95	1090.46
466.32	1087.18
466.68	1075.71
467.04	1076.41
467.40	1066.58
467.77	1058.86
468.13	1059.33
468.49	1067.52
468.85	1070.56
469.22	1078.52
469.58	1086.48
469.94	1085.07
470.30	1074.31
470.66	1078.28
471.03	1077.82
471.39	1076.65
471.75	1062.14
472.11	1061.90
472.47	1065.88
472.84	1063.31
473.20	1068.45
473.56	1075.48
473.92	1086.94
474.28	1090.92
474.65	1086.94
475.01	1078.52
475.37	1086.01
475.73	1081.80
476.09	1077.11
476.45	1074.07
476.81	1066.58
477.18	1064.48
477.54	1069.86
477.90	1077.11
478.26	1084.14
478.62	1094.20
478.98	1091.86
479.34	1082.97
479.71	1069.62
480.07	1070.09
480.43	1070.56
480.79	1074.54
481.15	1080.63
481.51	1087.65
481.87	1100.52
482.23	1100.29
482.59	1100.99
482.96	1095.37
483.32	1089.05
483.68	1078.75
484.04	1085.54
484.40	1078.05
484.76	1083.67
485.12	1093.26
485.48	1090.69
485.84	1088.35
486.20	1091.16
486.56	1085.31
486.92	1071.50
487.28	1071.03
487.64	1068.22
488.00	1070.56
488.37	1080.86
488.73	1087.88
489.09	1089.29
489.45	1083.67
489.81	1081.56
490.17	1084.84
490.53	1085.31
490.89	1086.01
491.25	1089.52
491.61	1085.31
491.97	1071.03
492.33	1068.45
492.69	1075.01
493.05	1091.16
493.41	1098.65
493.77	1104.03
494.13	1107.07
494.49	1105.67
494.85	1094.67
495.21	1097.48
495.57	1103.09
495.93	1101.46
496.29	1099.35
496.64	1102.86
497.00	1100.75
497.36	1092.33
497.72	1078.99
498.08	1072.43
498.44	1063.77
498.80	1067.75
499.16	1071.97
499.52	1087.41
499.88	1093.73
500.24	1089.99
500.60	1090.46
500.96	1085.54
501.32	1089.05
501.68	1084.60
502.03	1090.46
502.39	1092.33
502.75	1094.67
503.11	1088.12
503.47	1094.43
503.83	1106.61
504.19	1087.65
504.55	1089.05
504.91	1087.65
505.26	1086.01
505.62	1063.54
505.98	1082.97
506.34	1087.65
506.70	1084.37
507.06	1089.52
507.42	1102.63
507.78	1099.58
508.13	1094.90
508.49	1107.54
508.85	1096.07
509.21	1096.54
509.57	1093.26
509.93	1098.18
510.28	1084.60
510.64	1086.71
511.00	1085.77
511.36	1077.58
511.72	1070.09
512.07	1066.11
512.43	1068.92
512.79	1070.56
513.15	1081.09
513.51	1086.01
513.86	1092.33
514.22	1080.86
514.58	1075.01
514.94	1068.92
515.30	1065.65
515.65	1069.39
516.01	1075.48
516.37	1080.86
516.73	1079.92
517.08	1075.24
517.44	1061.90
517.80	1065.88
518.16	1063.77
518.51	1067.52
518.87	1069.86
519.23	1085.54
519.59	1091.86
519.94	1092.09
520.30	1093.73
520.66	1091.16
521.01	1088.12
521.37	1083.43
521.73	1082.50
522.09	1081.80
522.44	1094.90
522.80	1100.99
523.16	1097.24
523.51	1100.52
523.87	1105.90
524.23	1100.99
524.58	1100.75
524.94	1100.29
525.30	1087.65
525.65	1084.37
526.01	1086.01
526.37	1083.67
526.72	1094.67
527.08	1112.22
527.44	1113.63
527.79	1109.88
528.15	1115.50
528.51	1107.07
528.86	1100.99
529.22	1110.35
529.58	1110.12
529.93	1098.41
530.29	1099.82
530.65	1102.39
531.00	1086.71
531.36	1079.69
531.71	1075.24
532.07	1074.31
532.43	1069.86
532.78	1072.90
533.14	1079.22
533.49	1083.43
533.85	1078.99
534.21	1073.60
534.56	1068.22
534.92	1070.09
535.27	1082.26
535.63	1091.39
535.98	1094.67
536.34	1096.78
536.69	1103.09
537.05	1101.22
537.41	1096.78
537.76	1098.65
538.12	1110.12
538.47	1108.01
538.83	1099.12
539.18	1100.29
539.54	1100.75
539.89	1103.80
540.25	1104.26
540.60	1105.90
540.96	1098.18
541.31	1100.75
541.67	1081.80
542.02	1076.18
542.38	1078.75
542.73	1093.03
543.09	1103.33
543.44	1112.92
543.80	1110.35
544.15	1110.82
544.51	1106.61
544.86	1096.78
545.22	1095.14
545.57	1091.86
545.93	1091.39
546.28	1092.80
546.64	1086.01
546.99	1090.69
547.35	1108.24
547.70	1109.88
548.05	1100.75
548.41	1110.82
548.76	1096.78
549.12	1088.12
549.47	1081.09
549.83	1094.20
550.18	1088.58
550.53	1097.48
550.89	1094.90
551.24	1102.39
551.60	1090.46
551.95	1098.18
552.30	1093.50
552.66	1090.22
553.01	1078.05
553.37	1077.82
553.72	1064.01
554.07	1063.54
554.43	1068.45
554.78	1080.16
555.13	1079.46
555.49	1080.16
555.84	1083.43
556.19	1088.82
556.55	1088.12
556.90	1095.37
557.26	1094.43
557.61	1099.58
557.96	1092.56
558.32	1091.16
558.67	1085.31
559.02	1097.48
559.37	1094.43
559.73	1097.48
560.08	1090.46
560.43	1093.03
560.79	1075.01
561.14	1062.84
561.49	1049.96
561.85	1056.28
562.20	1054.65
562.55	1062.60
562.90	1065.88
563.26	1076.41
563.61	1080.86
563.96	1080.63
564.32	1086.94
564.67	1092.80
565.02	1090.69
565.37	1082.97
565.73	1088.35
566.08	1080.63
566.43	1087.18
566.78	1088.12
567.14	1083.67
567.49	1078.75
567.84	1089.75
568.19	1083.43
568.54	1082.97
568.90	1085.31
569.25	1078.75
569.60	1069.62
569.95	1066.35
570.31	1064.24
570.66	1059.56
571.01	1067.28
571.36	1070.80
571.71	1077.11
572.06	1075.24
572.42	1087.88
572.77	1088.58
573.12	1091.86
573.47	1093.50
573.82	1095.60
574.18	1091.63
574.53	1092.33
574.88	1075.24
575.23	1071.50
575.58	1070.56
575.93	1069.62
576.28	1071.26
576.64	1080.86
576.99	1090.92
577.34	1097.24
577.69	1100.05
578.04	1091.39
578.39	1090.92
578.74	1085.07
579.09	1085.77
579.44	1074.31
579.80	1075.94
580.15	1081.09
580.50	1081.33
580.85	1075.01
581.20	1082.73
581.55	1093.50
581.90	1091.86
582.25	1088.35
582.60	1090.22
582.95	1091.16
583.30	1077.82
583.65	1072.43
584.00	1069.39
584.35	1073.37
584.71	1073.14
585.06	1083.43
585.41	1080.39
585.76	1078.05
586.11	1078.28
586.46	1068.92
586.81	1065.88
587.16	1069.62
587.51	1071.73
587.86	1072.20
588.21	1081.56
588.56	1077.35
588.91	1078.52
589.26	1082.26
589.61	1084.84
589.96	1082.97
590.31	1086.24
590.66	1087.65
591.01	1082.97
591.36	1075.24
591.71	1075.24
592.06	1074.31
592.41	1073.60
592.76	1077.82
593.10	1079.46
593.45	1082.50
593.80	1090.46
594.15	1095.60
594.50	1099.35
594.85	1090.92
595.20	1090.92
595.55	1085.31
595.90	1082.03
596.25	1083.67
596.60	1086.48
596.95	1072.20
597.30	1063.54
597.64	1119.95
597.99	1119.48
598.34	1117.37
598.69	1130.01
599.04	1137.03
599.39	1086.94
599.74	1086.94
600.09	1099.35
600.44	1099.12
600.78	1110.58
601.13	1100.75
601.48	1097.24
601.83	1086.94
602.18	1086.48
602.53	1075.24
602.88	1072.43
603.22	1069.62
603.57	1069.39
603.92	1074.31
604.27	1075.01
604.62	1080.63
604.97	1081.80
605.31	1092.56
605.66	1100.75
606.01	1105.20
606.36	1108.71
606.71	1112.22
607.05	1109.41
607.40	1096.78
607.75	1084.37
608.10	1080.86
608.44	1076.65
608.79	1069.86
609.14	1066.82
609.49	1065.88
609.84	1065.65
610.18	1072.20
610.53	1078.75
610.88	1086.01
611.23	1097.24
611.57	1100.75
611.92	1104.03
612.27	1105.44
612.62	1109.41
612.96	1113.39
613.31	1115.50
613.66	1101.92
614.00	1099.35
614.35	1090.46
614.70	1080.63
615.05	1078.75
615.39	1091.16
615.74	1093.73
616.09	1100.52
616.43	1101.69
616.78	1092.56
617.13	1089.29
617.47	1077.11
617.82	1075.71
618.17	1072.43
618.51	1082.73
618.86	1075.94
619.21	1080.39
619.55	1086.71
619.90	1095.60
620.25	1088.82
620.59	1089.05
620.94	1093.50
621.29	1079.69
621.63	1075.94
621.98	1083.43
622.32	1077.35
622.67	1076.88
623.02	1080.39
623.36	1088.82
623.71	1076.65
624.05	1082.26
624.40	1083.43
624.75	1084.37
625.09	1067.99
625.44	1076.41
625.78	1077.11
626.13	1075.71
626.48	1084.37
626.82	1087.88
627.17	1090.46
627.51	1094.43
627.86	1094.67
628.20	1085.07
628.55	1082.50
628.89	1078.75
629.24	1077.58
629.58	1078.52
629.93	1075.24
630.28	1080.86
630.62	1080.86
630.97	1078.05
631.31	1070.09
631.66	1066.82
632.00	1064.71
632.35	1058.62
632.69	1063.77
633.04	1079.46
633.38	1088.58
633.73	1080.86
634.07	1089.29
634.42	1092.33
634.76	1081.56
635.11	1083.67
635.45	1093.97
635.79	1084.60
636.14	1077.11
636.48	1080.63
636.83	1075.48
637.17	1074.07
637.52	1088.82
637.86	1088.12
638.21	1084.14
638.55	1080.63
638.89	1080.63
639.24	1073.14
639.58	1067.52
639.93	1069.62
640.27	1078.05
640.61	1075.71
640.96	1066.35
641.30	1067.75
641.65	1066.35
641.99	1063.31
642.33	1068.92
642.68	1073.14
643.02	1081.80
643.37	1080.39
643.71	1082.50
644.05	1089.29
644.40	1094.43
644.74	1095.14
645.08	1108.95
645.43	1102.63
645.77	1101.92
646.11	1111.29
646.46	1102.86
646.80	1086.48
647.14	1090.92
647.49	1089.05
647.83	1081.09
648.17	1088.12
648.52	1097.95
648.86	1098.18
649.20	1094.20
649.55	1089.75
649.89	1093.73
650.23	1092.09
650.57	1091.86
650.92	1086.01
651.26	1084.14
651.60	1073.84
651.95	1068.69
652.29	1063.31
652.63	1064.94
652.97	1059.79
653.32	1066.35
653.66	1075.01
654.00	1079.92
654.34	1078.52
654.69	1078.28
655.03	1068.69
655.37	1065.41
655.71	1076.41
656.05	1082.50
656.40	1096.78
656.74	1097.95
657.08	1090.22
657.42	1074.54
657.76	1064.48
658.11	1061.90
658.45	1063.07
658.79	1068.69
659.13	1073.84
659.47	1082.26
659.82	1080.63
660.16	1093.73
660.50	1087.88
660.84	1089.75
661.18	1081.80
661.52	1083.67
661.87	1070.09
662.21	1068.92
662.55	1066.58
662.89	1075.01
663.23	1074.31
663.57	1075.48
663.91	1078.75
664.25	1069.86
664.60	1060.96
664.94	1053.71
665.28	1056.28
665.62	1055.82
665.96	1069.86
666.30	1074.54
666.64	1074.07
666.98	1068.69
667.32	1074.07
667.66	1072.67
668.01	1074.77
668.35	1094.90
668.69	1103.09
669.03	1093.73
669.37	1093.03
669.71	1086.24
670.05	1079.92
670.39	1085.07
670.73	1090.46
671.07	1084.14
671.41	1092.80
671.75	1087.41
672.09	1083.67
672.43	1086.24
672.77	1090.69
673.11	1086.01
673.45	1084.84
673.79	1080.39
674.13	1073.60
674.47	1063.77
674.81	1066.58
675.15	1063.54
675.49	1071.03
675.83	1057.92
676.17	1068.69
676.51	1069.62
676.85	1075.01
677.19	1073.14
677.53	1090.46
677.87	1086.94
678.21	1088.35
678.55	1090.69
678.89	1084.84
679.23	1083.90
679.57	1087.88
679.90	1090.92
680.24	1093.97
680.58	1088.58
680.92	1091.16
681.26	1090.22
681.60	1084.37
681.94	1075.24
682.28	1084.14
682.62	1075.48
682.96	1064.48
683.29	1062.84
683.63	1065.41
683.97	1059.56
684.31	1058.16
684.65	1067.28
684.99	1071.03
685.33	1068.92
685.67	1069.39
686.00	1069.16
686.34	1068.22
686.68	1063.54
687.02	1062.84
687.36	1056.05
687.70	1066.35
688.03	1073.60
688.37	1081.80
688.71	1092.33
689.05	1099.58
689.39	1097.95
689.72	1093.97
690.06	1091.63
690.40	1080.16
690.74	1082.26
691.08	1087.65
691.41	1093.26
691.75	1097.71
692.09	1098.41
692.43	1102.16
692.76	1100.05
693.10	1092.33
693.44	1087.88
693.78	1085.77
694.11	1088.12
694.45	1093.26
694.79	1094.43
695.13	1084.84
695.46	1082.03
695.80	1070.33
696.14	1060.03
696.48	1061.20
696.81	1070.33
697.15	1075.71
697.49	1085.77
697.82	1085.77
698.16	1081.80
698.50	1083.90
698.83	1079.92
699.17	1080.39
699.51	1090.69
699.84	1091.39
700.18	1094.90
700.52	1103.80
700.85	1097.71
701.19	1085.31
701.53	1081.80
701.86	1070.56
702.20	1068.69
702.54	1069.16
702.87	1072.67
703.21	1081.09
703.55	1083.43
703.88	1082.26
704.22	1082.97
704.55	1083.90
704.89	1072.90
705.23	1074.54
705.56	1073.14
705.90	1072.67
706.23	1075.94
706.57	1079.69
706.91	1082.50
707.24	1085.77
707.58	1086.01
707.91	1078.75
708.25	1087.65
708.58	1075.71
708.92	1073.14
709.26	1074.31
709.59	1079.69
709.93	1069.86
710.26	1087.88
710.60	1091.86
710.93	1091.39
711.27	1083.20
711.60	1081.80
711.94	1079.46
712.27	1075.48
712.61	1077.58
712.94	1084.60
713.28	1089.29
713.61	1081.80
713.95	1076.88
714.28	1080.16
714.62	1079.92
714.95	1075.01
715.29	1082.26
715.62	1084.84
715.96	1076.65
716.29	1071.73
716.63	1071.50
716.96	1067.99
717.29	1084.37
717.63	1078.28
717.96	1081.33
718.30	1089.29
718.63	1090.46
718.97	1079.92
719.30	1095.60
719.63	1091.39
719.97	1085.07
720.30	1077.58
720.64	1073.84
720.97	1068.45
721.30	1070.33
721.64	1074.77
721.97	1073.14
722.31	1080.63
722.64	1077.82
722.97	1084.37
723.31	1082.97
723.64	1073.14
723.97	1059.56
724.31	1055.82
724.64	1053.71
724.98	1051.37
725.31	1069.62
725.64	1085.77
725.98	1082.50
726.31	1075.24
726.64	1074.54
726.97	1069.16
727.31	1059.79
727.64	1071.73
727.97	1075.48
728.31	1081.09
728.64	1083.67
728.97	1084.84
729.31	1076.41
729.64	1084.60
729.97	1085.77
730.30	1079.92
730.64	1086.24
730.97	1097.71
731.30	1099.82
731.63	1101.46
731.97	1110.82
732.30	1098.65
732.63	1097.48
732.96	1092.33
733.30	1094.90
733.63	1092.33
733.96	1089.05
734.29	1089.75
734.63	1082.73
734.96	1077.58
735.29	1077.35
735.62	1082.03
735.95	1073.84
736.29	1080.39
736.62	1073.60
736.95	1067.99
737.28	1075.94
737.61	1081.33
737.94	1079.46
738.28	1086.94
738.61	1080.63
738.94	1071.73
739.27	1068.92
739.60	1071.03
739.93	1069.62
740.27	1083.90
740.60	1093.97
740.93	1091.16
741.26	1098.65
741.59	1107.31
741.92	1100.05
742.25	1089.29
742.58	1098.41
742.91	1094.67
743.25	1083.20
743.58	1086.01
743.91	1081.56
744.24	1067.05
744.57	1057.92
744.90	1056.28
745.23	1058.86
745.56	1073.60
745.89	1074.54
746.22	1082.97
746.55	1085.54
746.88	1081.80
747.21	1071.26
747.54	1075.94
747.87	1068.92
748.20	1071.73
748.53	1079.69
748.87	1078.28
749.20	1080.39
749.53	1089.29
749.86	1093.97
750.19	1082.73
750.52	1090.69
750.85	1093.97
751.18	1087.18
751.51	1089.75
751.84	1099.35
752.16	1089.05
752.49	1093.50
752.82	1092.56
753.15	1090.22
753.48	1086.01
753.81	1097.24
754.14	1092.80
754.47	1092.09
754.80	1080.39
755.13	1083.43
755.46	1088.35
755.79	1083.90
756.12	1086.48
756.45	1094.43
756.78	1086.94
757.11	1073.37
757.43	1074.31
757.76	1078.05
758.09	1070.09
758.42	1070.09
758.75	1072.90
759.08	1078.75
759.41	1079.46
759.74	1082.73
760.07	1083.90
760.39	1079.92
760.72	1079.22
761.05	1071.97
761.38	1068.92
761.71	1071.26
762.04	1073.14
762.36	1074.77
762.69	1076.88
763.02	1083.90
763.35	1080.16
763.68	1078.99
764.01	1059.33
764.33	1068.69
764.66	1068.92
764.99	1085.31
765.32	1096.54
765.65	1110.12
765.97	1097.01
766.30	1094.43
