SpectraSuite Data File
++++++++++++++++++++++++++++++++++++
Date: Mon Aug 26 10:25:58 PDT 2019
User: corrico
Dark Spectrum Present: No
Reference Spectrum Present: No
Number of Sampled Component Spectra: 1
Spectrometers: USB2+H06089
Integration Time (usec): 10000 (USB2+H06089)
Spectra Averaged: 2 (USB2+H06089)
Boxcar Smoothing: 2 (USB2+H06089)
Correct for Electrical Dark: No (USB2+H06089)
Strobe/Lamp Enabled: No (USB2+H06089)
Correct for Detector Non-linearity: No (USB2+H06089)
Correct for Stray Light: No (USB2+H06089)
Number of Pixels in Processed Spectrum: 2048
>>>>>Begin Processed Spectral Data<<<<<
339.70	986.54
340.07	986.54
340.45	971.32
340.82	954.70
341.19	949.79
341.57	924.04
341.94	916.09
342.31	909.53
342.69	904.38
343.06	890.34
343.43	898.53
343.81	893.85
344.18	904.62
344.55	913.98
344.93	928.72
345.30	942.77
345.67	953.07
346.04	941.13
346.42	952.60
346.79	961.26
347.16	968.05
347.54	972.73
347.91	989.34
348.28	992.39
348.65	986.30
349.03	980.92
349.40	991.68
349.77	998.71
350.14	1009.00
350.52	1021.18
350.89	1035.69
351.26	1040.13
351.63	1056.05
352.01	1052.54
352.38	1056.99
352.75	1066.82
353.12	1079.92
353.50	1080.63
353.87	1082.03
354.24	1087.65
354.61	1074.07
354.98	1065.88
355.36	1053.01
355.73	1057.92
356.10	1063.54
356.47	1079.69
356.84	1074.77
357.22	1087.88
357.59	1090.69
357.96	1083.43
358.33	1075.71
358.70	1072.90
359.08	1072.43
359.45	1062.14
359.82	1063.77
360.19	1065.41
360.56	1082.03
360.94	1070.09
361.31	1079.69
361.68	1073.14
362.05	1072.67
362.42	1068.92
362.79	1078.52
363.16	1078.52
363.54	1076.88
363.91	1071.73
364.28	1075.71
364.65	1068.22
365.02	1068.22
365.39	1081.33
365.76	1073.37
366.14	1066.58
366.51	1078.52
366.88	1073.14
367.25	1062.60
367.62	1073.14
367.99	1061.20
368.36	1052.07
368.73	1050.43
369.10	1051.37
369.48	1066.58
369.85	1071.50
370.22	1068.92
370.59	1072.20
370.96	1076.65
371.33	1064.94
371.70	1071.97
372.07	1067.52
372.44	1073.14
372.81	1082.50
373.18	1084.60
373.55	1087.65
373.93	1104.26
374.30	1100.29
374.67	1090.69
375.04	1082.50
375.41	1063.07
375.78	1053.94
376.15	1059.56
376.52	1055.58
376.89	1060.03
377.26	1073.14
377.63	1071.26
378.00	1074.77
378.37	1068.69
378.74	1077.82
379.11	1086.94
379.48	1096.78
379.85	1080.86
380.22	1090.22
380.59	1074.54
380.96	1066.35
381.33	1060.03
381.70	1073.14
382.07	1063.31
382.44	1074.54
382.81	1069.86
383.18	1064.24
383.55	1057.69
383.92	1060.96
384.29	1056.52
384.66	1065.41
385.03	1074.07
385.40	1073.14
385.77	1083.67
386.14	1087.65
386.51	1082.26
386.88	1080.63
387.25	1087.18
387.62	1086.94
387.99	1074.77
388.36	1083.67
388.73	1074.07
389.10	1068.22
389.46	1059.33
389.83	1070.56
390.20	1060.26
390.57	1059.33
390.94	1070.56
391.31	1072.20
391.68	1068.22
392.05	1077.35
392.42	1080.16
392.79	1071.03
393.16	1072.90
393.53	1074.07
393.89	1076.41
394.26	1081.09
394.63	1086.71
395.00	1086.24
395.37	1093.50
395.74	1089.52
396.11	1086.24
396.48	1073.60
396.84	1069.86
397.21	1061.67
397.58	1056.99
397.95	1059.33
398.32	1066.11
398.69	1072.43
399.06	1079.22
399.42	1080.16
399.79	1078.05
400.16	1078.75
400.53	1077.11
400.90	1074.31
401.27	1081.33
401.64	1084.60
402.00	1077.35
402.37	1065.41
402.74	1062.14
403.11	1054.65
403.48	1053.71
403.84	1063.31
404.21	1075.94
404.58	1070.33
404.95	1070.80
405.32	1078.28
405.68	1081.09
406.05	1081.56
406.42	1089.99
406.79	1092.09
407.16	1079.22
407.52	1067.05
407.89	1065.18
408.26	1063.07
408.63	1056.28
408.99	1070.56
409.36	1085.07
409.73	1085.07
410.10	1083.90
410.47	1091.16
410.83	1087.41
411.20	1077.82
411.57	1084.84
411.94	1086.01
412.30	1080.63
412.67	1073.84
413.04	1080.63
413.40	1073.37
413.77	1073.14
414.14	1080.86
414.51	1082.50
414.87	1074.07
415.24	1070.80
415.61	1061.20
415.97	1058.16
416.34	1048.09
416.71	1042.71
417.08	1047.86
417.44	1053.71
417.81	1053.01
418.18	1058.86
418.54	1062.14
418.91	1056.52
419.28	1061.43
419.64	1058.39
420.01	1070.33
420.38	1077.58
420.74	1076.88
421.11	1076.65
421.48	1073.60
421.84	1076.65
422.21	1073.60
422.58	1075.94
422.94	1075.71
423.31	1088.12
423.68	1075.71
424.04	1075.01
424.41	1086.48
424.77	1088.35
425.14	1082.03
425.51	1097.71
425.87	1097.71
426.24	1082.50
426.61	1075.71
426.97	1076.41
427.34	1062.37
427.70	1063.31
428.07	1068.45
428.44	1069.16
428.80	1071.73
429.17	1071.26
429.53	1076.65
429.90	1071.26
430.27	1073.37
430.63	1065.88
431.00	1071.26
431.36	1072.67
431.73	1082.73
432.09	1084.84
432.46	1091.63
432.83	1092.09
433.19	1084.37
433.56	1076.65
433.92	1075.01
434.29	1069.39
434.65	1064.48
435.02	1074.77
435.38	1083.90
435.75	1082.97
436.11	1088.58
436.48	1087.41
436.84	1074.54
437.21	1075.48
437.57	1087.18
437.94	1083.20
438.30	1086.24
438.67	1089.75
439.03	1091.86
439.40	1077.58
439.76	1078.75
440.13	1078.75
440.49	1074.54
440.86	1062.60
441.22	1067.99
441.59	1073.84
441.95	1070.80
442.32	1078.75
442.68	1077.11
443.05	1075.48
443.41	1075.48
443.78	1079.92
444.14	1079.92
444.51	1079.92
444.87	1078.99
445.24	1079.22
445.60	1072.20
445.96	1063.07
446.33	1066.58
446.69	1066.35
447.06	1063.31
447.42	1069.39
447.79	1075.71
448.15	1079.69
448.51	1073.37
448.88	1067.75
449.24	1071.50
449.61	1071.50
449.97	1068.69
450.33	1081.33
450.70	1079.46
451.06	1069.16
451.43	1071.26
451.79	1071.73
452.15	1077.11
452.52	1078.52
452.88	1087.65
453.24	1082.50
453.61	1078.28
453.97	1064.24
454.34	1066.11
454.70	1054.65
455.06	1061.67
455.43	1065.41
455.79	1063.54
456.15	1070.33
456.52	1079.22
456.88	1072.20
457.24	1071.97
457.61	1076.88
457.97	1057.69
458.33	1061.43
458.70	1069.39
459.06	1069.39
459.42	1074.54
459.79	1091.39
460.15	1088.12
460.51	1086.94
460.88	1085.54
461.24	1083.43
461.60	1074.54
461.96	1074.31
462.33	1075.71
462.69	1085.31
463.05	1091.16
463.42	1090.46
463.78	1085.77
464.14	1089.99
464.50	1087.41
464.87	1079.69
465.23	1081.56
465.59	1092.09
465.95	1078.52
466.32	1073.84
466.68	1078.28
467.04	1080.16
467.40	1074.07
467.77	1082.50
468.13	1082.26
468.49	1082.26
468.85	1086.01
469.22	1078.05
469.58	1068.69
469.94	1075.48
470.30	1074.54
470.66	1064.94
471.03	1073.60
471.39	1083.43
471.75	1077.35
472.11	1064.01
472.47	1071.73
472.84	1070.56
473.20	1065.18
473.56	1060.96
473.92	1068.45
474.28	1077.35
474.65	1078.75
475.01	1084.14
475.37	1088.35
475.73	1093.26
476.09	1084.84
476.45	1074.54
476.81	1062.60
477.18	1063.31
477.54	1068.45
477.90	1068.22
478.26	1078.99
478.62	1086.71
478.98	1089.99
479.34	1082.97
479.71	1079.46
480.07	1081.33
480.43	1077.82
480.79	1078.52
481.15	1082.26
481.51	1099.58
481.87	1098.65
482.23	1109.88
482.59	1103.56
482.96	1101.92
483.32	1084.60
483.68	1080.16
484.04	1067.28
484.40	1069.86
484.76	1078.52
485.12	1085.07
485.48	1092.80
485.84	1104.26
486.20	1108.95
486.56	1100.52
486.92	1105.67
487.28	1103.80
487.64	1093.97
488.00	1090.92
488.37	1083.43
488.73	1076.88
489.09	1072.67
489.45	1077.58
489.81	1078.52
490.17	1082.73
490.53	1088.35
490.89	1092.33
491.25	1097.95
491.61	1096.54
491.97	1097.01
492.33	1103.09
492.69	1101.69
493.05	1096.31
493.41	1105.90
493.77	1112.92
494.13	1093.03
494.49	1079.22
494.85	1072.43
495.21	1063.31
495.57	1052.07
495.93	1056.99
496.29	1063.77
496.64	1075.71
497.00	1074.07
497.36	1083.20
497.72	1089.99
498.08	1096.07
498.44	1089.52
498.80	1097.24
499.16	1091.63
499.52	1086.94
499.88	1088.82
500.24	1092.56
500.60	1082.73
500.96	1081.09
501.32	1081.33
501.68	1082.03
502.03	1081.33
502.39	1082.97
502.75	1083.90
503.11	1072.67
503.47	1068.45
503.83	1066.35
504.19	1072.67
504.55	1078.52
504.91	1088.12
505.26	1087.65
505.62	1092.56
505.98	1094.43
506.34	1093.26
506.70	1097.01
507.06	1100.75
507.42	1099.58
507.78	1090.69
508.13	1088.82
508.49	1087.65
508.85	1088.82
509.21	1081.80
509.57	1081.80
509.93	1087.41
510.28	1096.54
510.64	1086.94
511.00	1097.71
511.36	1101.92
511.72	1097.71
512.07	1091.16
512.43	1102.39
512.79	1084.60
513.15	1080.39
513.51	1080.16
513.86	1076.18
514.22	1064.94
514.58	1086.01
514.94	1081.09
515.30	1085.31
515.65	1093.97
516.01	1103.56
516.37	1098.18
516.73	1110.58
517.08	1109.65
517.44	1104.03
517.80	1100.99
518.16	1106.84
518.51	1100.29
518.87	1096.07
519.23	1096.31
519.59	1093.97
519.94	1080.39
520.30	1079.92
520.66	1072.90
521.01	1066.11
521.37	1080.63
521.73	1093.26
522.09	1093.50
522.44	1104.73
522.80	1108.24
523.16	1101.46
523.51	1095.37
523.87	1103.09
524.23	1097.71
524.58	1102.16
524.94	1100.29
525.30	1100.52
525.65	1098.88
526.01	1111.75
526.37	1109.41
526.72	1114.80
527.08	1109.41
527.44	1113.86
527.79	1101.92
528.15	1092.33
528.51	1081.80
528.86	1087.18
529.22	1090.46
529.58	1091.63
529.93	1106.14
530.29	1106.14
530.65	1094.20
531.00	1078.75
531.36	1078.28
531.71	1076.18
532.07	1082.26
532.43	1098.41
532.78	1103.33
533.14	1108.71
533.49	1111.29
533.85	1104.03
534.21	1102.39
534.56	1102.63
534.92	1107.78
535.27	1092.80
535.63	1096.54
535.98	1089.99
536.34	1084.60
536.69	1069.62
537.05	1081.56
537.41	1086.01
537.76	1086.94
538.12	1083.43
538.47	1088.12
538.83	1074.77
539.18	1068.69
539.54	1077.11
539.89	1088.12
540.25	1099.58
540.60	1114.09
540.96	1107.54
541.31	1104.03
541.67	1103.09
542.02	1087.18
542.38	1080.63
542.73	1098.18
543.09	1091.86
543.44	1096.78
543.80	1100.52
544.15	1106.37
544.51	1102.86
544.86	1106.37
545.22	1100.52
545.57	1103.56
545.93	1090.92
546.28	1079.69
546.64	1079.22
546.99	1079.22
547.35	1075.71
547.70	1075.71
548.05	1082.50
548.41	1076.41
548.76	1080.86
549.12	1078.05
549.47	1089.75
549.83	1090.69
550.18	1101.92
550.53	1105.20
550.89	1106.84
551.24	1105.90
551.60	1102.39
551.95	1099.12
552.30	1088.35
552.66	1094.90
553.01	1100.29
553.37	1104.26
553.72	1102.63
554.07	1107.31
554.43	1101.22
554.78	1093.50
555.13	1095.14
555.49	1096.07
555.84	1091.63
556.19	1091.86
556.55	1093.73
556.90	1089.05
557.26	1082.97
557.61	1070.56
557.96	1065.88
558.32	1054.88
558.67	1048.56
559.02	1055.11
559.37	1070.80
559.73	1082.73
560.08	1094.67
560.43	1104.03
560.79	1101.69
561.14	1097.48
561.49	1093.03
561.85	1088.12
562.20	1082.50
562.55	1078.28
562.90	1079.69
563.26	1077.82
563.61	1084.84
563.96	1083.43
564.32	1076.18
564.67	1075.94
565.02	1075.48
565.37	1072.90
565.73	1082.50
566.08	1094.20
566.43	1093.26
566.78	1092.56
567.14	1092.33
567.49	1089.99
567.84	1091.63
568.19	1089.05
568.54	1093.97
568.90	1097.71
569.25	1089.29
569.60	1077.58
569.95	1077.58
570.31	1069.62
570.66	1060.96
571.01	1069.39
571.36	1075.71
571.71	1081.80
572.06	1077.11
572.42	1071.26
572.77	1062.84
573.12	1064.24
573.47	1053.94
573.82	1059.09
574.18	1071.03
574.53	1077.58
574.88	1077.35
575.23	1082.73
575.58	1088.35
575.93	1078.28
576.28	1073.84
576.64	1075.94
576.99	1077.11
577.34	1071.97
577.69	1078.28
578.04	1078.05
578.39	1074.77
578.74	1075.94
579.09	1087.65
579.44	1084.37
579.80	1088.35
580.15	1081.56
580.50	1071.50
580.85	1061.90
581.20	1063.31
581.55	1050.90
581.90	1061.43
582.25	1075.01
582.60	1082.97
582.95	1082.97
583.30	1094.67
583.65	1087.18
584.00	1079.46
584.35	1078.28
584.71	1081.09
585.06	1084.60
585.41	1089.75
585.76	1092.80
586.11	1085.31
586.46	1077.82
586.81	1066.11
587.16	1059.56
587.51	1065.88
587.86	1075.24
588.21	1079.69
588.56	1081.80
588.91	1093.97
589.26	1090.46
589.61	1085.31
589.96	1080.39
590.31	1087.65
590.66	1080.86
591.01	1077.35
591.36	1072.43
591.71	1076.65
592.06	1067.28
592.41	1067.05
592.76	1069.62
593.10	1083.67
593.45	1089.05
593.80	1103.33
594.15	1103.33
594.50	1099.58
594.85	1083.20
595.20	1086.71
595.55	1076.88
595.90	1081.80
596.25	1091.86
596.60	1088.82
596.95	1078.28
597.30	1081.33
597.64	1119.48
597.99	1108.24
598.34	1114.80
598.69	1121.82
599.04	1121.58
599.39	1083.20
599.74	1090.92
600.09	1089.29
600.44	1089.75
600.78	1095.60
601.13	1094.43
601.48	1086.48
601.83	1090.22
602.18	1094.20
602.53	1093.26
602.88	1086.01
603.22	1098.41
603.57	1092.09
603.92	1090.92
604.27	1098.88
604.62	1108.01
604.97	1088.82
605.31	1093.97
605.66	1081.80
606.01	1071.03
606.36	1069.16
606.71	1074.54
607.05	1076.88
607.40	1078.99
607.75	1069.62
608.10	1064.48
608.44	1075.48
608.79	1073.14
609.14	1078.75
609.49	1086.48
609.84	1090.92
610.18	1089.29
610.53	1092.09
610.88	1093.03
611.23	1087.88
611.57	1085.77
611.92	1082.50
612.27	1076.88
612.62	1071.50
612.96	1085.07
613.31	1092.33
613.66	1091.39
614.00	1091.63
614.35	1091.63
614.70	1094.67
615.05	1090.46
615.39	1097.24
615.74	1107.78
616.09	1100.05
616.43	1088.58
616.78	1089.75
617.13	1074.07
617.47	1064.48
617.82	1079.92
618.17	1081.56
618.51	1079.92
618.86	1093.50
619.21	1086.48
619.55	1080.63
619.90	1070.56
620.25	1062.14
620.59	1049.96
620.94	1055.35
621.29	1064.71
621.63	1071.73
621.98	1075.94
622.32	1082.03
622.67	1094.67
623.02	1088.82
623.36	1088.35
623.71	1097.48
624.05	1099.58
624.40	1090.92
624.75	1079.69
625.09	1078.99
625.44	1069.62
625.78	1069.16
626.13	1065.88
626.48	1077.82
626.82	1081.09
627.17	1081.33
627.51	1087.88
627.86	1086.71
628.20	1086.48
628.55	1087.18
628.89	1094.90
629.24	1084.37
629.58	1086.94
629.93	1087.18
630.28	1085.54
630.62	1081.09
630.97	1086.71
631.31	1082.50
631.66	1076.18
632.00	1066.35
632.35	1067.52
632.69	1076.18
633.04	1081.80
633.38	1084.84
633.73	1097.71
634.07	1094.43
634.42	1093.03
634.76	1106.14
635.11	1106.14
635.45	1097.95
635.79	1106.84
636.14	1104.97
636.48	1093.97
636.83	1093.97
637.17	1102.16
637.52	1096.31
637.86	1088.58
638.21	1081.80
638.55	1082.03
638.89	1077.82
639.24	1070.56
639.58	1072.20
639.93	1068.92
640.27	1064.48
640.61	1067.75
640.96	1069.39
641.30	1070.56
641.65	1072.67
641.99	1079.22
642.33	1075.71
642.68	1075.01
643.02	1069.62
643.37	1078.28
643.71	1078.28
644.05	1073.14
644.40	1070.80
644.74	1080.86
645.08	1070.56
645.43	1068.45
645.77	1071.50
646.11	1080.39
646.46	1077.35
646.80	1082.97
647.14	1091.16
647.49	1094.20
647.83	1089.29
648.17	1082.97
648.52	1078.75
648.86	1070.56
649.20	1071.50
649.55	1083.43
649.89	1080.86
650.23	1078.75
650.57	1070.33
650.92	1075.24
651.26	1065.41
651.60	1060.73
651.95	1070.56
652.29	1070.09
652.63	1059.56
652.97	1060.03
653.32	1071.73
653.66	1061.67
654.00	1078.75
654.34	1084.14
654.69	1076.65
655.03	1072.67
655.37	1087.41
655.71	1078.99
656.05	1075.94
656.40	1089.75
656.74	1084.37
657.08	1074.77
657.42	1071.26
657.76	1072.90
658.11	1058.62
658.45	1071.03
658.79	1083.90
659.13	1095.37
659.47	1104.03
659.82	1112.69
660.16	1094.43
660.50	1085.07
660.84	1077.82
661.18	1071.97
661.52	1074.07
661.87	1085.31
662.21	1090.92
662.55	1083.43
662.89	1077.35
663.23	1075.48
663.57	1082.26
663.91	1079.22
664.25	1077.82
664.60	1082.03
664.94	1085.31
665.28	1084.60
665.62	1085.77
665.96	1105.90
666.30	1097.95
666.64	1093.50
666.98	1083.90
667.32	1075.01
667.66	1057.69
668.01	1060.73
668.35	1062.84
668.69	1067.28
669.03	1067.99
669.37	1068.22
669.71	1078.75
670.05	1073.84
670.39	1080.39
670.73	1083.90
671.07	1096.54
671.41	1092.09
671.75	1088.12
672.09	1088.82
672.43	1091.86
672.77	1081.33
673.11	1068.45
673.45	1075.94
673.79	1065.18
674.13	1063.77
674.47	1071.03
674.81	1084.84
675.15	1086.48
675.49	1087.88
675.83	1088.58
676.17	1086.48
676.51	1087.18
676.85	1083.20
677.19	1093.03
677.53	1097.48
677.87	1102.16
678.21	1099.35
678.55	1097.71
678.89	1082.03
679.23	1067.52
679.57	1057.69
679.90	1060.96
680.24	1063.54
680.58	1073.14
680.92	1086.01
681.26	1089.05
681.60	1080.39
681.94	1084.14
682.28	1089.29
682.62	1079.46
682.96	1072.20
683.29	1075.24
683.63	1070.80
683.97	1054.41
684.31	1057.45
684.65	1070.80
684.99	1075.71
685.33	1076.65
685.67	1084.14
686.00	1079.46
686.34	1082.73
686.68	1070.33
687.02	1069.16
687.36	1072.20
687.70	1075.71
688.03	1071.26
688.37	1089.52
688.71	1098.65
689.05	1098.65
689.39	1098.65
689.72	1088.82
690.06	1073.60
690.40	1063.07
690.74	1058.62
691.08	1060.03
691.41	1067.28
691.75	1070.33
692.09	1075.94
692.43	1072.20
692.76	1070.80
693.10	1076.65
693.44	1074.77
693.78	1072.90
694.11	1081.56
694.45	1084.84
694.79	1080.16
695.13	1088.82
695.46	1084.84
695.80	1082.03
696.14	1078.99
696.48	1080.39
696.81	1072.43
697.15	1076.65
697.49	1063.54
697.82	1060.96
698.16	1049.03
698.50	1054.88
698.83	1049.26
699.17	1062.60
699.51	1068.45
699.84	1079.69
700.18	1078.05
700.52	1088.12
700.85	1089.05
701.19	1084.37
701.53	1078.75
701.86	1073.14
702.20	1072.43
702.54	1076.88
702.87	1080.63
703.21	1077.82
703.55	1084.14
703.88	1086.94
704.22	1080.63
704.55	1076.18
704.89	1087.65
705.23	1085.77
705.56	1084.37
705.90	1089.99
706.23	1092.09
706.57	1090.22
706.91	1090.92
707.24	1090.69
707.58	1093.97
707.91	1098.88
708.25	1093.97
708.58	1095.14
708.92	1088.58
709.26	1082.50
709.59	1086.01
709.93	1094.67
710.26	1084.60
710.60	1085.07
710.93	1080.63
711.27	1077.58
711.60	1069.16
711.94	1081.09
712.27	1082.03
712.61	1080.86
712.94	1076.18
713.28	1081.56
713.61	1078.52
713.95	1079.46
714.28	1081.56
714.62	1081.80
714.95	1087.65
715.29	1090.92
715.62	1097.24
715.96	1096.31
716.29	1100.52
716.63	1088.58
716.96	1088.58
717.29	1082.26
717.63	1081.56
717.96	1078.28
718.30	1080.63
718.63	1082.97
718.97	1079.46
719.30	1092.56
719.63	1084.60
719.97	1086.94
720.30	1078.52
720.64	1089.75
720.97	1076.88
721.30	1086.71
721.64	1089.99
721.97	1087.65
722.31	1079.22
722.64	1073.37
722.97	1062.84
723.31	1048.56
723.64	1052.07
723.97	1042.47
724.31	1055.82
724.64	1067.52
724.98	1071.03
725.31	1069.86
725.64	1077.82
725.98	1075.24
726.31	1079.46
726.64	1090.46
726.97	1096.31
727.31	1104.50
727.64	1094.90
727.97	1086.01
728.31	1081.80
728.64	1086.94
728.97	1080.86
729.31	1093.26
729.64	1099.35
729.97	1088.58
730.30	1081.56
730.64	1078.52
730.97	1077.58
731.30	1078.52
731.63	1089.75
731.97	1082.50
732.30	1082.50
732.63	1081.33
732.96	1077.58
733.30	1072.43
733.63	1088.35
733.96	1107.31
734.29	1113.39
734.63	1109.88
734.96	1111.05
735.29	1102.39
735.62	1080.16
735.95	1081.80
736.29	1077.11
736.62	1081.33
736.95	1075.94
737.28	1086.71
737.61	1077.11
737.94	1076.65
738.28	1071.26
738.61	1076.88
738.94	1077.11
739.27	1076.18
739.60	1078.05
739.93	1078.28
740.27	1084.14
740.60	1082.03
740.93	1087.18
741.26	1100.52
741.59	1098.41
741.92	1089.29
742.25	1088.35
742.58	1094.67
742.91	1092.09
743.25	1093.50
743.58	1093.50
743.91	1097.24
744.24	1091.86
744.57	1082.97
744.90	1086.48
745.23	1089.99
745.56	1076.41
745.89	1065.65
746.22	1059.79
746.55	1050.43
746.88	1043.64
747.21	1048.56
747.54	1058.62
747.87	1068.22
748.20	1074.54
748.53	1077.58
748.87	1086.48
749.20	1085.77
749.53	1085.77
749.86	1086.71
750.19	1087.41
750.52	1086.24
750.85	1079.46
751.18	1079.69
751.51	1071.97
751.84	1066.58
752.16	1062.84
752.49	1061.67
752.82	1064.24
753.15	1070.56
753.48	1080.16
753.81	1078.52
754.14	1090.92
754.47	1096.54
754.80	1092.09
755.13	1089.52
755.46	1094.43
755.79	1090.46
756.12	1081.80
756.45	1080.86
756.78	1087.18
757.11	1084.60
757.43	1085.77
757.76	1088.35
758.09	1093.03
758.42	1076.18
758.75	1071.97
759.08	1070.09
759.41	1074.31
759.74	1072.20
760.07	1082.97
760.39	1083.67
760.72	1084.37
761.05	1072.20
761.38	1082.50
761.71	1086.01
762.04	1085.77
762.36	1089.29
762.69	1091.16
763.02	1079.69
763.35	1078.28
763.68	1089.29
764.01	1089.29
764.33	1088.35
764.66	1088.58
764.99	1080.16
765.32	1064.48
765.65	1054.88
765.97	1053.01
766.30	1063.31
