SpectraSuite Data File
++++++++++++++++++++++++++++++++++++
Date: Mon Aug 26 10:25:58 PDT 2019
User: corrico
Dark Spectrum Present: No
Reference Spectrum Present: No
Number of Sampled Component Spectra: 1
Spectrometers: USB2+H06089
Integration Time (usec): 10000 (USB2+H06089)
Spectra Averaged: 2 (USB2+H06089)
Boxcar Smoothing: 2 (USB2+H06089)
Correct for Electrical Dark: No (USB2+H06089)
Strobe/Lamp Enabled: No (USB2+H06089)
Correct for Detector Non-linearity: No (USB2+H06089)
Correct for Stray Light: No (USB2+H06089)
Number of Pixels in Processed Spectrum: 2048
>>>>>Begin Processed Spectral Data<<<<<
339.70	1014.62
340.07	1014.62
340.45	970.39
340.82	952.83
341.19	925.68
341.57	904.62
341.94	904.15
342.31	903.45
342.69	893.15
343.06	896.19
343.43	889.64
343.81	893.38
344.18	899.23
344.55	909.06
344.93	917.96
345.30	929.89
345.67	931.30
346.04	935.51
346.42	942.53
346.79	952.13
347.16	961.49
347.54	977.41
347.91	992.39
348.28	995.43
348.65	998.00
349.03	1001.28
349.40	1005.03
349.77	1012.05
350.14	1027.96
350.52	1040.37
350.89	1050.90
351.26	1052.30
351.63	1060.26
352.01	1071.97
352.38	1072.67
352.75	1073.14
353.12	1082.97
353.50	1080.16
353.87	1075.01
354.24	1081.09
354.61	1081.56
354.98	1078.52
355.36	1081.33
355.73	1079.69
356.10	1070.80
356.47	1072.20
356.84	1073.37
357.22	1067.28
357.59	1066.58
357.96	1060.73
358.33	1072.67
358.70	1068.22
359.08	1073.14
359.45	1066.58
359.82	1074.77
360.19	1067.05
360.56	1071.03
360.94	1067.52
361.31	1076.65
361.68	1077.11
362.05	1076.88
362.42	1074.07
362.79	1073.84
363.16	1066.82
363.54	1070.09
363.91	1055.11
364.28	1045.28
364.65	1052.54
365.02	1058.86
365.39	1056.99
365.76	1071.50
366.14	1089.52
366.51	1085.54
366.88	1083.20
367.25	1084.60
367.62	1083.90
367.99	1082.26
368.36	1078.05
368.73	1071.73
369.10	1066.58
369.48	1071.97
369.85	1066.58
370.22	1070.56
370.59	1082.50
370.96	1085.07
371.33	1073.37
371.70	1074.31
372.07	1078.05
372.44	1072.20
372.81	1074.07
373.18	1077.35
373.55	1075.24
373.93	1063.54
374.30	1067.52
374.67	1062.60
375.04	1067.75
375.41	1072.90
375.78	1081.33
376.15	1075.94
376.52	1085.77
376.89	1083.67
377.26	1074.07
377.63	1071.26
378.00	1066.58
378.37	1066.58
378.74	1064.71
379.11	1064.24
379.48	1061.43
379.85	1065.18
380.22	1070.80
380.59	1067.28
380.96	1063.54
381.33	1070.09
381.70	1078.28
382.07	1065.18
382.44	1070.80
382.81	1082.03
383.18	1072.67
383.55	1066.58
383.92	1071.73
384.29	1067.05
384.66	1074.07
385.03	1080.16
385.40	1081.56
385.77	1075.24
386.14	1067.52
386.51	1056.28
386.88	1056.75
387.25	1052.30
387.62	1048.56
387.99	1057.22
388.36	1068.69
388.73	1071.50
389.10	1081.09
389.46	1082.50
389.83	1079.46
390.20	1076.88
390.57	1074.54
390.94	1068.69
391.31	1075.01
391.68	1076.41
392.05	1077.35
392.42	1075.94
392.79	1076.88
393.16	1077.35
393.53	1080.86
393.89	1071.03
394.26	1075.24
394.63	1074.54
395.00	1078.99
395.37	1081.09
395.74	1081.09
396.11	1073.60
396.48	1071.03
396.84	1058.39
397.21	1061.20
397.58	1060.50
397.95	1069.62
398.32	1076.88
398.69	1083.20
399.06	1082.26
399.42	1089.29
399.79	1083.90
400.16	1087.41
400.53	1087.41
400.90	1082.73
401.27	1084.14
401.64	1081.56
402.00	1066.82
402.37	1060.26
402.74	1067.75
403.11	1062.84
403.48	1063.31
403.84	1070.09
404.21	1078.28
404.58	1067.05
404.95	1066.58
405.32	1070.80
405.68	1066.35
406.05	1067.75
406.42	1075.48
406.79	1079.92
407.16	1077.11
407.52	1078.05
407.89	1074.31
408.26	1066.11
408.63	1067.99
408.99	1071.73
409.36	1083.20
409.73	1088.12
410.10	1100.05
410.47	1094.20
410.83	1094.67
411.20	1088.58
411.57	1079.69
411.94	1075.01
412.30	1075.94
412.67	1069.62
413.04	1070.80
413.40	1078.75
413.77	1075.48
414.14	1067.05
414.51	1073.60
414.87	1072.67
415.24	1067.05
415.61	1078.28
415.97	1076.41
416.34	1074.31
416.71	1073.84
417.08	1075.01
417.44	1075.48
417.81	1086.01
418.18	1086.71
418.54	1083.67
418.91	1092.80
419.28	1082.26
419.64	1080.39
420.01	1079.46
420.38	1077.82
420.74	1068.92
421.11	1064.94
421.48	1068.45
421.84	1063.07
422.21	1070.09
422.58	1067.99
422.94	1071.03
423.31	1062.37
423.68	1076.88
424.04	1069.39
424.41	1069.39
424.77	1071.97
425.14	1078.05
425.51	1066.35
425.87	1066.35
426.24	1070.09
426.61	1071.03
426.97	1077.58
427.34	1080.86
427.70	1086.48
428.07	1088.58
428.44	1089.75
428.80	1083.90
429.17	1091.16
429.53	1084.84
429.90	1075.94
430.27	1066.58
430.63	1069.16
431.00	1055.82
431.36	1055.11
431.73	1055.35
432.09	1065.18
432.46	1066.35
432.83	1070.80
433.19	1074.07
433.56	1076.88
433.92	1075.48
434.29	1071.73
434.65	1080.39
435.02	1089.05
435.38	1099.12
435.75	1098.18
436.11	1092.56
436.48	1079.69
436.84	1076.65
437.21	1072.67
437.57	1067.99
437.94	1078.99
438.30	1080.39
438.67	1082.03
439.03	1070.09
439.40	1075.01
439.76	1072.90
440.13	1078.05
440.49	1078.52
440.86	1086.94
441.22	1089.99
441.59	1096.78
441.95	1097.01
442.32	1092.33
442.68	1092.33
443.05	1085.77
443.41	1077.58
443.78	1072.90
444.14	1071.97
444.51	1071.03
444.87	1078.75
445.24	1089.99
445.60	1098.18
445.96	1097.95
446.33	1103.09
446.69	1097.71
447.06	1077.58
447.42	1071.03
447.79	1073.37
448.15	1067.28
448.51	1073.60
448.88	1079.22
449.24	1075.71
449.61	1076.65
449.97	1086.48
450.33	1084.60
450.70	1088.35
451.06	1087.41
451.43	1086.01
451.79	1087.88
452.15	1087.88
452.52	1080.63
452.88	1085.31
453.24	1077.35
453.61	1068.92
453.97	1060.03
454.34	1072.20
454.70	1080.39
455.06	1082.50
455.43	1085.07
455.79	1084.84
456.15	1077.35
456.52	1076.88
456.88	1082.03
457.24	1085.77
457.61	1098.65
457.97	1102.63
458.33	1096.54
458.70	1095.84
459.06	1092.09
459.42	1093.03
459.79	1088.12
460.15	1091.63
460.51	1098.65
460.88	1093.97
461.24	1086.48
461.60	1087.65
461.96	1090.22
462.33	1086.71
462.69	1089.75
463.05	1088.12
463.42	1083.90
463.78	1083.67
464.14	1079.22
464.50	1078.05
464.87	1072.20
465.23	1074.77
465.59	1071.50
465.95	1064.24
466.32	1069.16
466.68	1072.90
467.04	1079.22
467.40	1067.99
467.77	1086.01
468.13	1076.65
468.49	1075.48
468.85	1065.41
469.22	1066.58
469.58	1049.73
469.94	1056.05
470.30	1058.62
470.66	1062.84
471.03	1070.09
471.39	1074.07
471.75	1067.28
472.11	1062.37
472.47	1063.54
472.84	1063.54
473.20	1067.75
473.56	1074.31
473.92	1071.50
474.28	1060.50
474.65	1057.45
475.01	1059.09
475.37	1055.58
475.73	1059.56
476.09	1068.69
476.45	1083.20
476.81	1075.71
477.18	1084.84
477.54	1092.33
477.90	1095.60
478.26	1080.39
478.62	1083.43
478.98	1080.39
479.34	1062.60
479.71	1060.50
480.07	1067.28
480.43	1070.33
480.79	1063.54
481.15	1088.58
481.51	1088.35
481.87	1093.97
482.23	1087.88
482.59	1095.60
482.96	1095.84
483.32	1100.99
483.68	1094.67
484.04	1102.16
484.40	1094.20
484.76	1073.14
485.12	1074.77
485.48	1076.18
485.84	1076.65
486.20	1080.86
486.56	1087.65
486.92	1078.99
487.28	1075.01
487.64	1064.24
488.00	1071.73
488.37	1086.01
488.73	1090.46
489.09	1087.18
489.45	1089.05
489.81	1083.67
490.17	1073.37
490.53	1072.67
490.89	1081.09
491.25	1086.71
491.61	1075.94
491.97	1084.37
492.33	1077.82
492.69	1075.94
493.05	1079.46
493.41	1078.52
493.77	1070.09
494.13	1079.69
494.49	1080.39
494.85	1079.46
495.21	1090.69
495.57	1083.43
495.93	1079.69
496.29	1073.37
496.64	1072.90
497.00	1075.71
497.36	1082.26
497.72	1083.67
498.08	1083.90
498.44	1080.39
498.80	1076.41
499.16	1064.48
499.52	1068.45
499.88	1069.39
500.24	1061.43
500.60	1055.82
500.96	1063.07
501.32	1058.86
501.68	1057.45
502.03	1072.67
502.39	1072.20
502.75	1080.86
503.11	1076.65
503.47	1076.41
503.83	1072.67
504.19	1076.18
504.55	1067.05
504.91	1065.18
505.26	1068.92
505.62	1062.37
505.98	1066.35
506.34	1072.67
506.70	1085.54
507.06	1097.95
507.42	1104.03
507.78	1099.35
508.13	1102.86
508.49	1105.90
508.85	1102.39
509.21	1102.86
509.57	1103.80
509.93	1107.31
510.28	1097.95
510.64	1089.75
511.00	1082.26
511.36	1084.37
511.72	1078.05
512.07	1078.99
512.43	1082.73
512.79	1089.05
513.15	1096.78
513.51	1100.52
513.86	1104.97
514.22	1098.18
514.58	1091.63
514.94	1079.69
515.30	1075.01
515.65	1074.54
516.01	1085.54
516.37	1093.50
516.73	1096.31
517.08	1108.95
517.44	1103.33
517.80	1102.39
518.16	1103.33
518.51	1118.07
518.87	1109.65
519.23	1113.39
519.59	1100.29
519.94	1096.31
520.30	1083.90
520.66	1088.82
521.01	1091.86
521.37	1098.41
521.73	1101.46
522.09	1103.56
522.44	1094.67
522.80	1089.99
523.16	1092.80
523.51	1089.99
523.87	1097.24
524.23	1106.61
524.58	1098.88
524.94	1097.71
525.30	1107.31
525.65	1108.71
526.01	1100.05
526.37	1109.65
526.72	1106.84
527.08	1099.35
527.44	1097.71
527.79	1102.39
528.15	1097.24
528.51	1092.09
528.86	1096.31
529.22	1086.94
529.58	1093.50
529.93	1098.88
530.29	1106.14
530.65	1104.97
531.00	1112.46
531.36	1102.39
531.71	1099.58
532.07	1099.12
532.43	1099.82
532.78	1096.54
533.14	1094.43
533.49	1093.03
533.85	1093.97
534.21	1089.52
534.56	1087.18
534.92	1086.48
535.27	1075.48
535.63	1063.31
535.98	1060.26
536.34	1057.92
536.69	1060.03
537.05	1071.03
537.41	1086.94
537.76	1082.97
538.12	1086.71
538.47	1089.75
538.83	1090.92
539.18	1086.48
539.54	1100.05
539.89	1097.71
540.25	1092.80
540.60	1089.05
540.96	1093.73
541.31	1090.92
541.67	1087.18
542.02	1092.80
542.38	1095.84
542.73	1091.63
543.09	1085.54
543.44	1085.77
543.80	1083.90
544.15	1079.46
544.51	1077.11
544.86	1073.60
545.22	1071.26
545.57	1059.79
545.93	1064.71
546.28	1064.48
546.64	1067.52
546.99	1074.77
547.35	1085.31
547.70	1091.16
548.05	1097.24
548.41	1092.09
548.76	1097.71
549.12	1099.82
549.47	1096.78
549.83	1097.01
550.18	1105.20
550.53	1088.58
550.89	1082.97
551.24	1076.18
551.60	1068.92
551.95	1061.43
552.30	1066.35
552.66	1063.54
553.01	1073.14
553.37	1072.67
553.72	1090.92
554.07	1091.16
554.43	1087.18
554.78	1075.71
555.13	1075.24
555.49	1069.16
555.84	1079.22
556.19	1095.84
556.55	1097.01
556.90	1099.35
557.26	1100.99
557.61	1095.14
557.96	1091.39
558.32	1093.26
558.67	1085.77
559.02	1080.63
559.37	1079.46
559.73	1082.03
560.08	1080.86
560.43	1090.46
560.79	1092.56
561.14	1087.65
561.49	1085.54
561.85	1088.35
562.20	1088.12
562.55	1091.63
562.90	1095.37
563.26	1098.65
563.61	1091.39
563.96	1084.60
564.32	1077.11
564.67	1076.88
565.02	1070.80
565.37	1073.60
565.73	1074.77
566.08	1076.41
566.43	1069.86
566.78	1068.22
567.14	1071.50
567.49	1070.80
567.84	1072.43
568.19	1084.14
568.54	1081.56
568.90	1090.92
569.25	1089.75
569.60	1081.33
569.95	1085.31
570.31	1098.41
570.66	1080.39
571.01	1089.99
571.36	1093.26
571.71	1085.54
572.06	1076.88
572.42	1075.24
572.77	1068.92
573.12	1070.09
573.47	1068.92
573.82	1068.45
574.18	1080.16
574.53	1077.11
574.88	1070.09
575.23	1064.01
575.58	1062.37
575.93	1057.92
576.28	1059.56
576.64	1072.20
576.99	1075.24
577.34	1070.33
577.69	1083.90
578.04	1088.35
578.39	1071.26
578.74	1070.56
579.09	1070.09
579.44	1066.58
579.80	1069.16
580.15	1081.80
580.50	1078.05
580.85	1085.07
581.20	1082.50
581.55	1077.82
581.90	1088.58
582.25	1091.86
582.60	1092.33
582.95	1093.73
583.30	1089.05
583.65	1080.86
584.00	1088.35
584.35	1083.67
584.71	1077.11
585.06	1088.82
585.41	1082.73
585.76	1076.41
586.11	1083.67
586.46	1090.69
586.81	1085.54
587.16	1080.39
587.51	1090.69
587.86	1081.09
588.21	1078.99
588.56	1075.71
588.91	1081.56
589.26	1073.84
589.61	1073.84
589.96	1065.18
590.31	1076.18
590.66	1075.71
591.01	1079.46
591.36	1077.58
591.71	1084.60
592.06	1081.56
592.41	1087.88
592.76	1085.07
593.10	1089.75
593.45	1089.75
593.80	1087.65
594.15	1075.48
594.50	1075.01
594.85	1080.39
595.20	1082.26
595.55	1076.88
595.90	1092.09
596.25	1092.09
596.60	1090.92
596.95	1081.09
597.30	1083.20
597.64	1131.65
597.99	1137.03
598.34	1138.44
598.69	1144.05
599.04	1146.16
599.39	1088.58
599.74	1085.54
600.09	1072.90
600.44	1068.45
600.78	1060.26
601.13	1055.35
601.48	1053.71
601.83	1064.01
602.18	1071.73
602.53	1078.52
602.88	1086.24
603.22	1095.60
603.57	1092.33
603.92	1083.90
604.27	1080.39
604.62	1072.67
604.97	1065.18
605.31	1069.16
605.66	1063.31
606.01	1066.82
606.36	1078.52
606.71	1072.67
607.05	1073.60
607.40	1080.86
607.75	1075.71
608.10	1066.35
608.44	1068.92
608.79	1060.96
609.14	1069.62
609.49	1075.48
609.84	1090.69
610.18	1100.29
610.53	1102.63
610.88	1101.22
611.23	1095.60
611.57	1094.90
611.92	1088.12
612.27	1094.43
612.62	1086.48
612.96	1091.86
613.31	1078.28
613.66	1074.31
614.00	1063.54
614.35	1066.11
614.70	1071.50
615.05	1068.69
615.39	1068.22
615.74	1073.84
616.09	1075.94
616.43	1081.80
616.78	1089.29
617.13	1090.69
617.47	1096.07
617.82	1101.22
618.17	1090.92
618.51	1083.90
618.86	1087.18
619.21	1084.14
619.55	1082.03
619.90	1073.37
620.25	1085.31
620.59	1076.18
620.94	1078.05
621.29	1080.86
621.63	1089.52
621.98	1086.94
622.32	1092.09
622.67	1076.88
623.02	1067.05
623.36	1068.69
623.71	1061.90
624.05	1060.50
624.40	1077.82
624.75	1084.37
625.09	1085.54
625.44	1088.35
625.78	1091.63
626.13	1097.24
626.48	1105.90
626.82	1099.12
627.17	1097.01
627.51	1105.44
627.86	1104.03
628.20	1089.29
628.55	1088.82
628.89	1092.33
629.24	1077.35
629.58	1075.24
629.93	1068.92
630.28	1071.73
630.62	1070.09
630.97	1083.67
631.31	1081.80
631.66	1093.73
632.00	1092.09
632.35	1099.58
632.69	1099.82
633.04	1099.12
633.38	1092.80
633.73	1092.09
634.07	1089.05
634.42	1082.73
634.76	1076.65
635.11	1074.54
635.45	1076.88
635.79	1075.94
636.14	1079.92
636.48	1091.39
636.83	1095.84
637.17	1102.16
637.52	1101.22
637.86	1097.01
638.21	1091.63
638.55	1097.01
638.89	1093.50
639.24	1084.37
639.58	1081.56
639.93	1073.84
640.27	1070.80
640.61	1068.22
640.96	1072.43
641.30	1073.14
641.65	1076.18
641.99	1084.60
642.33	1083.90
642.68	1088.12
643.02	1086.48
643.37	1092.33
643.71	1081.09
644.05	1076.65
644.40	1078.75
644.74	1084.14
645.08	1076.41
645.43	1076.65
645.77	1074.77
646.11	1065.41
646.46	1072.43
646.80	1077.82
647.14	1073.14
647.49	1073.84
647.83	1085.31
648.17	1077.11
648.52	1075.71
648.86	1091.16
649.20	1100.75
649.55	1102.86
649.89	1103.80
650.23	1104.26
650.57	1088.82
650.92	1090.46
651.26	1085.54
651.60	1089.05
651.95	1079.46
652.29	1089.29
652.63	1078.05
652.97	1067.52
653.32	1061.43
653.66	1062.84
654.00	1052.54
654.34	1062.37
654.69	1067.28
655.03	1066.58
655.37	1076.18
655.71	1076.18
656.05	1070.56
656.40	1074.07
656.74	1071.50
657.08	1069.86
657.42	1075.24
657.76	1075.24
658.11	1082.03
658.45	1082.97
658.79	1069.86
659.13	1075.24
659.47	1082.97
659.82	1077.58
660.16	1075.48
660.50	1076.88
660.84	1067.52
661.18	1069.16
661.52	1076.18
661.87	1081.80
662.21	1083.20
662.55	1095.84
662.89	1088.12
663.23	1077.11
663.57	1075.01
663.91	1082.26
664.25	1070.09
664.60	1064.24
664.94	1064.71
665.28	1070.80
665.62	1069.62
665.96	1075.94
666.30	1085.31
666.64	1092.09
666.98	1079.22
667.32	1078.05
667.66	1079.69
668.01	1073.14
668.35	1065.41
668.69	1069.39
669.03	1071.03
669.37	1067.75
669.71	1062.60
670.05	1058.16
670.39	1075.24
670.73	1073.84
671.07	1078.28
671.41	1090.22
671.75	1099.82
672.09	1084.84
672.43	1089.05
672.77	1082.50
673.11	1081.33
673.45	1082.03
673.79	1085.07
674.13	1084.60
674.47	1083.20
674.81	1082.73
675.15	1080.16
675.49	1079.22
675.83	1071.26
676.17	1079.92
676.51	1073.84
676.85	1076.41
677.19	1074.54
677.53	1085.31
677.87	1087.65
678.21	1090.69
678.55	1081.33
678.89	1083.90
679.23	1078.75
679.57	1075.94
679.90	1071.26
680.24	1078.52
680.58	1081.56
680.92	1088.58
681.26	1082.73
681.60	1092.09
681.94	1093.73
682.28	1093.97
682.62	1093.26
682.96	1089.05
683.29	1091.16
683.63	1089.52
683.97	1085.77
684.31	1082.26
684.65	1088.82
684.99	1084.14
685.33	1087.41
685.67	1081.09
686.00	1075.94
686.34	1076.88
686.68	1073.60
687.02	1081.80
687.36	1079.69
687.70	1079.69
688.03	1078.05
688.37	1082.03
688.71	1069.39
689.05	1075.01
689.39	1075.71
689.72	1076.41
690.06	1079.69
690.40	1073.37
690.74	1079.92
691.08	1085.07
691.41	1084.37
691.75	1093.50
692.09	1104.73
692.43	1102.39
692.76	1092.80
693.10	1095.60
693.44	1076.18
693.78	1074.54
694.11	1065.41
694.45	1076.65
694.79	1079.46
695.13	1088.35
695.46	1089.29
695.80	1096.07
696.14	1100.05
696.48	1104.03
696.81	1099.82
697.15	1104.50
697.49	1102.63
697.82	1090.92
698.16	1086.48
698.50	1090.46
698.83	1082.50
699.17	1071.73
699.51	1070.80
699.84	1069.16
700.18	1063.07
700.52	1065.18
700.85	1079.92
701.19	1086.01
701.53	1090.22
701.86	1093.03
702.20	1085.07
702.54	1081.09
702.87	1079.22
703.21	1069.86
703.55	1071.03
703.88	1079.92
704.22	1082.97
704.55	1080.86
704.89	1082.73
705.23	1084.37
705.56	1082.50
705.90	1090.46
706.23	1091.39
706.57	1095.37
706.91	1090.22
707.24	1089.75
707.58	1083.43
707.91	1083.43
708.25	1078.99
708.58	1072.43
708.92	1071.50
709.26	1061.90
709.59	1067.28
709.93	1064.94
710.26	1074.77
710.60	1079.69
710.93	1089.75
711.27	1080.39
711.60	1087.18
711.94	1082.03
712.27	1083.90
712.61	1080.16
712.94	1077.11
713.28	1067.75
713.61	1070.80
713.95	1056.28
714.28	1054.65
714.62	1071.50
714.95	1075.24
715.29	1080.16
715.62	1088.82
715.96	1086.48
716.29	1077.35
716.63	1074.77
716.96	1066.35
717.29	1063.54
717.63	1075.24
717.96	1072.67
718.30	1089.52
718.63	1093.26
718.97	1097.95
719.30	1085.31
719.63	1088.82
719.97	1085.77
720.30	1081.09
720.64	1069.86
720.97	1078.75
721.30	1073.84
721.64	1069.16
721.97	1079.22
722.31	1090.22
722.64	1093.97
722.97	1101.92
723.31	1097.95
723.64	1091.39
723.97	1086.94
724.31	1079.92
724.64	1081.09
724.98	1079.69
725.31	1082.26
725.64	1087.88
725.98	1090.22
726.31	1095.84
726.64	1100.75
726.97	1099.12
727.31	1089.99
727.64	1087.65
727.97	1075.71
728.31	1073.60
728.64	1073.60
728.97	1077.35
729.31	1076.41
729.64	1075.01
729.97	1069.16
730.30	1073.84
730.64	1071.97
730.97	1083.20
731.30	1080.39
731.63	1088.82
731.97	1090.46
732.30	1102.86
732.63	1086.71
732.96	1085.07
733.30	1078.05
733.63	1065.65
733.96	1048.56
734.29	1056.75
734.63	1064.71
734.96	1070.33
735.29	1078.75
735.62	1082.26
735.95	1079.46
736.29	1084.14
736.62	1081.56
736.95	1077.58
737.28	1082.73
737.61	1083.67
737.94	1069.86
738.28	1071.50
738.61	1077.35
738.94	1078.28
739.27	1074.54
739.60	1088.35
739.93	1085.31
740.27	1076.41
740.60	1076.41
740.93	1070.56
741.26	1054.88
741.59	1051.60
741.92	1055.11
742.25	1049.50
742.58	1064.24
742.91	1078.99
743.25	1082.03
743.58	1083.20
743.91	1094.90
744.24	1085.31
744.57	1078.28
744.90	1081.56
745.23	1086.01
745.56	1082.50
745.89	1088.58
746.22	1105.20
746.55	1112.92
746.88	1098.18
747.21	1100.52
747.54	1097.24
747.87	1082.97
748.20	1068.92
748.53	1076.65
748.87	1077.58
749.20	1080.16
749.53	1086.71
749.86	1089.05
750.19	1088.58
750.52	1085.31
750.85	1094.90
751.18	1094.43
751.51	1092.09
751.84	1098.18
752.16	1091.16
752.49	1077.11
752.82	1065.88
753.15	1070.09
753.48	1078.52
753.81	1078.75
754.14	1078.05
754.47	1081.33
754.80	1091.63
755.13	1080.86
755.46	1093.03
755.79	1098.41
756.12	1104.73
756.45	1093.26
756.78	1089.05
757.11	1085.77
757.43	1082.73
757.76	1082.73
758.09	1077.82
758.42	1079.92
758.75	1083.90
759.08	1087.65
759.41	1077.58
759.74	1086.94
760.07	1089.75
760.39	1087.18
760.72	1095.84
761.05	1104.73
761.38	1091.63
761.71	1085.07
762.04	1071.97
762.36	1053.24
762.69	1055.11
763.02	1070.80
763.35	1085.54
763.68	1091.86
764.01	1097.01
764.33	1088.82
764.66	1086.71
764.99	1074.31
765.32	1079.22
765.65	1073.60
765.97	1080.16
766.30	1087.18
