SpectraSuite Data File
++++++++++++++++++++++++++++++++++++
Date: Mon Aug 26 10:25:57 PDT 2019
User: corrico
Dark Spectrum Present: No
Reference Spectrum Present: No
Number of Sampled Component Spectra: 1
Spectrometers: USB2+H06089
Integration Time (usec): 10000 (USB2+H06089)
Spectra Averaged: 2 (USB2+H06089)
Boxcar Smoothing: 2 (USB2+H06089)
Correct for Electrical Dark: No (USB2+H06089)
Strobe/Lamp Enabled: No (USB2+H06089)
Correct for Detector Non-linearity: No (USB2+H06089)
Correct for Stray Light: No (USB2+H06089)
Number of Pixels in Processed Spectrum: 2048
>>>>>Begin Processed Spectral Data<<<<<
339.70	1039.20
340.07	1039.20
340.45	998.24
340.82	981.85
341.19	950.73
341.57	923.34
341.94	907.89
342.31	907.89
342.69	898.77
343.06	899.23
343.43	898.30
343.81	903.45
344.18	898.77
344.55	895.49
344.93	900.64
345.30	903.45
345.67	915.85
346.04	931.30
346.42	941.13
346.79	956.34
347.16	974.13
347.54	978.81
347.91	977.88
348.28	987.00
348.65	994.73
349.03	992.15
349.40	998.00
349.77	1003.62
350.14	1008.77
350.52	1016.49
350.89	1032.41
351.26	1043.18
351.63	1061.43
352.01	1072.90
352.38	1076.65
352.75	1078.99
353.12	1084.84
353.50	1086.71
353.87	1089.52
354.24	1094.43
354.61	1093.50
354.98	1084.84
355.36	1085.77
355.73	1083.20
356.10	1085.54
356.47	1090.92
356.84	1091.16
357.22	1087.18
357.59	1080.16
357.96	1075.71
358.33	1060.03
358.70	1064.24
359.08	1062.37
359.45	1076.18
359.82	1066.11
360.19	1075.01
360.56	1075.24
360.94	1067.75
361.31	1066.11
361.68	1076.18
362.05	1075.48
362.42	1075.48
362.79	1081.56
363.16	1067.52
363.54	1067.75
363.91	1060.50
364.28	1058.39
364.65	1063.31
365.02	1082.03
365.39	1072.43
365.76	1082.03
366.14	1084.14
366.51	1080.86
366.88	1075.71
367.25	1078.99
367.62	1081.56
367.99	1080.63
368.36	1076.65
368.73	1064.48
369.10	1064.48
369.48	1063.77
369.85	1063.77
370.22	1074.54
370.59	1078.75
370.96	1082.26
371.33	1071.73
371.70	1074.07
372.07	1069.16
372.44	1072.43
372.81	1069.62
373.18	1076.65
373.55	1082.26
373.93	1083.43
374.30	1085.54
374.67	1077.82
375.04	1077.82
375.41	1059.33
375.78	1067.99
376.15	1062.37
376.52	1071.03
376.89	1074.54
377.26	1081.56
377.63	1069.39
378.00	1072.43
378.37	1065.88
378.74	1066.11
379.11	1072.20
379.48	1070.09
379.85	1075.48
380.22	1079.46
380.59	1069.62
380.96	1068.45
381.33	1058.16
381.70	1048.56
382.07	1056.05
382.44	1066.58
382.81	1066.11
383.18	1075.94
383.55	1078.75
383.92	1068.92
384.29	1067.99
384.66	1072.43
385.03	1085.77
385.40	1092.80
385.77	1091.86
386.14	1091.39
386.51	1086.71
386.88	1074.54
387.25	1064.01
387.62	1056.52
387.99	1056.05
388.36	1046.92
388.73	1040.84
389.10	1044.58
389.46	1060.50
389.83	1056.99
390.20	1062.60
390.57	1072.43
390.94	1071.03
391.31	1067.52
391.68	1074.31
392.05	1081.56
392.42	1079.69
392.79	1078.99
393.16	1079.22
393.53	1063.77
393.89	1055.58
394.26	1050.90
394.63	1048.09
395.00	1046.22
395.37	1055.35
395.74	1062.60
396.11	1062.84
396.48	1063.07
396.84	1064.01
397.21	1070.09
397.58	1064.48
397.95	1068.92
398.32	1075.94
398.69	1072.43
399.06	1071.50
399.42	1076.41
399.79	1071.97
400.16	1065.88
400.53	1066.58
400.90	1061.43
401.27	1055.11
401.64	1062.84
402.00	1061.67
402.37	1066.58
402.74	1070.80
403.11	1074.54
403.48	1066.58
403.84	1065.18
404.21	1063.54
404.58	1066.11
404.95	1071.97
405.32	1075.24
405.68	1081.80
406.05	1076.18
406.42	1071.26
406.79	1064.94
407.16	1067.99
407.52	1070.56
407.89	1075.94
408.26	1066.11
408.63	1062.14
408.99	1058.62
409.36	1062.60
409.73	1068.22
410.10	1071.97
410.47	1076.18
410.83	1080.86
411.20	1072.90
411.57	1072.20
411.94	1076.65
412.30	1071.50
412.67	1060.03
413.04	1059.09
413.40	1053.24
413.77	1047.86
414.14	1049.73
414.51	1059.56
414.87	1060.50
415.24	1057.92
415.61	1067.28
415.97	1062.84
416.34	1059.09
416.71	1070.33
417.08	1075.24
417.44	1079.69
417.81	1091.86
418.18	1098.88
418.54	1089.75
418.91	1083.90
419.28	1086.24
419.64	1091.16
420.01	1081.56
420.38	1079.92
420.74	1081.09
421.11	1065.18
421.48	1061.43
421.84	1061.90
422.21	1061.20
422.58	1068.45
422.94	1077.35
423.31	1069.62
423.68	1070.09
424.04	1066.58
424.41	1059.56
424.77	1057.45
425.14	1067.05
425.51	1076.65
425.87	1086.71
426.24	1083.20
426.61	1078.75
426.97	1074.07
427.34	1071.03
427.70	1065.65
428.07	1080.16
428.44	1093.50
428.80	1091.16
429.17	1092.56
429.53	1098.18
429.90	1094.67
430.27	1086.71
430.63	1086.48
431.00	1076.88
431.36	1075.71
431.73	1066.11
432.09	1060.26
432.46	1056.75
432.83	1057.45
433.19	1060.96
433.56	1076.41
433.92	1080.86
434.29	1077.82
434.65	1080.63
435.02	1073.84
435.38	1055.11
435.75	1055.82
436.11	1062.60
436.48	1075.01
436.84	1075.48
437.21	1085.54
437.57	1075.71
437.94	1073.84
438.30	1062.60
438.67	1069.16
439.03	1070.09
439.40	1086.71
439.76	1094.20
440.13	1097.24
440.49	1092.33
440.86	1095.37
441.22	1090.92
441.59	1081.56
441.95	1082.26
442.32	1078.99
442.68	1073.60
443.05	1063.54
443.41	1072.90
443.78	1065.88
444.14	1064.94
444.51	1070.56
444.87	1081.09
445.24	1075.94
445.60	1078.75
445.96	1086.24
446.33	1082.73
446.69	1077.58
447.06	1079.69
447.42	1083.43
447.79	1073.84
448.15	1067.52
448.51	1069.62
448.88	1069.86
449.24	1070.33
449.61	1078.52
449.97	1080.16
450.33	1078.05
450.70	1078.75
451.06	1070.56
451.43	1071.97
451.79	1073.37
452.15	1074.54
452.52	1076.41
452.88	1083.20
453.24	1083.67
453.61	1078.99
453.97	1086.48
454.34	1086.01
454.70	1082.50
455.06	1078.28
455.43	1085.77
455.79	1070.80
456.15	1067.28
456.52	1060.96
456.88	1060.50
457.24	1050.90
457.61	1050.43
457.97	1047.39
458.33	1055.35
458.70	1046.45
459.06	1065.41
459.42	1075.24
459.79	1074.07
460.15	1073.84
460.51	1091.16
460.88	1076.88
461.24	1077.11
461.60	1076.65
461.96	1083.90
462.33	1080.63
462.69	1081.80
463.05	1081.09
463.42	1083.67
463.78	1075.01
464.14	1069.86
464.50	1077.58
464.87	1080.86
465.23	1087.41
465.59	1089.99
465.95	1094.20
466.32	1089.99
466.68	1081.80
467.04	1082.26
467.40	1088.12
467.77	1079.92
468.13	1083.67
468.49	1085.77
468.85	1084.37
469.22	1079.69
469.58	1086.24
469.94	1070.80
470.30	1061.67
470.66	1056.52
471.03	1054.88
471.39	1052.77
471.75	1075.24
472.11	1083.90
472.47	1086.01
472.84	1086.01
473.20	1085.07
473.56	1065.88
473.92	1075.01
474.28	1082.50
474.65	1078.75
475.01	1087.65
475.37	1100.05
475.73	1089.99
476.09	1083.43
476.45	1086.71
476.81	1071.73
477.18	1061.20
477.54	1055.35
477.90	1045.99
478.26	1043.88
478.62	1053.94
478.98	1057.92
479.34	1075.71
479.71	1086.01
480.07	1096.07
480.43	1092.09
480.79	1101.92
481.15	1097.48
481.51	1098.41
481.87	1085.31
482.23	1083.43
482.59	1072.43
482.96	1075.48
483.32	1070.56
483.68	1086.01
484.04	1089.29
484.40	1085.54
484.76	1073.37
485.12	1079.46
485.48	1068.22
485.84	1074.07
486.20	1092.09
486.56	1103.56
486.92	1099.35
487.28	1096.78
487.64	1093.03
488.00	1090.46
488.37	1085.54
488.73	1085.07
489.09	1089.05
489.45	1095.14
489.81	1089.75
490.17	1096.54
490.53	1097.01
490.89	1101.92
491.25	1099.12
491.61	1096.31
491.97	1093.50
492.33	1095.14
492.69	1086.48
493.05	1077.58
493.41	1073.60
493.77	1079.92
494.13	1079.92
494.49	1087.41
494.85	1093.73
495.21	1098.65
495.57	1091.16
495.93	1087.65
496.29	1086.94
496.64	1086.71
497.00	1088.58
497.36	1079.22
497.72	1079.69
498.08	1071.50
498.44	1068.22
498.80	1070.80
499.16	1076.18
499.52	1071.26
499.88	1072.90
500.24	1077.35
500.60	1068.92
500.96	1067.99
501.32	1072.67
501.68	1083.67
502.03	1075.01
502.39	1087.41
502.75	1096.31
503.11	1097.48
503.47	1081.56
503.83	1084.37
504.19	1076.18
504.55	1078.52
504.91	1079.46
505.26	1093.73
505.62	1085.07
505.98	1086.71
506.34	1073.14
506.70	1077.35
507.06	1074.31
507.42	1080.86
507.78	1077.82
508.13	1087.18
508.49	1090.22
508.85	1091.16
509.21	1091.86
509.57	1093.73
509.93	1089.75
510.28	1082.97
510.64	1082.26
511.00	1085.31
511.36	1087.18
511.72	1087.41
512.07	1086.48
512.43	1082.03
512.79	1084.60
513.15	1085.54
513.51	1079.92
513.86	1089.52
514.22	1093.26
514.58	1089.29
514.94	1090.46
515.30	1099.58
515.65	1088.82
516.01	1088.58
516.37	1093.73
516.73	1091.63
517.08	1080.16
517.44	1083.43
517.80	1086.94
518.16	1080.86
518.51	1084.60
518.87	1095.84
519.23	1086.94
519.59	1088.58
519.94	1097.24
520.30	1090.46
520.66	1084.84
521.01	1087.18
521.37	1087.65
521.73	1084.37
522.09	1084.60
522.44	1088.82
522.80	1091.63
523.16	1089.29
523.51	1090.92
523.87	1105.44
524.23	1109.41
524.58	1107.78
524.94	1097.95
525.30	1094.90
525.65	1072.43
526.01	1055.82
526.37	1059.33
526.72	1067.75
527.08	1067.05
527.44	1076.88
527.79	1090.22
528.15	1089.52
528.51	1095.84
528.86	1100.05
529.22	1100.05
529.58	1094.67
529.93	1100.99
530.29	1092.09
530.65	1085.77
531.00	1086.94
531.36	1097.01
531.71	1080.86
532.07	1076.41
532.43	1073.84
532.78	1066.58
533.14	1064.71
533.49	1078.99
533.85	1082.73
534.21	1090.46
534.56	1095.37
534.92	1089.99
535.27	1086.71
535.63	1094.43
535.98	1091.63
536.34	1095.84
536.69	1088.35
537.05	1085.07
537.41	1077.11
537.76	1076.41
538.12	1076.18
538.47	1088.82
538.83	1088.12
539.18	1083.43
539.54	1083.43
539.89	1083.90
540.25	1081.56
540.60	1083.43
540.96	1096.07
541.31	1108.48
541.67	1104.03
542.02	1100.75
542.38	1100.05
542.73	1093.50
543.09	1081.09
543.44	1081.33
543.80	1078.05
544.15	1080.39
544.51	1081.33
544.86	1076.88
545.22	1077.11
545.57	1090.46
545.93	1079.46
546.28	1079.46
546.64	1087.65
546.99	1082.26
547.35	1071.03
547.70	1083.67
548.05	1080.63
548.41	1071.03
548.76	1076.65
549.12	1073.14
549.47	1071.97
549.83	1072.67
550.18	1085.77
550.53	1097.95
550.89	1102.63
551.24	1099.35
551.60	1090.69
551.95	1085.07
552.30	1068.69
552.66	1075.94
553.01	1074.77
553.37	1081.09
553.72	1079.69
554.07	1078.99
554.43	1080.16
554.78	1077.82
555.13	1085.07
555.49	1088.82
555.84	1096.54
556.19	1080.86
556.55	1084.14
556.90	1078.05
557.26	1078.28
557.61	1073.14
557.96	1070.56
558.32	1065.18
558.67	1068.22
559.02	1064.71
559.37	1064.48
559.73	1068.45
560.08	1079.22
560.43	1073.14
560.79	1075.48
561.14	1078.99
561.49	1081.33
561.85	1086.01
562.20	1081.09
562.55	1080.63
562.90	1081.33
563.26	1076.65
563.61	1064.24
563.96	1066.58
564.32	1067.52
564.67	1072.20
565.02	1080.16
565.37	1082.73
565.73	1087.88
566.08	1077.58
566.43	1062.84
566.78	1060.03
567.14	1064.01
567.49	1065.88
567.84	1075.24
568.19	1079.69
568.54	1080.39
568.90	1072.67
569.25	1078.75
569.60	1065.18
569.95	1062.37
570.31	1069.16
570.66	1074.31
571.01	1061.90
571.36	1076.88
571.71	1082.97
572.06	1074.54
572.42	1076.88
572.77	1086.71
573.12	1078.28
573.47	1074.54
573.82	1082.50
574.18	1086.01
574.53	1084.60
574.88	1085.77
575.23	1088.12
575.58	1076.18
575.93	1069.86
576.28	1069.39
576.64	1067.28
576.99	1079.22
577.34	1088.35
577.69	1084.84
578.04	1083.20
578.39	1080.16
578.74	1064.48
579.09	1064.24
579.44	1076.88
579.80	1078.28
580.15	1095.84
580.50	1104.03
580.85	1095.37
581.20	1088.35
581.55	1088.12
581.90	1080.86
582.25	1076.88
582.60	1079.92
582.95	1079.22
583.30	1083.67
583.65	1077.58
584.00	1081.09
584.35	1079.92
584.71	1082.97
585.06	1085.54
585.41	1098.41
585.76	1095.84
586.11	1108.95
586.46	1104.73
586.81	1099.82
587.16	1092.80
587.51	1098.41
587.86	1086.01
588.21	1081.56
588.56	1081.09
588.91	1076.18
589.26	1075.01
589.61	1083.43
589.96	1086.48
590.31	1078.52
590.66	1079.46
591.01	1068.45
591.36	1065.65
591.71	1064.48
592.06	1074.54
592.41	1079.69
592.76	1079.92
593.10	1081.80
593.45	1079.92
593.80	1066.58
594.15	1064.01
594.50	1071.03
594.85	1066.11
595.20	1074.31
595.55	1084.60
595.90	1083.90
596.25	1094.43
596.60	1093.73
596.95	1088.12
597.30	1082.03
597.64	1139.84
597.99	1134.93
598.34	1134.93
598.69	1135.39
599.04	1135.63
599.39	1071.50
599.74	1066.58
600.09	1068.69
600.44	1073.37
600.78	1068.92
601.13	1076.18
601.48	1074.31
601.83	1071.97
602.18	1072.43
602.53	1077.11
602.88	1081.56
603.22	1083.20
603.57	1085.77
603.92	1084.84
604.27	1084.14
604.62	1081.09
604.97	1089.05
605.31	1086.01
605.66	1076.18
606.01	1087.18
606.36	1088.35
606.71	1088.35
607.05	1101.92
607.40	1111.52
607.75	1109.41
608.10	1106.84
608.44	1094.43
608.79	1083.90
609.14	1079.22
609.49	1076.88
609.84	1068.45
610.18	1072.67
610.53	1077.11
610.88	1083.43
611.23	1083.20
611.57	1093.03
611.92	1093.50
612.27	1096.31
612.62	1103.80
612.96	1107.78
613.31	1107.54
613.66	1112.22
614.00	1105.20
614.35	1098.65
614.70	1093.50
615.05	1097.48
615.39	1087.18
615.74	1091.63
616.09	1083.90
616.43	1083.67
616.78	1073.37
617.13	1083.20
617.47	1080.86
617.82	1082.97
618.17	1081.09
618.51	1087.41
618.86	1090.92
619.21	1082.73
619.55	1082.73
619.90	1091.16
620.25	1097.48
620.59	1095.14
620.94	1096.54
621.29	1099.82
621.63	1093.26
621.98	1084.84
622.32	1077.11
622.67	1088.12
623.02	1086.94
623.36	1093.97
623.71	1094.90
624.05	1098.88
624.40	1094.67
624.75	1096.54
625.09	1089.29
625.44	1094.20
625.78	1089.29
626.13	1094.90
626.48	1098.65
626.82	1097.24
627.17	1096.07
627.51	1093.97
627.86	1082.50
628.20	1074.54
628.55	1077.11
628.89	1063.31
629.24	1063.07
629.58	1067.99
629.93	1068.69
630.28	1075.94
630.62	1084.84
630.97	1093.50
631.31	1100.75
631.66	1105.20
632.00	1093.97
632.35	1099.35
632.69	1099.35
633.04	1095.37
633.38	1101.22
633.73	1105.67
634.07	1094.67
634.42	1087.88
634.76	1073.37
635.11	1058.39
635.45	1064.48
635.79	1078.28
636.14	1078.28
636.48	1073.84
636.83	1077.58
637.17	1072.90
637.52	1068.22
637.86	1074.77
638.21	1082.97
638.55	1081.09
638.89	1077.58
639.24	1084.60
639.58	1085.31
639.93	1086.48
640.27	1081.09
640.61	1084.37
640.96	1079.92
641.30	1071.73
641.65	1071.50
641.99	1075.24
642.33	1073.60
642.68	1065.41
643.02	1075.24
643.37	1077.58
643.71	1088.35
644.05	1084.14
644.40	1089.52
644.74	1079.92
645.08	1085.54
645.43	1076.88
645.77	1078.28
646.11	1076.88
646.46	1080.16
646.80	1083.20
647.14	1093.97
647.49	1092.80
647.83	1081.33
648.17	1078.52
648.52	1075.71
648.86	1069.86
649.20	1066.35
649.55	1072.90
649.89	1081.56
650.23	1082.03
650.57	1074.54
650.92	1086.71
651.26	1084.14
651.60	1076.88
651.95	1078.05
652.29	1093.26
652.63	1089.29
652.97	1094.20
653.32	1101.46
653.66	1095.84
654.00	1092.80
654.34	1084.37
654.69	1082.03
655.03	1072.90
655.37	1069.62
655.71	1069.62
656.05	1073.84
656.40	1077.82
656.74	1070.33
657.08	1079.92
657.42	1069.62
657.76	1063.77
658.11	1059.33
658.45	1067.52
658.79	1061.20
659.13	1065.18
659.47	1079.92
659.82	1087.41
660.16	1085.54
660.50	1084.84
660.84	1091.86
661.18	1088.35
661.52	1089.29
661.87	1098.18
662.21	1098.18
662.55	1101.22
662.89	1103.09
663.23	1097.48
663.57	1092.80
663.91	1104.73
664.25	1093.73
664.60	1086.48
664.94	1093.73
665.28	1089.52
665.62	1084.14
665.96	1090.92
666.30	1104.03
666.64	1097.24
666.98	1105.90
667.32	1090.92
667.66	1086.94
668.01	1080.39
668.35	1083.67
668.69	1076.65
669.03	1076.18
669.37	1071.03
669.71	1070.80
670.05	1082.03
670.39	1086.71
670.73	1101.22
671.07	1098.65
671.41	1087.88
671.75	1067.99
672.09	1070.56
672.43	1066.58
672.77	1075.01
673.11	1079.92
673.45	1083.67
673.79	1083.90
674.13	1080.16
674.47	1081.56
674.81	1088.58
675.15	1089.05
675.49	1084.84
675.83	1083.67
676.17	1084.84
676.51	1084.60
676.85	1084.84
677.19	1090.92
677.53	1106.84
677.87	1109.88
678.21	1094.90
678.55	1095.14
678.89	1095.14
679.23	1086.94
679.57	1081.80
679.90	1098.65
680.24	1100.05
680.58	1100.05
680.92	1103.09
681.26	1105.20
681.60	1093.50
681.94	1093.97
682.28	1087.65
682.62	1072.90
682.96	1061.67
683.29	1061.90
683.63	1065.88
683.97	1067.52
684.31	1081.09
684.65	1076.41
684.99	1086.71
685.33	1085.77
685.67	1082.26
686.00	1075.48
686.34	1095.37
686.68	1092.33
687.02	1088.82
687.36	1085.31
687.70	1090.22
688.03	1083.43
688.37	1077.82
688.71	1081.80
689.05	1089.52
689.39	1079.69
689.72	1078.28
690.06	1085.77
690.40	1078.99
690.74	1068.92
691.08	1074.07
691.41	1067.28
691.75	1066.35
692.09	1074.54
692.43	1082.73
692.76	1086.71
693.10	1092.56
693.44	1081.80
693.78	1080.86
694.11	1078.05
694.45	1087.65
694.79	1088.58
695.13	1092.09
695.46	1087.18
695.80	1089.05
696.14	1069.62
696.48	1069.16
696.81	1066.58
697.15	1064.01
697.49	1059.33
697.82	1060.73
698.16	1049.03
698.50	1057.69
698.83	1063.54
699.17	1065.41
699.51	1075.71
699.84	1093.26
700.18	1089.99
700.52	1086.24
700.85	1092.56
701.19	1083.67
701.53	1070.33
701.86	1067.99
702.20	1077.11
702.54	1069.86
702.87	1073.84
703.21	1075.48
703.55	1060.73
703.88	1042.94
704.22	1042.01
704.55	1045.75
704.89	1051.13
705.23	1070.33
705.56	1080.16
705.90	1083.20
706.23	1082.03
706.57	1082.26
706.91	1076.88
707.24	1081.09
707.58	1079.92
707.91	1066.82
708.25	1069.86
708.58	1073.84
708.92	1071.97
709.26	1079.46
709.59	1094.43
709.93	1097.48
710.26	1103.80
710.60	1097.48
710.93	1089.75
711.27	1079.22
711.60	1069.39
711.94	1059.56
712.27	1068.45
712.61	1072.20
712.94	1072.20
713.28	1082.03
713.61	1087.41
713.95	1089.99
714.28	1087.41
714.62	1101.46
714.95	1093.73
715.29	1085.31
715.62	1074.07
715.96	1068.69
716.29	1062.14
716.63	1067.05
716.96	1076.41
717.29	1081.09
717.63	1093.26
717.96	1090.46
718.30	1076.41
718.63	1066.58
718.97	1064.48
719.30	1057.92
719.63	1061.67
719.97	1074.54
720.30	1086.48
720.64	1087.65
720.97	1089.52
721.30	1080.86
721.64	1077.11
721.97	1073.14
722.31	1078.99
722.64	1075.48
722.97	1081.56
723.31	1077.58
723.64	1080.63
723.97	1079.46
724.31	1080.39
724.64	1085.54
724.98	1082.73
725.31	1081.80
725.64	1075.24
725.98	1076.41
726.31	1067.05
726.64	1084.14
726.97	1081.09
727.31	1088.82
727.64	1096.78
727.97	1098.88
728.31	1087.18
728.64	1085.07
728.97	1078.05
729.31	1063.31
729.64	1061.20
729.97	1061.43
730.30	1068.69
730.64	1067.28
730.97	1077.11
731.30	1081.33
731.63	1076.65
731.97	1080.16
732.30	1082.26
732.63	1074.54
732.96	1078.52
733.30	1086.48
733.63	1083.43
733.96	1086.71
734.29	1086.48
734.63	1074.77
734.96	1076.18
735.29	1077.35
735.62	1074.54
735.95	1086.71
736.29	1091.86
736.62	1094.43
736.95	1084.84
737.28	1084.37
737.61	1075.94
737.94	1075.94
738.28	1067.52
738.61	1071.73
738.94	1071.97
739.27	1078.75
739.60	1076.18
739.93	1082.73
740.27	1079.92
740.60	1086.48
740.93	1077.35
741.26	1086.71
741.59	1075.94
741.92	1074.77
742.25	1073.37
742.58	1076.18
742.91	1077.58
743.25	1082.03
743.58	1085.54
743.91	1077.11
744.24	1078.75
744.57	1067.05
744.90	1062.37
745.23	1058.16
745.56	1067.99
745.89	1074.31
746.22	1087.18
746.55	1090.22
746.88	1096.54
747.21	1091.63
747.54	1083.90
747.87	1080.63
748.20	1081.09
748.53	1078.99
748.87	1080.39
749.20	1081.09
749.53	1080.63
749.86	1085.54
750.19	1094.20
750.52	1086.24
750.85	1089.75
751.18	1083.43
751.51	1077.82
751.84	1072.20
752.16	1073.84
752.49	1071.03
752.82	1075.01
753.15	1083.43
753.48	1078.99
753.81	1081.33
754.14	1078.99
754.47	1080.39
754.80	1071.73
755.13	1067.28
755.46	1069.86
755.79	1067.28
756.12	1069.86
756.45	1083.90
756.78	1105.90
757.11	1098.18
757.43	1109.88
757.76	1111.29
758.09	1103.80
758.42	1085.07
758.75	1083.20
759.08	1068.45
759.41	1063.31
759.74	1053.71
760.07	1057.22
760.39	1071.50
760.72	1085.07
761.05	1083.90
761.38	1103.80
761.71	1101.46
762.04	1094.90
762.36	1094.20
762.69	1098.65
763.02	1083.67
763.35	1071.50
763.68	1087.65
764.01	1090.92
764.33	1088.58
764.66	1091.16
764.99	1102.63
765.32	1093.26
765.65	1090.22
765.97	1084.37
766.30	1085.54
