SpectraSuite Data File
++++++++++++++++++++++++++++++++++++
Date: Mon Aug 26 10:25:56 PDT 2019
User: corrico
Dark Spectrum Present: No
Reference Spectrum Present: No
Number of Sampled Component Spectra: 1
Spectrometers: USB2+H06089
Integration Time (usec): 10000 (USB2+H06089)
Spectra Averaged: 2 (USB2+H06089)
Boxcar Smoothing: 2 (USB2+H06089)
Correct for Electrical Dark: No (USB2+H06089)
Strobe/Lamp Enabled: No (USB2+H06089)
Correct for Detector Non-linearity: No (USB2+H06089)
Correct for Stray Light: No (USB2+H06089)
Number of Pixels in Processed Spectrum: 2048
>>>>>Begin Processed Spectral Data<<<<<
339.70	987.71
340.07	987.71
340.45	982.09
340.82	968.75
341.19	951.90
341.57	933.17
341.94	910.23
342.31	897.83
342.69	888.70
343.06	891.98
343.43	891.74
343.81	896.43
344.18	906.49
344.55	914.21
344.93	913.28
345.30	920.77
345.67	926.85
346.04	930.83
346.42	943.94
346.79	952.13
347.16	957.98
347.54	961.73
347.91	971.56
348.28	972.26
348.65	986.30
349.03	1001.52
349.40	1021.64
349.77	1026.32
350.14	1031.94
350.52	1034.98
350.89	1033.81
351.26	1030.07
351.63	1036.39
352.01	1050.90
352.38	1053.71
352.75	1057.92
353.12	1064.94
353.50	1065.41
353.87	1061.90
354.24	1061.43
354.61	1066.58
354.98	1068.69
355.36	1067.28
355.73	1077.82
356.10	1083.67
356.47	1089.99
356.84	1091.63
357.22	1093.50
357.59	1086.71
357.96	1084.84
358.33	1082.26
358.70	1083.67
359.08	1069.39
359.45	1059.56
359.82	1060.50
360.19	1055.35
360.56	1051.37
360.94	1067.05
361.31	1074.54
361.68	1072.43
362.05	1073.14
362.42	1076.41
362.79	1076.18
363.16	1069.86
363.54	1072.43
363.91	1076.18
364.28	1082.03
364.65	1084.60
365.02	1083.67
365.39	1086.71
365.76	1074.77
366.14	1060.73
366.51	1054.88
366.88	1071.03
367.25	1063.07
367.62	1070.56
367.99	1057.92
368.36	1062.60
368.73	1054.65
369.10	1059.09
369.48	1066.82
369.85	1084.37
370.22	1082.97
370.59	1075.94
370.96	1072.67
371.33	1059.09
371.70	1049.50
372.07	1050.20
372.44	1066.58
372.81	1062.60
373.18	1066.82
373.55	1070.09
373.93	1067.52
374.30	1054.88
374.67	1064.24
375.04	1059.09
375.41	1067.52
375.78	1068.92
376.15	1067.05
376.52	1058.16
376.89	1067.75
377.26	1061.20
377.63	1056.05
378.00	1053.94
378.37	1059.09
378.74	1056.05
379.11	1049.03
379.48	1060.96
379.85	1059.56
380.22	1055.58
380.59	1052.77
380.96	1064.01
381.33	1053.94
381.70	1062.84
382.07	1070.80
382.44	1064.94
382.81	1069.39
383.18	1078.05
383.55	1071.50
383.92	1073.14
384.29	1088.82
384.66	1089.99
385.03	1082.50
385.40	1090.22
385.77	1097.95
386.14	1086.48
386.51	1072.90
386.88	1077.58
387.25	1082.50
387.62	1069.39
387.99	1067.05
388.36	1075.71
388.73	1070.33
389.10	1053.94
389.46	1053.48
389.83	1068.92
390.20	1070.80
390.57	1077.58
390.94	1080.86
391.31	1082.26
391.68	1080.39
392.05	1075.48
392.42	1067.75
392.79	1077.58
393.16	1079.46
393.53	1083.20
393.89	1087.18
394.26	1091.39
394.63	1091.16
395.00	1087.18
395.37	1082.26
395.74	1071.50
396.11	1066.11
396.48	1064.48
396.84	1069.16
397.21	1060.26
397.58	1060.73
397.95	1059.33
398.32	1065.41
398.69	1058.16
399.06	1060.50
399.42	1061.90
399.79	1073.37
400.16	1062.14
400.53	1073.14
400.90	1078.05
401.27	1089.29
401.64	1084.37
402.00	1086.48
402.37	1079.92
402.74	1074.31
403.11	1069.16
403.48	1070.09
403.84	1066.82
404.21	1055.58
404.58	1054.65
404.95	1053.48
405.32	1054.18
405.68	1052.54
406.05	1058.39
406.42	1064.94
406.79	1073.37
407.16	1070.80
407.52	1077.35
407.89	1079.46
408.26	1071.50
408.63	1069.16
408.99	1079.69
409.36	1084.84
409.73	1077.58
410.10	1085.77
410.47	1085.31
410.83	1078.75
411.20	1069.39
411.57	1080.86
411.94	1075.01
412.30	1062.37
412.67	1063.77
413.04	1065.18
413.40	1064.94
413.77	1063.31
414.14	1066.58
414.51	1060.50
414.87	1060.03
415.24	1055.58
415.61	1061.90
415.97	1065.65
416.34	1068.45
416.71	1066.35
417.08	1069.62
417.44	1060.73
417.81	1060.50
418.18	1062.60
418.54	1069.86
418.91	1067.75
419.28	1076.41
419.64	1074.07
420.01	1064.01
420.38	1064.94
420.74	1080.86
421.11	1080.63
421.48	1092.09
421.84	1097.01
422.21	1093.26
422.58	1077.35
422.94	1076.65
423.31	1066.11
423.68	1069.16
424.04	1073.60
424.41	1073.84
424.77	1066.58
425.14	1064.94
425.51	1067.28
425.87	1065.41
426.24	1066.58
426.61	1083.43
426.97	1093.50
427.34	1091.86
427.70	1096.07
428.07	1082.73
428.44	1075.94
428.80	1063.07
429.17	1059.79
429.53	1053.94
429.90	1067.75
430.27	1059.33
430.63	1068.45
431.00	1070.09
431.36	1075.24
431.73	1077.82
432.09	1089.52
432.46	1096.07
432.83	1100.75
433.19	1096.78
433.56	1095.37
433.92	1081.80
434.29	1071.03
434.65	1063.77
435.02	1068.22
435.38	1074.54
435.75	1077.58
436.11	1086.71
436.48	1098.65
436.84	1087.88
437.21	1072.43
437.57	1075.94
437.94	1073.84
438.30	1054.41
438.67	1055.35
439.03	1055.58
439.40	1054.18
439.76	1055.11
440.13	1070.09
440.49	1071.73
440.86	1082.97
441.22	1080.86
441.59	1080.39
441.95	1074.31
442.32	1079.69
442.68	1077.11
443.05	1080.16
443.41	1072.20
443.78	1071.26
444.14	1060.73
444.51	1062.37
444.87	1060.96
445.24	1071.26
445.60	1071.73
445.96	1076.65
446.33	1070.09
446.69	1067.75
447.06	1060.50
447.42	1063.54
447.79	1062.14
448.15	1072.67
448.51	1072.67
448.88	1072.20
449.24	1065.18
449.61	1068.45
449.97	1058.16
450.33	1059.56
450.70	1066.82
451.06	1069.62
451.43	1074.54
451.79	1077.58
452.15	1070.33
452.52	1064.71
452.88	1060.50
453.24	1051.60
453.61	1051.13
453.97	1063.07
454.34	1061.20
454.70	1066.35
455.06	1070.80
455.43	1081.56
455.79	1082.97
456.15	1083.67
456.52	1074.07
456.88	1071.73
457.24	1065.41
457.61	1060.26
457.97	1063.77
458.33	1078.99
458.70	1081.56
459.06	1075.24
459.42	1074.07
459.79	1065.65
460.15	1060.03
460.51	1067.05
460.88	1072.90
461.24	1078.99
461.60	1085.77
461.96	1091.16
462.33	1075.71
462.69	1068.22
463.05	1077.82
463.42	1071.73
463.78	1072.43
464.14	1080.63
464.50	1098.18
464.87	1086.94
465.23	1094.90
465.59	1086.94
465.95	1089.75
466.32	1085.31
466.68	1077.11
467.04	1076.18
467.40	1074.07
467.77	1079.46
468.13	1078.28
468.49	1086.24
468.85	1077.35
469.22	1082.50
469.58	1074.77
469.94	1067.99
470.30	1062.37
470.66	1061.67
471.03	1067.05
471.39	1062.14
471.75	1059.33
472.11	1066.11
472.47	1073.84
472.84	1072.90
473.20	1068.92
473.56	1066.35
473.92	1064.71
474.28	1065.65
474.65	1061.67
475.01	1074.07
475.37	1085.31
475.73	1091.86
476.09	1091.63
476.45	1096.78
476.81	1094.67
477.18	1095.84
477.54	1087.41
477.90	1090.22
478.26	1087.41
478.62	1092.33
478.98	1086.71
479.34	1084.84
479.71	1076.65
480.07	1077.35
480.43	1078.52
480.79	1076.88
481.15	1071.50
481.51	1075.94
481.87	1076.41
482.23	1071.97
482.59	1077.35
482.96	1093.50
483.32	1094.20
483.68	1090.22
484.04	1089.75
484.40	1092.56
484.76	1094.67
485.12	1102.16
485.48	1106.14
485.84	1105.44
486.20	1100.99
486.56	1091.16
486.92	1082.03
487.28	1086.94
487.64	1085.54
488.00	1074.31
488.37	1076.41
488.73	1070.56
489.09	1058.86
489.45	1053.48
489.81	1069.39
490.17	1069.39
490.53	1072.43
490.89	1079.92
491.25	1082.03
491.61	1075.71
491.97	1072.43
492.33	1078.05
492.69	1071.03
493.05	1071.97
493.41	1075.48
493.77	1078.75
494.13	1065.18
494.49	1061.43
494.85	1063.07
495.21	1056.28
495.57	1060.03
495.93	1075.94
496.29	1078.52
496.64	1075.01
497.00	1081.09
497.36	1075.71
497.72	1065.88
498.08	1073.37
498.44	1083.43
498.80	1074.31
499.16	1071.50
499.52	1085.07
499.88	1071.73
500.24	1071.03
500.60	1071.03
500.96	1082.03
501.32	1070.33
501.68	1081.09
502.03	1079.22
502.39	1092.56
502.75	1082.97
503.11	1092.80
503.47	1101.46
503.83	1091.86
504.19	1080.16
504.55	1079.22
504.91	1077.58
505.26	1066.58
505.62	1068.45
505.98	1076.88
506.34	1087.88
506.70	1085.31
507.06	1089.75
507.42	1096.54
507.78	1084.84
508.13	1075.48
508.49	1077.58
508.85	1078.99
509.21	1082.50
509.57	1093.97
509.93	1093.50
510.28	1086.01
510.64	1078.52
511.00	1076.41
511.36	1075.48
511.72	1078.05
512.07	1075.01
512.43	1076.88
512.79	1075.48
513.15	1083.90
513.51	1082.97
513.86	1088.82
514.22	1095.14
514.58	1087.65
514.94	1079.69
515.30	1091.39
515.65	1090.92
516.01	1084.84
516.37	1086.71
516.73	1092.33
517.08	1080.16
517.44	1082.97
517.80	1095.37
518.16	1104.73
518.51	1091.16
518.87	1093.73
519.23	1095.60
519.59	1084.60
519.94	1082.26
520.30	1089.52
520.66	1090.46
521.01	1093.50
521.37	1101.69
521.73	1099.82
522.09	1105.90
522.44	1100.75
522.80	1105.20
523.16	1103.80
523.51	1098.88
523.87	1106.37
524.23	1120.41
524.58	1105.90
524.94	1103.56
525.30	1106.61
525.65	1097.71
526.01	1102.86
526.37	1109.88
526.72	1109.88
527.08	1108.71
527.44	1108.71
527.79	1099.35
528.15	1096.07
528.51	1096.78
528.86	1106.14
529.22	1093.73
529.58	1089.52
529.93	1090.69
530.29	1083.67
530.65	1077.11
531.00	1086.71
531.36	1085.07
531.71	1087.41
532.07	1094.43
532.43	1098.18
532.78	1092.33
533.14	1096.78
533.49	1093.50
533.85	1089.52
534.21	1083.43
534.56	1085.54
534.92	1077.35
535.27	1071.50
535.63	1076.18
535.98	1070.33
536.34	1063.77
536.69	1060.50
537.05	1062.84
537.41	1052.77
537.76	1062.14
538.12	1067.52
538.47	1082.03
538.83	1084.14
539.18	1092.56
539.54	1084.60
539.89	1085.07
540.25	1087.65
540.60	1087.18
540.96	1078.05
541.31	1086.24
541.67	1082.73
542.02	1072.90
542.38	1075.71
542.73	1094.20
543.09	1094.20
543.44	1101.69
543.80	1106.37
544.15	1106.37
544.51	1089.75
544.86	1089.99
545.22	1083.20
545.57	1085.77
545.93	1087.41
546.28	1092.33
546.64	1086.48
546.99	1083.43
547.35	1083.20
547.70	1080.63
548.05	1081.33
548.41	1085.31
548.76	1085.31
549.12	1075.94
549.47	1078.75
549.83	1080.39
550.18	1077.11
550.53	1082.50
550.89	1090.69
551.24	1092.33
551.60	1087.88
551.95	1101.92
552.30	1108.48
552.66	1106.37
553.01	1098.65
553.37	1105.44
553.72	1092.80
554.07	1086.01
554.43	1083.90
554.78	1092.09
555.13	1083.67
555.49	1081.80
555.84	1076.18
556.19	1066.11
556.55	1064.48
556.90	1076.18
557.26	1077.35
557.61	1085.54
557.96	1080.16
558.32	1078.52
558.67	1075.24
559.02	1074.77
559.37	1071.73
559.73	1082.26
560.08	1078.05
560.43	1066.35
560.79	1069.62
561.14	1071.03
561.49	1085.54
561.85	1090.92
562.20	1097.95
562.55	1092.56
562.90	1096.54
563.26	1085.77
563.61	1079.92
563.96	1082.26
564.32	1092.33
564.67	1084.37
565.02	1084.37
565.37	1091.86
565.73	1085.54
566.08	1074.07
566.43	1077.35
566.78	1078.99
567.14	1072.67
567.49	1083.43
567.84	1090.69
568.19	1098.41
568.54	1097.95
568.90	1108.95
569.25	1106.61
569.60	1105.90
569.95	1102.16
570.31	1098.88
570.66	1095.84
571.01	1094.67
571.36	1095.37
571.71	1086.24
572.06	1085.31
572.42	1077.82
572.77	1073.37
573.12	1071.97
573.47	1075.24
573.82	1075.24
574.18	1075.48
574.53	1071.03
574.88	1070.80
575.23	1068.92
575.58	1071.03
575.93	1068.45
576.28	1072.20
576.64	1079.69
576.99	1083.43
577.34	1080.63
577.69	1086.24
578.04	1091.63
578.39	1084.37
578.74	1085.31
579.09	1087.88
579.44	1081.09
579.80	1078.28
580.15	1081.33
580.50	1078.05
580.85	1085.31
581.20	1092.80
581.55	1095.14
581.90	1090.22
582.25	1087.65
582.60	1086.71
582.95	1075.24
583.30	1068.22
583.65	1075.48
584.00	1090.22
584.35	1078.75
584.71	1091.16
585.06	1094.43
585.41	1095.84
585.76	1084.37
586.11	1086.48
586.46	1089.75
586.81	1090.22
587.16	1093.73
587.51	1106.14
587.86	1118.54
588.21	1109.88
588.56	1108.71
588.91	1105.90
589.26	1101.92
589.61	1094.43
589.96	1097.71
590.31	1095.37
590.66	1096.07
591.01	1089.75
591.36	1093.26
591.71	1091.86
592.06	1093.03
592.41	1081.80
592.76	1071.26
593.10	1062.84
593.45	1060.26
593.80	1065.18
594.15	1068.22
594.50	1077.58
594.85	1082.03
595.20	1079.46
595.55	1077.58
595.90	1068.69
596.25	1075.01
596.60	1066.58
596.95	1062.60
597.30	1057.69
597.64	1114.10
597.99	1110.58
598.34	1112.69
598.69	1115.03
599.04	1119.01
599.39	1074.54
599.74	1070.56
600.09	1076.65
600.44	1074.77
600.78	1075.01
601.13	1078.99
601.48	1086.94
601.83	1086.01
602.18	1102.39
602.53	1095.84
602.88	1087.88
603.22	1080.39
603.57	1075.24
603.92	1070.80
604.27	1075.94
604.62	1074.31
604.97	1076.88
605.31	1087.88
605.66	1072.67
606.01	1072.20
606.36	1073.60
606.71	1073.60
607.05	1068.92
607.40	1086.24
607.75	1081.56
608.10	1095.60
608.44	1102.86
608.79	1106.61
609.14	1110.35
609.49	1121.82
609.84	1107.78
610.18	1096.54
610.53	1090.92
610.88	1082.97
611.23	1071.50
611.57	1074.54
611.92	1082.03
612.27	1079.22
612.62	1078.75
612.96	1088.35
613.31	1088.12
613.66	1084.84
614.00	1079.69
614.35	1080.39
614.70	1068.22
615.05	1067.52
615.39	1063.54
615.74	1066.35
616.09	1062.60
616.43	1078.05
616.78	1071.97
617.13	1073.37
617.47	1085.77
617.82	1098.88
618.17	1101.46
618.51	1108.48
618.86	1114.80
619.21	1106.61
619.55	1095.14
619.90	1085.77
620.25	1085.54
620.59	1078.28
620.94	1085.54
621.29	1085.77
621.63	1082.97
621.98	1075.48
622.32	1068.22
622.67	1066.82
623.02	1072.43
623.36	1069.62
623.71	1074.54
624.05	1082.03
624.40	1078.75
624.75	1073.60
625.09	1082.73
625.44	1082.03
625.78	1089.05
626.13	1090.46
626.48	1083.90
626.82	1079.46
627.17	1092.33
627.51	1089.99
627.86	1083.43
628.20	1089.52
628.55	1099.35
628.89	1089.99
629.24	1094.20
629.58	1099.82
629.93	1101.69
630.28	1091.63
630.62	1096.78
630.97	1088.82
631.31	1088.12
631.66	1087.88
632.00	1093.26
632.35	1093.26
632.69	1099.58
633.04	1093.26
633.38	1095.84
633.73	1092.33
634.07	1082.50
634.42	1082.97
634.76	1087.41
635.11	1078.75
635.45	1077.58
635.79	1083.90
636.14	1087.65
636.48	1095.37
636.83	1100.52
637.17	1100.99
637.52	1086.94
637.86	1074.77
638.21	1057.45
638.55	1059.79
638.89	1051.60
639.24	1051.13
639.58	1050.90
639.93	1059.79
640.27	1071.50
640.61	1079.46
640.96	1089.75
641.30	1103.80
641.65	1103.09
641.99	1079.69
642.33	1089.29
642.68	1082.26
643.02	1068.22
643.37	1066.58
643.71	1075.48
644.05	1058.39
644.40	1059.09
644.74	1055.58
645.08	1058.86
645.43	1056.28
645.77	1061.67
646.11	1069.39
646.46	1078.05
646.80	1079.92
647.14	1084.60
647.49	1087.18
647.83	1081.56
648.17	1086.71
648.52	1085.07
648.86	1075.71
649.20	1083.90
649.55	1093.73
649.89	1089.52
650.23	1095.14
650.57	1104.03
650.92	1095.84
651.26	1093.26
651.60	1081.33
651.95	1073.14
652.29	1071.97
652.63	1073.37
652.97	1080.16
653.32	1087.65
653.66	1088.58
654.00	1093.50
654.34	1093.26
654.69	1077.35
655.03	1086.94
655.37	1088.35
655.71	1086.48
656.05	1083.43
656.40	1091.16
656.74	1088.82
657.08	1095.60
657.42	1095.14
657.76	1092.09
658.11	1091.63
658.45	1083.67
658.79	1075.24
659.13	1072.43
659.47	1072.67
659.82	1071.50
660.16	1071.97
660.50	1076.65
660.84	1076.88
661.18	1085.31
661.52	1091.16
661.87	1091.16
662.21	1086.48
662.55	1084.14
662.89	1076.88
663.23	1079.46
663.57	1083.67
663.91	1089.75
664.25	1095.37
664.60	1094.43
664.94	1086.71
665.28	1083.43
665.62	1080.63
665.96	1081.33
666.30	1082.73
666.64	1070.09
666.98	1063.31
667.32	1047.62
667.66	1045.05
668.01	1045.99
668.35	1069.62
668.69	1070.09
669.03	1085.77
669.37	1080.39
669.71	1082.50
670.05	1074.07
670.39	1089.52
670.73	1091.39
671.07	1100.29
671.41	1101.69
671.75	1095.37
672.09	1082.73
672.43	1083.67
672.77	1078.05
673.11	1080.39
673.45	1088.58
673.79	1098.18
674.13	1095.84
674.47	1089.29
674.81	1082.97
675.15	1076.41
675.49	1065.65
675.83	1060.50
676.17	1065.65
676.51	1065.41
676.85	1067.75
677.19	1078.75
677.53	1086.01
677.87	1084.84
678.21	1082.73
678.55	1086.48
678.89	1081.56
679.23	1087.18
679.57	1093.73
679.90	1104.50
680.24	1098.18
680.58	1098.41
680.92	1088.12
681.26	1084.84
681.60	1073.14
681.94	1078.05
682.28	1078.99
682.62	1082.50
682.96	1075.94
683.29	1075.01
683.63	1065.18
683.97	1060.73
684.31	1062.37
684.65	1065.88
684.99	1073.60
685.33	1084.84
685.67	1089.99
686.00	1079.46
686.34	1082.26
686.68	1081.33
687.02	1076.65
687.36	1078.99
687.70	1078.28
688.03	1082.26
688.37	1082.97
688.71	1076.18
689.05	1065.88
689.39	1071.97
689.72	1071.73
690.06	1081.80
690.40	1092.09
690.74	1103.09
691.08	1106.14
691.41	1106.37
691.75	1096.78
692.09	1095.14
692.43	1100.05
692.76	1094.90
693.10	1094.90
693.44	1091.86
693.78	1095.84
694.11	1092.56
694.45	1088.35
694.79	1080.86
695.13	1075.94
695.46	1068.22
695.80	1062.14
696.14	1064.24
696.48	1067.75
696.81	1067.52
697.15	1062.84
697.49	1058.16
697.82	1059.56
698.16	1052.07
698.50	1066.82
698.83	1069.16
699.17	1060.26
699.51	1060.96
699.84	1065.18
700.18	1052.54
700.52	1053.01
700.85	1062.14
701.19	1067.75
701.53	1072.90
701.86	1079.22
702.20	1085.07
702.54	1095.14
702.87	1084.14
703.21	1088.58
703.55	1085.31
703.88	1074.31
704.22	1059.56
704.55	1072.43
704.89	1072.20
705.23	1076.65
705.56	1082.73
705.90	1097.71
706.23	1089.05
706.57	1084.60
706.91	1081.80
707.24	1093.26
707.58	1078.05
707.91	1075.01
708.25	1068.22
708.58	1070.56
708.92	1062.14
709.26	1061.43
709.59	1068.92
709.93	1077.82
710.26	1076.65
710.60	1084.14
710.93	1089.29
711.27	1082.73
711.60	1073.14
711.94	1061.90
712.27	1059.79
712.61	1057.22
712.94	1066.11
713.28	1067.75
713.61	1076.18
713.95	1069.62
714.28	1077.11
714.62	1069.62
714.95	1078.75
715.29	1084.14
715.62	1081.33
715.96	1084.84
716.29	1086.71
716.63	1088.35
716.96	1087.65
717.29	1102.39
717.63	1093.03
717.96	1082.73
718.30	1082.50
718.63	1075.01
718.97	1068.45
719.30	1074.07
719.63	1086.71
719.97	1081.09
720.30	1089.29
720.64	1078.05
720.97	1072.43
721.30	1067.75
721.64	1060.96
721.97	1061.20
722.31	1070.33
722.64	1068.45
722.97	1080.16
723.31	1088.35
723.64	1075.24
723.97	1068.69
724.31	1073.60
724.64	1064.24
724.98	1063.07
725.31	1075.94
725.64	1082.26
725.98	1069.62
726.31	1068.22
726.64	1061.90
726.97	1067.05
727.31	1061.20
727.64	1068.69
727.97	1065.41
728.31	1066.82
728.64	1059.79
728.97	1063.31
729.31	1078.28
729.64	1091.16
729.97	1094.20
730.30	1094.43
730.64	1091.63
730.97	1081.56
731.30	1077.11
731.63	1082.73
731.97	1073.37
732.30	1073.84
732.63	1072.67
732.96	1067.75
733.30	1061.43
733.63	1059.79
733.96	1061.20
734.29	1056.99
734.63	1058.86
734.96	1059.33
735.29	1067.28
735.62	1063.54
735.95	1071.73
736.29	1083.67
736.62	1082.26
736.95	1084.37
737.28	1090.46
737.61	1090.46
737.94	1080.16
738.28	1076.41
738.61	1071.73
738.94	1068.22
739.27	1070.56
739.60	1073.84
739.93	1075.94
740.27	1080.63
740.60	1080.39
740.93	1079.92
741.26	1074.31
741.59	1079.46
741.92	1084.37
742.25	1092.09
742.58	1095.84
742.91	1099.58
743.25	1099.82
743.58	1107.78
743.91	1103.56
744.24	1103.56
744.57	1097.01
744.90	1093.03
745.23	1075.94
745.56	1069.16
745.89	1066.11
746.22	1071.50
746.55	1067.52
746.88	1077.58
747.21	1078.52
747.54	1083.20
747.87	1085.77
748.20	1086.71
748.53	1082.73
748.87	1084.37
749.20	1074.77
749.53	1075.48
749.86	1089.05
750.19	1093.73
750.52	1102.39
750.85	1094.67
751.18	1084.14
751.51	1074.77
751.84	1066.58
752.16	1051.60
752.49	1049.26
752.82	1066.35
753.15	1064.48
753.48	1064.01
753.81	1077.35
754.14	1094.43
754.47	1089.05
754.80	1086.24
755.13	1093.26
755.46	1086.71
755.79	1090.92
756.12	1088.35
756.45	1093.97
756.78	1093.97
757.11	1095.37
757.43	1082.50
757.76	1083.43
758.09	1078.75
758.42	1074.07
758.75	1075.48
759.08	1073.14
759.41	1074.77
759.74	1072.90
760.07	1078.52
760.39	1077.11
760.72	1078.05
761.05	1073.37
761.38	1075.01
761.71	1063.54
762.04	1067.75
762.36	1069.86
762.69	1071.73
763.02	1075.71
763.35	1081.09
763.68	1075.94
764.01	1084.37
764.33	1070.33
764.66	1071.97
764.99	1070.80
765.32	1065.18
765.65	1060.03
765.97	1073.84
766.30	1075.94
