SpectraSuite Data File
++++++++++++++++++++++++++++++++++++
Date: Mon Aug 26 10:25:58 PDT 2019
User: corrico
Dark Spectrum Present: No
Reference Spectrum Present: No
Number of Sampled Component Spectra: 1
Spectrometers: USB2+H06089
Integration Time (usec): 10000 (USB2+H06089)
Spectra Averaged: 2 (USB2+H06089)
Boxcar Smoothing: 2 (USB2+H06089)
Correct for Electrical Dark: No (USB2+H06089)
Strobe/Lamp Enabled: No (USB2+H06089)
Correct for Detector Non-linearity: No (USB2+H06089)
Correct for Stray Light: No (USB2+H06089)
Number of Pixels in Processed Spectrum: 2048
>>>>>Begin Processed Spectral Data<<<<<
339.70	1029.84
340.07	1029.84
340.45	996.37
340.82	970.39
341.19	951.19
341.57	925.21
341.94	917.49
342.31	910.94
342.69	908.83
343.06	905.79
343.43	902.74
343.81	891.74
344.18	894.32
344.55	898.30
344.93	894.32
345.30	901.81
345.67	912.81
346.04	915.15
346.42	920.53
346.79	935.04
347.16	944.87
347.54	951.43
347.91	965.00
348.28	978.81
348.65	989.81
349.03	1003.15
349.40	1022.81
349.77	1033.58
350.14	1046.92
350.52	1049.26
350.89	1050.20
351.26	1052.77
351.63	1055.58
352.01	1046.92
352.38	1049.50
352.75	1058.62
353.12	1058.16
353.50	1062.60
353.87	1070.09
354.24	1075.48
354.61	1079.46
354.98	1078.28
355.36	1087.18
355.73	1084.84
356.10	1084.84
356.47	1079.46
356.84	1087.18
357.22	1080.16
357.59	1091.16
357.96	1090.92
358.33	1087.18
358.70	1081.09
359.08	1080.16
359.45	1074.77
359.82	1075.94
360.19	1081.56
360.56	1086.94
360.94	1090.69
361.31	1092.09
361.68	1084.37
362.05	1081.56
362.42	1076.88
362.79	1067.52
363.16	1064.24
363.54	1067.75
363.91	1066.82
364.28	1065.65
364.65	1055.35
365.02	1058.86
365.39	1060.73
365.76	1060.73
366.14	1055.58
366.51	1071.26
366.88	1067.05
367.25	1070.33
367.62	1071.73
367.99	1076.65
368.36	1065.41
368.73	1063.07
369.10	1063.31
369.48	1056.28
369.85	1045.75
370.22	1050.90
370.59	1057.92
370.96	1054.65
371.33	1062.14
371.70	1076.65
372.07	1077.11
372.44	1076.18
372.81	1077.82
373.18	1076.88
373.55	1078.05
373.93	1080.86
374.30	1074.54
374.67	1075.94
375.04	1070.56
375.41	1064.01
375.78	1058.62
376.15	1058.62
376.52	1056.75
376.89	1060.96
377.26	1069.62
377.63	1068.69
378.00	1069.86
378.37	1073.37
378.74	1072.67
379.11	1061.43
379.48	1068.22
379.85	1065.18
380.22	1060.96
380.59	1060.26
380.96	1070.80
381.33	1066.35
381.70	1074.07
382.07	1080.63
382.44	1078.05
382.81	1070.80
383.18	1075.94
383.55	1075.48
383.92	1070.09
384.29	1081.33
384.66	1084.14
385.03	1094.90
385.40	1086.94
385.77	1079.22
386.14	1077.11
386.51	1081.33
386.88	1066.58
387.25	1072.43
387.62	1076.41
387.99	1069.39
388.36	1062.14
388.73	1065.88
389.10	1072.90
389.46	1069.16
389.83	1063.07
390.20	1065.41
390.57	1069.16
390.94	1053.71
391.31	1064.71
391.68	1071.03
392.05	1070.56
392.42	1062.84
392.79	1070.09
393.16	1059.79
393.53	1070.33
393.89	1071.26
394.26	1072.67
394.63	1079.22
395.00	1080.16
395.37	1071.97
395.74	1074.54
396.11	1073.14
396.48	1065.65
396.84	1075.24
397.21	1078.05
397.58	1072.43
397.95	1075.71
398.32	1082.73
398.69	1074.07
399.06	1064.94
399.42	1076.41
399.79	1080.86
400.16	1074.77
400.53	1080.16
400.90	1092.09
401.27	1085.54
401.64	1076.18
402.00	1084.60
402.37	1080.16
402.74	1070.33
403.11	1063.77
403.48	1071.03
403.84	1065.88
404.21	1070.09
404.58	1071.26
404.95	1073.37
405.32	1072.20
405.68	1070.56
406.05	1071.97
406.42	1071.26
406.79	1066.35
407.16	1067.28
407.52	1064.48
407.89	1061.90
408.26	1068.69
408.63	1084.14
408.99	1083.90
409.36	1084.84
409.73	1079.22
410.10	1071.03
410.47	1057.69
410.83	1059.09
411.20	1067.28
411.57	1071.73
411.94	1071.97
412.30	1077.58
412.67	1073.14
413.04	1060.50
413.40	1061.67
413.77	1062.14
414.14	1058.62
414.51	1069.62
414.87	1080.63
415.24	1079.22
415.61	1082.03
415.97	1081.09
416.34	1072.67
416.71	1067.99
417.08	1065.65
417.44	1061.90
417.81	1061.67
418.18	1068.69
418.54	1074.54
418.91	1070.56
419.28	1076.88
419.64	1083.43
420.01	1082.26
420.38	1069.39
420.74	1070.80
421.11	1076.18
421.48	1063.54
421.84	1060.03
422.21	1070.80
422.58	1076.65
422.94	1070.80
423.31	1088.58
423.68	1079.46
424.04	1078.05
424.41	1075.24
424.77	1066.58
425.14	1058.86
425.51	1070.56
425.87	1066.11
426.24	1071.73
426.61	1078.28
426.97	1078.52
427.34	1080.16
427.70	1082.50
428.07	1084.60
428.44	1080.86
428.80	1075.01
429.17	1075.48
429.53	1075.48
429.90	1066.35
430.27	1072.67
430.63	1077.11
431.00	1065.18
431.36	1063.07
431.73	1070.33
432.09	1068.45
432.46	1073.84
432.83	1072.67
433.19	1073.14
433.56	1066.58
433.92	1064.24
434.29	1070.80
434.65	1071.03
435.02	1067.05
435.38	1073.14
435.75	1072.90
436.11	1062.14
436.48	1074.54
436.84	1083.43
437.21	1083.67
437.57	1086.71
437.94	1086.94
438.30	1081.56
438.67	1081.09
439.03	1081.33
439.40	1081.56
439.76	1083.90
440.13	1082.97
440.49	1086.24
440.86	1078.52
441.22	1088.12
441.59	1089.05
441.95	1094.43
442.32	1087.65
442.68	1097.24
443.05	1078.05
443.41	1080.86
443.78	1071.97
444.14	1068.92
444.51	1066.35
444.87	1083.90
445.24	1062.60
445.60	1065.88
445.96	1078.75
446.33	1082.26
446.69	1073.84
447.06	1088.58
447.42	1084.14
447.79	1073.37
448.15	1067.99
448.51	1070.56
448.88	1083.67
449.24	1085.77
449.61	1083.43
449.97	1081.80
450.33	1085.07
450.70	1079.92
451.06	1075.48
451.43	1079.69
451.79	1083.20
452.15	1080.39
452.52	1062.37
452.88	1073.37
453.24	1080.63
453.61	1089.52
453.97	1086.94
454.34	1095.60
454.70	1097.01
455.06	1091.16
455.43	1080.86
455.79	1092.33
456.15	1101.46
456.52	1100.29
456.88	1095.60
457.24	1098.18
457.61	1084.14
457.97	1077.35
458.33	1075.24
458.70	1075.71
459.06	1073.84
459.42	1085.31
459.79	1097.48
460.15	1093.03
460.51	1101.92
460.88	1103.80
461.24	1094.43
461.60	1092.56
461.96	1089.52
462.33	1088.35
462.69	1083.90
463.05	1083.20
463.42	1074.31
463.78	1087.41
464.14	1076.65
464.50	1078.52
464.87	1079.22
465.23	1082.03
465.59	1074.31
465.95	1089.75
466.32	1089.75
466.68	1091.63
467.04	1092.09
467.40	1096.31
467.77	1086.94
468.13	1092.09
468.49	1092.33
468.85	1090.46
469.22	1089.99
469.58	1082.50
469.94	1088.82
470.30	1096.54
470.66	1090.22
471.03	1081.09
471.39	1095.60
471.75	1090.22
472.11	1083.90
472.47	1086.94
472.84	1084.37
473.20	1079.22
473.56	1070.33
473.92	1065.88
474.28	1071.26
474.65	1081.09
475.01	1081.09
475.37	1084.60
475.73	1082.26
476.09	1071.50
476.45	1065.18
476.81	1060.50
477.18	1052.77
477.54	1058.39
477.90	1055.11
478.26	1067.75
478.62	1066.35
478.98	1071.26
479.34	1073.84
479.71	1087.65
480.07	1078.28
480.43	1089.52
480.79	1098.41
481.15	1100.52
481.51	1097.24
481.87	1100.75
482.23	1090.69
482.59	1082.26
482.96	1088.35
483.32	1089.05
483.68	1091.16
484.04	1104.97
484.40	1110.82
484.76	1095.14
485.12	1102.86
485.48	1093.26
485.84	1085.31
486.20	1086.94
486.56	1091.63
486.92	1079.46
487.28	1086.71
487.64	1086.71
488.00	1086.24
488.37	1091.63
488.73	1101.69
489.09	1092.09
489.45	1087.65
489.81	1082.50
490.17	1071.97
490.53	1055.58
490.89	1062.37
491.25	1066.58
491.61	1066.58
491.97	1080.16
492.33	1093.73
492.69	1096.78
493.05	1095.14
493.41	1091.86
493.77	1075.71
494.13	1075.94
494.49	1065.88
494.85	1063.77
495.21	1072.43
495.57	1081.56
495.93	1078.75
496.29	1084.60
496.64	1083.67
497.00	1087.65
497.36	1092.09
497.72	1093.50
498.08	1093.50
498.44	1094.67
498.80	1085.07
499.16	1082.73
499.52	1077.82
499.88	1074.54
500.24	1072.90
500.60	1075.48
500.96	1067.28
501.32	1071.73
501.68	1076.88
502.03	1078.75
502.39	1077.35
502.75	1083.90
503.11	1077.58
503.47	1068.45
503.83	1067.99
504.19	1069.62
504.55	1070.56
504.91	1071.73
505.26	1079.22
505.62	1087.41
505.98	1085.07
506.34	1077.11
506.70	1072.90
507.06	1068.22
507.42	1062.84
507.78	1076.41
508.13	1084.14
508.49	1100.05
508.85	1104.03
509.21	1109.65
509.57	1104.03
509.93	1102.39
510.28	1093.50
510.64	1098.18
511.00	1090.22
511.36	1074.54
511.72	1074.54
512.07	1071.73
512.43	1068.69
512.79	1067.05
513.15	1075.48
513.51	1076.18
513.86	1077.35
514.22	1074.54
514.58	1077.58
514.94	1072.43
515.30	1070.09
515.65	1076.18
516.01	1071.97
516.37	1075.48
516.73	1083.43
517.08	1078.75
517.44	1075.94
517.80	1088.82
518.16	1089.29
518.51	1092.09
518.87	1098.41
519.23	1106.61
519.59	1096.78
519.94	1102.16
520.30	1097.24
520.66	1091.16
521.01	1078.05
521.37	1086.24
521.73	1076.41
522.09	1081.33
522.44	1095.60
522.80	1108.71
523.16	1112.46
523.51	1118.31
523.87	1118.54
524.23	1113.16
524.58	1098.65
524.94	1097.95
525.30	1087.18
525.65	1082.26
526.01	1085.07
526.37	1099.12
526.72	1096.54
527.08	1105.20
527.44	1111.29
527.79	1104.97
528.15	1097.01
528.51	1090.92
528.86	1089.99
529.22	1089.29
529.58	1096.78
529.93	1092.80
530.29	1102.16
530.65	1104.97
531.00	1101.22
531.36	1090.22
531.71	1094.20
532.07	1089.29
532.43	1088.35
532.78	1088.12
533.14	1093.50
533.49	1097.01
533.85	1111.29
534.21	1110.82
534.56	1108.01
534.92	1114.56
535.27	1116.90
535.63	1114.33
535.98	1108.95
536.34	1114.56
536.69	1109.18
537.05	1100.29
537.41	1095.14
537.76	1100.29
538.12	1097.95
538.47	1089.99
538.83	1099.82
539.18	1096.54
539.54	1099.35
539.89	1091.86
540.25	1089.99
540.60	1083.90
540.96	1073.14
541.31	1064.71
541.67	1078.52
542.02	1088.82
542.38	1084.84
542.73	1089.29
543.09	1098.41
543.44	1091.16
543.80	1091.86
544.15	1094.90
544.51	1093.97
544.86	1097.48
545.22	1089.52
545.57	1078.05
545.93	1082.97
546.28	1088.82
546.64	1081.33
546.99	1093.03
547.35	1098.18
547.70	1086.24
548.05	1085.31
548.41	1091.63
548.76	1087.18
549.12	1091.63
549.47	1096.07
549.83	1089.52
550.18	1085.31
550.53	1081.80
550.89	1081.33
551.24	1090.92
551.60	1084.84
551.95	1086.48
552.30	1087.88
552.66	1088.58
553.01	1077.58
553.37	1092.80
553.72	1086.24
554.07	1088.12
554.43	1080.63
554.78	1076.88
555.13	1068.69
555.49	1070.80
555.84	1063.54
556.19	1071.97
556.55	1087.41
556.90	1092.80
557.26	1083.90
557.61	1093.97
557.96	1087.65
558.32	1081.33
558.67	1083.20
559.02	1094.67
559.37	1085.31
559.73	1080.86
560.08	1078.75
560.43	1079.69
560.79	1077.35
561.14	1082.03
561.49	1084.84
561.85	1080.86
562.20	1088.35
562.55	1086.01
562.90	1088.35
563.26	1096.07
563.61	1111.05
563.96	1098.88
564.32	1095.37
564.67	1103.33
565.02	1099.58
565.37	1089.99
565.73	1099.35
566.08	1101.22
566.43	1096.54
566.78	1092.80
567.14	1097.95
567.49	1086.01
567.84	1079.69
568.19	1072.43
568.54	1080.63
568.90	1080.39
569.25	1088.82
569.60	1084.60
569.95	1088.58
570.31	1089.05
570.66	1081.33
571.01	1080.39
571.36	1097.48
571.71	1096.78
572.06	1089.29
572.42	1092.33
572.77	1082.03
573.12	1082.73
573.47	1084.14
573.82	1089.52
574.18	1091.86
574.53	1097.95
574.88	1091.63
575.23	1089.29
575.58	1083.20
575.93	1076.88
576.28	1079.22
576.64	1085.54
576.99	1076.18
577.34	1081.33
577.69	1081.33
578.04	1088.58
578.39	1078.28
578.74	1087.65
579.09	1081.33
579.44	1087.41
579.80	1069.86
580.15	1075.48
580.50	1066.58
580.85	1065.88
581.20	1060.50
581.55	1065.65
581.90	1073.60
582.25	1092.09
582.60	1100.52
582.95	1094.67
583.30	1097.24
583.65	1084.60
584.00	1071.73
584.35	1067.99
584.71	1073.14
585.06	1075.24
585.41	1077.82
585.76	1092.09
586.11	1088.82
586.46	1085.07
586.81	1077.82
587.16	1079.92
587.51	1070.09
587.86	1075.48
588.21	1084.84
588.56	1093.03
588.91	1094.20
589.26	1098.88
589.61	1102.39
589.96	1091.86
590.31	1091.63
590.66	1089.75
591.01	1081.80
591.36	1080.63
591.71	1094.67
592.06	1095.37
592.41	1095.84
592.76	1097.24
593.10	1088.82
593.45	1073.14
593.80	1077.82
594.15	1069.86
594.50	1076.41
594.85	1077.82
595.20	1087.65
595.55	1071.73
595.90	1079.46
596.25	1076.88
596.60	1086.94
596.95	1088.12
597.30	1094.43
597.64	1149.67
597.99	1147.33
598.34	1137.97
598.69	1132.82
599.04	1138.44
599.39	1075.71
599.74	1073.60
600.09	1073.84
600.44	1072.90
600.78	1069.39
601.13	1077.35
601.48	1078.28
601.83	1086.01
602.18	1081.56
602.53	1080.86
602.88	1077.35
603.22	1075.71
603.57	1072.90
603.92	1090.46
604.27	1096.31
604.62	1099.82
604.97	1101.22
605.31	1105.44
605.66	1105.44
606.01	1098.18
606.36	1095.14
606.71	1096.31
607.05	1090.69
607.40	1084.60
607.75	1088.35
608.10	1088.82
608.44	1088.35
608.79	1091.39
609.14	1079.46
609.49	1073.37
609.84	1072.67
610.18	1073.37
610.53	1069.62
610.88	1074.31
611.23	1086.24
611.57	1089.29
611.92	1095.60
612.27	1097.71
612.62	1107.54
612.96	1093.97
613.31	1097.48
613.66	1086.48
614.00	1090.92
614.35	1081.33
614.70	1085.54
615.05	1078.52
615.39	1071.50
615.74	1069.16
616.09	1074.54
616.43	1082.03
616.78	1086.71
617.13	1099.35
617.47	1101.69
617.82	1101.92
618.17	1090.46
618.51	1090.22
618.86	1090.46
619.21	1091.16
619.55	1099.82
619.90	1100.29
620.25	1094.20
620.59	1089.29
620.94	1082.73
621.29	1062.37
621.63	1071.97
621.98	1073.37
622.32	1081.56
622.67	1073.60
623.02	1082.26
623.36	1078.28
623.71	1085.77
624.05	1088.35
624.40	1099.82
624.75	1091.86
625.09	1094.43
625.44	1092.33
625.78	1082.97
626.13	1081.33
626.48	1093.26
626.82	1095.37
627.17	1093.03
627.51	1098.65
627.86	1091.86
628.20	1083.67
628.55	1071.73
628.89	1076.18
629.24	1076.18
629.58	1078.99
629.93	1091.63
630.28	1099.35
630.62	1094.20
630.97	1082.50
631.31	1075.24
631.66	1067.99
632.00	1067.52
632.35	1075.24
632.69	1085.07
633.04	1086.71
633.38	1095.14
633.73	1095.14
634.07	1093.97
634.42	1094.90
634.76	1100.99
635.11	1097.48
635.45	1090.69
635.79	1079.92
636.14	1075.24
636.48	1076.41
636.83	1066.35
637.17	1070.09
637.52	1078.99
637.86	1080.86
638.21	1074.77
638.55	1081.09
638.89	1084.14
639.24	1083.90
639.58	1084.60
639.93	1091.63
640.27	1089.52
640.61	1089.05
640.96	1075.48
641.30	1075.94
641.65	1077.11
641.99	1091.16
642.33	1088.12
642.68	1098.18
643.02	1093.50
643.37	1093.03
643.71	1071.97
644.05	1077.11
644.40	1076.18
644.74	1069.16
645.08	1069.62
645.43	1081.09
645.77	1077.11
646.11	1077.11
646.46	1091.39
646.80	1089.05
647.14	1089.75
647.49	1093.50
647.83	1098.18
648.17	1093.03
648.52	1098.41
648.86	1098.65
649.20	1092.33
649.55	1089.75
649.89	1088.12
650.23	1086.24
650.57	1076.88
650.92	1079.92
651.26	1084.60
651.60	1083.20
651.95	1075.71
652.29	1076.65
652.63	1068.69
652.97	1053.71
653.32	1053.01
653.66	1064.24
654.00	1063.77
654.34	1068.92
654.69	1080.63
655.03	1085.31
655.37	1076.18
655.71	1079.46
656.05	1082.73
656.40	1073.84
656.74	1069.62
657.08	1070.80
657.42	1071.73
657.76	1067.75
658.11	1078.52
658.45	1081.80
658.79	1085.07
659.13	1086.48
659.47	1089.52
659.82	1082.50
660.16	1076.65
660.50	1066.82
660.84	1067.52
661.18	1061.67
661.52	1051.13
661.87	1061.90
662.21	1070.33
662.55	1073.14
662.89	1082.26
663.23	1100.29
663.57	1093.03
663.91	1090.22
664.25	1092.56
664.60	1094.20
664.94	1085.31
665.28	1078.99
665.62	1075.01
665.96	1067.28
666.30	1074.77
666.64	1077.35
666.98	1089.99
667.32	1093.73
667.66	1096.54
668.01	1088.12
668.35	1093.26
668.69	1088.12
669.03	1082.03
669.37	1079.69
669.71	1076.88
670.05	1070.33
670.39	1064.94
670.73	1078.52
671.07	1077.11
671.41	1072.20
671.75	1083.43
672.09	1089.29
672.43	1084.14
672.77	1083.67
673.11	1083.20
673.45	1071.50
673.79	1075.71
674.13	1072.67
674.47	1082.50
674.81	1090.22
675.15	1101.69
675.49	1094.90
675.83	1104.73
676.17	1093.26
676.51	1097.95
676.85	1089.29
677.19	1094.67
677.53	1093.03
677.87	1101.46
678.21	1105.67
678.55	1101.22
678.89	1099.35
679.23	1091.63
679.57	1086.24
679.90	1071.97
680.24	1075.71
680.58	1079.22
680.92	1085.31
681.26	1086.01
681.60	1087.65
681.94	1090.92
682.28	1082.50
682.62	1075.24
682.96	1075.71
683.29	1069.62
683.63	1065.65
683.97	1064.24
684.31	1066.11
684.65	1065.18
684.99	1076.65
685.33	1073.84
685.67	1081.33
686.00	1091.63
686.34	1089.75
686.68	1081.09
687.02	1075.48
687.36	1078.75
687.70	1064.71
688.03	1066.82
688.37	1076.88
688.71	1096.07
689.05	1092.33
689.39	1098.65
689.72	1101.92
690.06	1089.52
690.40	1080.86
690.74	1078.28
691.08	1077.35
691.41	1079.46
691.75	1098.65
692.09	1100.75
692.43	1107.31
692.76	1108.48
693.10	1103.80
693.44	1100.99
693.78	1095.37
694.11	1087.41
694.45	1090.69
694.79	1092.56
695.13	1082.26
695.46	1088.82
695.80	1092.56
696.14	1089.05
696.48	1091.39
696.81	1089.29
697.15	1086.01
697.49	1082.26
697.82	1080.39
698.16	1079.92
698.50	1089.75
698.83	1090.46
699.17	1086.24
699.51	1084.60
699.84	1091.86
700.18	1084.60
700.52	1084.84
700.85	1087.41
701.19	1080.86
701.53	1068.45
701.86	1070.09
702.20	1063.77
702.54	1068.45
702.87	1074.54
703.21	1068.22
703.55	1066.82
703.88	1073.84
704.22	1068.69
704.55	1077.35
704.89	1084.60
705.23	1089.05
705.56	1086.48
705.90	1085.31
706.23	1077.58
706.57	1077.11
706.91	1079.69
707.24	1080.63
707.58	1085.54
707.91	1082.03
708.25	1077.35
708.58	1080.86
708.92	1078.05
709.26	1083.43
709.59	1081.56
709.93	1082.50
710.26	1069.62
710.60	1066.58
710.93	1057.92
711.27	1061.67
711.60	1069.62
711.94	1075.24
712.27	1067.99
712.61	1072.20
712.94	1079.46
713.28	1076.18
713.61	1079.22
713.95	1097.95
714.28	1104.97
714.62	1097.24
714.95	1099.12
715.29	1087.18
715.62	1078.99
715.96	1079.92
716.29	1086.24
716.63	1089.99
716.96	1099.82
717.29	1111.29
717.63	1112.69
717.96	1109.65
718.30	1100.99
718.63	1100.29
718.97	1083.90
719.30	1082.97
719.63	1084.60
719.97	1082.73
720.30	1066.35
720.64	1072.67
720.97	1062.14
721.30	1057.69
721.64	1062.37
721.97	1076.41
722.31	1077.35
722.64	1083.20
722.97	1087.88
723.31	1087.18
723.64	1093.03
723.97	1095.60
724.31	1095.14
724.64	1093.03
724.98	1091.39
725.31	1082.97
725.64	1088.35
725.98	1092.56
726.31	1092.80
726.64	1082.73
726.97	1081.56
727.31	1074.31
727.64	1070.56
727.97	1069.39
728.31	1080.63
728.64	1085.07
728.97	1075.01
729.31	1064.48
729.64	1061.90
729.97	1057.92
730.30	1058.86
730.64	1073.84
730.97	1083.67
731.30	1080.39
731.63	1089.75
731.97	1089.05
732.30	1085.54
732.63	1083.43
732.96	1082.73
733.30	1074.07
733.63	1062.84
733.96	1065.65
734.29	1066.58
734.63	1076.88
734.96	1075.24
735.29	1081.56
735.62	1081.33
735.95	1079.69
736.29	1078.28
736.62	1083.43
736.95	1083.90
737.28	1072.67
737.61	1077.11
737.94	1068.22
738.28	1064.01
738.61	1064.48
738.94	1071.26
739.27	1069.86
739.60	1079.22
739.93	1086.94
740.27	1086.94
740.60	1079.69
740.93	1078.75
741.26	1072.90
741.59	1076.18
741.92	1083.67
742.25	1090.92
742.58	1089.29
742.91	1097.24
743.25	1087.88
743.58	1081.56
743.91	1086.24
744.24	1081.56
744.57	1080.86
744.90	1078.75
745.23	1082.03
745.56	1074.07
745.89	1081.56
746.22	1079.92
746.55	1088.82
746.88	1085.54
747.21	1093.97
747.54	1085.54
747.87	1090.69
748.20	1080.39
748.53	1083.43
748.87	1080.86
749.20	1088.12
749.53	1080.63
749.86	1093.50
750.19	1082.73
750.52	1073.60
750.85	1074.54
751.18	1072.20
751.51	1064.01
751.84	1070.56
752.16	1079.92
752.49	1072.67
752.82	1075.24
753.15	1077.11
753.48	1078.99
753.81	1071.97
754.14	1076.88
754.47	1075.48
754.80	1080.16
755.13	1078.99
755.46	1076.65
755.79	1080.39
756.12	1089.05
756.45	1084.14
756.78	1083.67
757.11	1087.18
757.43	1083.20
757.76	1070.56
758.09	1069.62
758.42	1065.88
758.75	1063.31
759.08	1061.43
759.41	1064.48
759.74	1064.94
760.07	1068.92
760.39	1080.86
760.72	1093.73
761.05	1093.50
761.38	1095.37
761.71	1108.48
762.04	1096.31
762.36	1081.09
762.69	1091.63
763.02	1084.60
763.35	1064.01
763.68	1071.73
764.01	1075.01
764.33	1073.84
764.66	1074.31
764.99	1085.31
765.32	1083.20
765.65	1089.52
765.97	1085.31
766.30	1090.22
