SpectraSuite Data File
++++++++++++++++++++++++++++++++++++
Date: Mon Aug 26 10:25:57 PDT 2019
User: corrico
Dark Spectrum Present: No
Reference Spectrum Present: No
Number of Sampled Component Spectra: 1
Spectrometers: USB2+H06089
Integration Time (usec): 10000 (USB2+H06089)
Spectra Averaged: 2 (USB2+H06089)
Boxcar Smoothing: 2 (USB2+H06089)
Correct for Electrical Dark: No (USB2+H06089)
Strobe/Lamp Enabled: No (USB2+H06089)
Correct for Detector Non-linearity: No (USB2+H06089)
Correct for Stray Light: No (USB2+H06089)
Number of Pixels in Processed Spectrum: 2048
>>>>>Begin Processed Spectral Data<<<<<
339.70	1021.64
340.07	1021.64
340.45	995.90
340.82	980.68
341.19	958.68
341.57	936.45
341.94	919.13
342.31	905.32
342.69	893.62
343.06	887.30
343.43	881.45
343.81	887.30
344.18	881.68
344.55	884.49
344.93	890.81
345.30	910.23
345.67	924.51
346.04	945.58
346.42	961.96
346.79	969.92
347.16	970.39
347.54	970.62
347.91	978.58
348.28	988.64
348.65	1009.00
349.03	1012.28
349.40	1026.09
349.77	1035.92
350.14	1042.71
350.52	1040.60
350.89	1043.18
351.26	1043.88
351.63	1037.79
352.01	1044.11
352.38	1049.73
352.75	1061.20
353.12	1062.84
353.50	1070.33
353.87	1064.94
354.24	1069.62
354.61	1078.99
354.98	1082.03
355.36	1095.14
355.73	1099.82
356.10	1105.44
356.47	1095.37
356.84	1093.73
357.22	1082.26
357.59	1086.01
357.96	1078.75
358.33	1073.60
358.70	1081.56
359.08	1087.41
359.45	1074.77
359.82	1069.16
360.19	1076.88
360.56	1071.26
360.94	1062.60
361.31	1064.48
361.68	1070.80
362.05	1068.92
362.42	1074.31
362.79	1072.67
363.16	1071.73
363.54	1062.37
363.91	1063.07
364.28	1056.99
364.65	1058.62
365.02	1055.11
365.39	1056.52
365.76	1062.14
366.14	1055.35
366.51	1060.50
366.88	1060.26
367.25	1061.90
367.62	1053.48
367.99	1064.94
368.36	1058.16
368.73	1065.41
369.10	1070.80
369.48	1078.28
369.85	1080.63
370.22	1089.05
370.59	1088.12
370.96	1093.03
371.33	1093.97
371.70	1087.41
372.07	1085.31
372.44	1088.82
372.81	1077.82
373.18	1070.09
373.55	1070.56
373.93	1059.33
374.30	1047.39
374.67	1053.48
375.04	1061.20
375.41	1056.75
375.78	1064.94
376.15	1078.28
376.52	1077.11
376.89	1070.56
377.26	1077.58
377.63	1083.67
378.00	1086.71
378.37	1078.75
378.74	1073.60
379.11	1072.20
379.48	1064.94
379.85	1051.60
380.22	1053.48
380.59	1053.48
380.96	1051.84
381.33	1057.69
381.70	1067.05
382.07	1065.65
382.44	1069.86
382.81	1075.24
383.18	1072.67
383.55	1071.50
383.92	1086.48
384.29	1086.48
384.66	1082.73
385.03	1084.84
385.40	1086.71
385.77	1074.07
386.14	1078.52
386.51	1085.31
386.88	1084.60
387.25	1086.01
387.62	1093.73
387.99	1093.73
388.36	1092.33
388.73	1092.33
389.10	1082.73
389.46	1076.41
389.83	1079.69
390.20	1078.05
390.57	1074.54
390.94	1091.86
391.31	1081.09
391.68	1069.62
392.05	1072.90
392.42	1077.58
392.79	1065.18
393.16	1076.88
393.53	1084.14
393.89	1078.99
394.26	1087.18
394.63	1081.33
395.00	1082.97
395.37	1077.82
395.74	1060.03
396.11	1050.90
396.48	1053.94
396.84	1050.20
397.21	1048.56
397.58	1065.41
397.95	1066.58
398.32	1069.86
398.69	1083.90
399.06	1086.94
399.42	1086.71
399.79	1077.82
400.16	1079.92
400.53	1062.84
400.90	1061.20
401.27	1062.60
401.64	1070.80
402.00	1064.71
402.37	1075.94
402.74	1077.11
403.11	1082.03
403.48	1079.22
403.84	1078.05
404.21	1068.22
404.58	1076.41
404.95	1064.24
405.32	1070.33
405.68	1075.71
406.05	1086.71
406.42	1081.80
406.79	1088.35
407.16	1081.33
407.52	1073.14
407.89	1061.20
408.26	1057.22
408.63	1053.01
408.99	1045.99
409.36	1047.16
409.73	1055.82
410.10	1042.24
410.47	1039.90
410.83	1054.41
411.20	1060.73
411.57	1047.62
411.94	1060.73
412.30	1063.54
412.67	1058.39
413.04	1059.56
413.40	1073.37
413.77	1071.97
414.14	1073.37
414.51	1069.39
414.87	1072.43
415.24	1062.37
415.61	1075.71
415.97	1073.14
416.34	1078.52
416.71	1070.33
417.08	1077.82
417.44	1068.92
417.81	1067.99
418.18	1055.58
418.54	1060.96
418.91	1060.26
419.28	1060.03
419.64	1064.94
420.01	1079.46
420.38	1078.05
420.74	1080.63
421.11	1083.90
421.48	1093.26
421.84	1085.31
422.21	1086.94
422.58	1087.41
422.94	1085.54
423.31	1072.67
423.68	1068.45
424.04	1068.45
424.41	1064.01
424.77	1067.99
425.14	1071.97
425.51	1083.43
425.87	1080.16
426.24	1087.88
426.61	1081.33
426.97	1075.48
427.34	1080.16
427.70	1084.84
428.07	1081.09
428.44	1080.63
428.80	1092.09
429.17	1087.65
429.53	1085.77
429.90	1084.37
430.27	1083.90
430.63	1075.94
431.00	1083.90
431.36	1082.97
431.73	1079.69
432.09	1078.05
432.46	1078.99
432.83	1071.73
433.19	1081.33
433.56	1087.88
433.92	1092.56
434.29	1104.03
434.65	1101.69
435.02	1090.92
435.38	1084.60
435.75	1093.03
436.11	1089.52
436.48	1090.69
436.84	1090.69
437.21	1088.58
437.57	1080.63
437.94	1069.86
438.30	1067.28
438.67	1070.56
439.03	1079.69
439.40	1075.48
439.76	1083.43
440.13	1088.58
440.49	1094.20
440.86	1090.92
441.22	1095.14
441.59	1093.97
441.95	1084.37
442.32	1078.52
442.68	1075.01
443.05	1074.77
443.41	1067.75
443.78	1074.77
444.14	1056.52
444.51	1062.37
444.87	1058.39
445.24	1063.07
445.60	1063.54
445.96	1078.52
446.33	1070.56
446.69	1073.37
447.06	1073.60
447.42	1074.07
447.79	1068.45
448.15	1073.37
448.51	1077.82
448.88	1082.03
449.24	1078.05
449.61	1089.05
449.97	1093.26
450.33	1094.43
450.70	1087.18
451.06	1082.50
451.43	1080.86
451.79	1077.35
452.15	1065.65
452.52	1067.75
452.88	1066.11
453.24	1065.65
453.61	1063.54
453.97	1068.22
454.34	1062.14
454.70	1065.18
455.06	1061.43
455.43	1064.01
455.79	1063.77
456.15	1067.05
456.52	1065.18
456.88	1063.31
457.24	1053.71
457.61	1060.03
457.97	1068.22
458.33	1074.07
458.70	1069.16
459.06	1073.37
459.42	1072.67
459.79	1064.48
460.15	1061.90
460.51	1067.75
460.88	1073.37
461.24	1081.56
461.60	1075.71
461.96	1076.65
462.33	1078.75
462.69	1081.80
463.05	1075.01
463.42	1088.82
463.78	1091.39
464.14	1087.65
464.50	1076.88
464.87	1073.60
465.23	1067.28
465.59	1070.09
465.95	1076.88
466.32	1088.35
466.68	1082.97
467.04	1080.63
467.40	1084.14
467.77	1078.28
468.13	1078.05
468.49	1087.88
468.85	1089.52
469.22	1085.07
469.58	1091.16
469.94	1088.12
470.30	1088.58
470.66	1091.16
471.03	1084.60
471.39	1077.82
471.75	1075.71
472.11	1067.75
472.47	1071.03
472.84	1074.31
473.20	1083.67
473.56	1084.84
473.92	1097.01
474.28	1096.54
474.65	1089.05
475.01	1077.82
475.37	1078.05
475.73	1068.69
476.09	1056.99
476.45	1063.31
476.81	1065.88
477.18	1064.71
477.54	1058.62
477.90	1059.79
478.26	1068.69
478.62	1071.26
478.98	1075.01
479.34	1087.88
479.71	1102.63
480.07	1095.60
480.43	1089.99
480.79	1078.52
481.15	1080.86
481.51	1083.90
481.87	1082.26
482.23	1090.22
482.59	1094.67
482.96	1082.97
483.32	1066.11
483.68	1063.07
484.04	1056.52
484.40	1068.22
484.76	1071.03
485.12	1071.97
485.48	1072.67
485.84	1084.84
486.20	1075.94
486.56	1071.97
486.92	1076.41
487.28	1078.05
487.64	1075.48
488.00	1070.33
488.37	1073.84
488.73	1077.58
489.09	1081.80
489.45	1073.60
489.81	1076.41
490.17	1077.58
490.53	1080.86
490.89	1080.16
491.25	1094.20
491.61	1096.54
491.97	1089.75
492.33	1085.77
492.69	1086.48
493.05	1075.94
493.41	1071.50
493.77	1077.11
494.13	1073.60
494.49	1066.58
494.85	1064.71
495.21	1075.01
495.57	1071.97
495.93	1069.39
496.29	1070.80
496.64	1071.97
497.00	1073.84
497.36	1078.99
497.72	1079.22
498.08	1086.24
498.44	1081.33
498.80	1063.77
499.16	1063.54
499.52	1070.56
499.88	1072.43
500.24	1077.11
500.60	1090.46
500.96	1091.39
501.32	1085.07
501.68	1085.31
502.03	1089.29
502.39	1093.73
502.75	1089.99
503.11	1095.84
503.47	1084.84
503.83	1082.73
504.19	1077.58
504.55	1077.58
504.91	1071.26
505.26	1086.24
505.62	1086.48
505.98	1087.41
506.34	1077.35
506.70	1069.86
507.06	1052.54
507.42	1048.33
507.78	1055.35
508.13	1064.01
508.49	1067.52
508.85	1081.09
509.21	1078.05
509.57	1062.84
509.93	1071.73
510.28	1075.71
510.64	1072.20
511.00	1073.14
511.36	1076.88
511.72	1076.41
512.07	1071.50
512.43	1083.20
512.79	1096.07
513.15	1097.48
513.51	1089.52
513.86	1090.69
514.22	1078.99
514.58	1068.45
514.94	1068.22
515.30	1073.60
515.65	1091.16
516.01	1092.09
516.37	1096.78
516.73	1099.35
517.08	1095.14
517.44	1086.94
517.80	1082.50
518.16	1084.84
518.51	1082.26
518.87	1092.56
519.23	1096.78
519.59	1107.31
519.94	1103.80
520.30	1103.80
520.66	1104.50
521.01	1099.82
521.37	1096.78
521.73	1104.26
522.09	1099.12
522.44	1095.60
522.80	1090.69
523.16	1087.41
523.51	1087.18
523.87	1099.12
524.23	1097.24
524.58	1102.39
524.94	1109.41
525.30	1103.09
525.65	1093.03
526.01	1087.88
526.37	1089.75
526.72	1078.28
527.08	1083.90
527.44	1090.69
527.79	1093.26
528.15	1092.56
528.51	1100.75
528.86	1102.63
529.22	1112.22
529.58	1121.58
529.93	1121.58
530.29	1119.24
530.65	1115.73
531.00	1097.95
531.36	1090.46
531.71	1090.92
532.07	1096.07
532.43	1090.22
532.78	1093.97
533.14	1092.80
533.49	1093.50
533.85	1089.29
534.21	1097.71
534.56	1103.33
534.92	1107.07
535.27	1100.99
535.63	1098.41
535.98	1094.20
536.34	1091.63
536.69	1089.75
537.05	1094.90
537.41	1104.50
537.76	1103.09
538.12	1099.82
538.47	1098.41
538.83	1089.75
539.18	1076.65
539.54	1083.67
539.89	1089.05
540.25	1085.77
540.60	1096.07
540.96	1099.12
541.31	1090.69
541.67	1092.33
542.02	1099.82
542.38	1097.71
542.73	1099.58
543.09	1093.26
543.44	1086.71
543.80	1073.14
544.15	1080.16
544.51	1074.77
544.86	1089.29
545.22	1096.07
545.57	1095.84
545.93	1093.50
546.28	1095.60
546.64	1085.07
546.99	1087.18
547.35	1094.20
547.70	1090.46
548.05	1095.84
548.41	1096.07
548.76	1088.58
549.12	1087.65
549.47	1081.56
549.83	1073.84
550.18	1089.29
550.53	1090.69
550.89	1090.92
551.24	1096.07
551.60	1097.95
551.95	1093.50
552.30	1085.77
552.66	1087.88
553.01	1075.48
553.37	1074.77
553.72	1069.86
554.07	1079.92
554.43	1076.88
554.78	1084.60
555.13	1076.88
555.49	1067.28
555.84	1059.09
556.19	1059.56
556.55	1056.28
556.90	1071.73
557.26	1078.52
557.61	1086.94
557.96	1089.29
558.32	1096.31
558.67	1093.50
559.02	1089.05
559.37	1084.37
559.73	1073.37
560.08	1065.41
560.43	1065.18
560.79	1063.07
561.14	1062.14
561.49	1070.56
561.85	1072.20
562.20	1073.14
562.55	1074.31
562.90	1080.63
563.26	1089.29
563.61	1099.12
563.96	1091.86
564.32	1098.65
564.67	1086.71
565.02	1075.01
565.37	1068.92
565.73	1067.99
566.08	1058.39
566.43	1067.52
566.78	1071.97
567.14	1071.97
567.49	1065.88
567.84	1080.86
568.19	1078.05
568.54	1080.63
568.90	1086.48
569.25	1092.09
569.60	1085.77
569.95	1085.31
570.31	1091.16
570.66	1081.09
571.01	1080.86
571.36	1080.39
571.71	1081.09
572.06	1075.94
572.42	1081.80
572.77	1089.05
573.12	1090.22
573.47	1094.43
573.82	1099.58
574.18	1094.90
574.53	1089.05
574.88	1085.07
575.23	1086.48
575.58	1085.54
575.93	1092.80
576.28	1101.69
576.64	1102.63
576.99	1098.65
577.34	1093.03
577.69	1081.09
578.04	1075.24
578.39	1081.09
578.74	1075.71
579.09	1070.80
579.44	1075.94
579.80	1067.28
580.15	1060.26
580.50	1072.20
580.85	1078.05
581.20	1085.07
581.55	1094.67
581.90	1101.22
582.25	1097.01
582.60	1090.46
582.95	1085.77
583.30	1091.39
583.65	1087.65
584.00	1085.77
584.35	1093.97
584.71	1095.84
585.06	1085.77
585.41	1082.03
585.76	1076.88
586.11	1082.97
586.46	1091.86
586.81	1101.22
587.16	1111.29
587.51	1124.63
587.86	1129.31
588.21	1108.71
588.56	1100.52
588.91	1093.26
589.26	1084.37
589.61	1071.26
589.96	1077.82
590.31	1083.20
590.66	1085.07
591.01	1084.14
591.36	1084.84
591.71	1087.18
592.06	1077.35
592.41	1072.43
592.76	1080.63
593.10	1086.71
593.45	1096.78
593.80	1104.50
594.15	1103.80
594.50	1097.71
594.85	1083.67
595.20	1075.24
595.55	1073.37
595.90	1073.60
596.25	1070.33
596.60	1075.94
596.95	1080.63
597.30	1082.26
597.64	1145.22
597.99	1141.01
598.34	1142.65
598.69	1132.82
599.04	1127.67
599.39	1068.22
599.74	1076.65
600.09	1077.11
600.44	1093.97
600.78	1101.69
601.13	1101.46
601.48	1093.73
601.83	1086.24
602.18	1075.71
602.53	1071.73
602.88	1074.77
603.22	1081.56
603.57	1081.80
603.92	1082.03
604.27	1075.01
604.62	1072.67
604.97	1075.01
605.31	1086.71
605.66	1084.84
606.01	1085.07
606.36	1088.82
606.71	1082.50
607.05	1075.48
607.40	1075.94
607.75	1081.09
608.10	1076.18
608.44	1075.01
608.79	1074.07
609.14	1073.60
609.49	1075.24
609.84	1072.67
610.18	1076.18
610.53	1078.05
610.88	1087.18
611.23	1093.50
611.57	1105.20
611.92	1109.18
612.27	1101.69
612.62	1097.71
612.96	1098.18
613.31	1086.01
613.66	1087.65
614.00	1093.26
614.35	1094.90
614.70	1093.03
615.05	1098.18
615.39	1098.18
615.74	1091.16
616.09	1088.58
616.43	1081.80
616.78	1079.69
617.13	1077.58
617.47	1077.35
617.82	1074.54
618.17	1072.43
618.51	1070.56
618.86	1072.43
619.21	1080.86
619.55	1083.20
619.90	1088.35
620.25	1097.48
620.59	1096.31
620.94	1097.01
621.29	1099.58
621.63	1104.50
621.98	1093.50
622.32	1088.35
622.67	1092.56
623.02	1084.37
623.36	1083.67
623.71	1092.56
624.05	1097.01
624.40	1099.82
624.75	1096.31
625.09	1090.22
625.44	1091.86
625.78	1089.05
626.13	1085.54
626.48	1089.52
626.82	1088.58
627.17	1085.31
627.51	1089.75
627.86	1081.80
628.20	1089.52
628.55	1089.99
628.89	1093.03
629.24	1090.22
629.58	1089.75
629.93	1084.14
630.28	1088.82
630.62	1079.22
630.97	1075.01
631.31	1079.46
631.66	1082.03
632.00	1084.14
632.35	1085.77
632.69	1081.33
633.04	1086.71
633.38	1086.01
633.73	1086.01
634.07	1088.12
634.42	1105.44
634.76	1103.33
635.11	1096.31
635.45	1086.94
635.79	1083.67
636.14	1071.03
636.48	1067.99
636.83	1075.01
637.17	1070.09
637.52	1071.73
637.86	1072.67
638.21	1074.54
638.55	1066.82
638.89	1074.07
639.24	1076.65
639.58	1083.20
639.93	1083.43
640.27	1090.46
640.61	1096.78
640.96	1092.09
641.30	1088.12
641.65	1089.05
641.99	1084.37
642.33	1071.50
642.68	1079.92
643.02	1075.48
643.37	1075.01
643.71	1073.37
644.05	1084.84
644.40	1075.24
644.74	1083.20
645.08	1071.97
645.43	1081.80
645.77	1080.86
646.11	1084.37
646.46	1075.94
646.80	1080.16
647.14	1077.35
647.49	1087.88
647.83	1088.12
648.17	1086.71
648.52	1082.50
648.86	1077.82
649.20	1072.67
649.55	1075.48
649.89	1077.58
650.23	1086.24
650.57	1083.43
650.92	1070.09
651.26	1064.94
651.60	1062.37
651.95	1070.09
652.29	1083.90
652.63	1085.77
652.97	1088.58
653.32	1101.92
653.66	1085.77
654.00	1083.90
654.34	1090.46
654.69	1092.56
655.03	1080.86
655.37	1084.14
655.71	1074.31
656.05	1079.46
656.40	1074.77
656.74	1086.01
657.08	1096.31
657.42	1097.71
657.76	1093.26
658.11	1097.95
658.45	1089.52
658.79	1085.77
659.13	1087.41
659.47	1092.80
659.82	1089.75
660.16	1093.97
660.50	1095.37
660.84	1085.31
661.18	1079.92
661.52	1081.80
661.87	1069.16
662.21	1061.90
662.55	1070.80
662.89	1060.03
663.23	1064.94
663.57	1077.82
663.91	1087.65
664.25	1090.69
664.60	1096.54
664.94	1098.18
665.28	1105.90
665.62	1093.26
665.96	1096.31
666.30	1098.41
666.64	1096.31
666.98	1090.46
667.32	1100.29
667.66	1093.26
668.01	1095.84
668.35	1090.69
668.69	1091.63
669.03	1086.24
669.37	1084.60
669.71	1090.92
670.05	1091.86
670.39	1076.88
670.73	1082.73
671.07	1087.65
671.41	1089.99
671.75	1095.60
672.09	1111.05
672.43	1111.29
672.77	1112.92
673.11	1097.48
673.45	1087.65
673.79	1066.58
674.13	1061.90
674.47	1055.82
674.81	1059.56
675.15	1066.11
675.49	1079.69
675.83	1086.01
676.17	1083.43
676.51	1092.09
676.85	1099.58
677.19	1104.50
677.53	1108.01
677.87	1111.99
678.21	1105.67
678.55	1097.95
678.89	1093.73
679.23	1086.01
679.57	1087.88
679.90	1079.92
680.24	1079.46
680.58	1077.58
680.92	1070.80
681.26	1078.75
681.60	1086.48
681.94	1091.86
682.28	1089.52
682.62	1097.01
682.96	1096.78
683.29	1097.48
683.63	1093.97
683.97	1094.67
684.31	1090.69
684.65	1082.03
684.99	1068.69
685.33	1057.69
685.67	1055.11
686.00	1060.50
686.34	1062.60
686.68	1078.75
687.02	1080.63
687.36	1077.82
687.70	1078.28
688.03	1065.41
688.37	1057.92
688.71	1065.18
689.05	1079.46
689.39	1076.41
689.72	1088.82
690.06	1087.41
690.40	1084.84
690.74	1072.20
691.08	1068.69
691.41	1064.71
691.75	1064.71
692.09	1063.77
692.43	1073.84
692.76	1082.97
693.10	1090.22
693.44	1089.99
693.78	1093.26
694.11	1091.39
694.45	1091.63
694.79	1081.56
695.13	1087.41
695.46	1088.35
695.80	1086.01
696.14	1071.50
696.48	1078.28
696.81	1082.50
697.15	1085.54
697.49	1095.37
697.82	1098.65
698.16	1093.26
698.50	1086.01
698.83	1079.22
699.17	1067.99
699.51	1070.56
699.84	1072.67
700.18	1070.56
700.52	1067.05
700.85	1073.37
701.19	1073.37
701.53	1078.75
701.86	1071.50
702.20	1078.05
702.54	1060.03
702.87	1058.86
703.21	1050.67
703.55	1064.94
703.88	1071.03
704.22	1078.99
704.55	1089.52
704.89	1092.56
705.23	1093.26
705.56	1088.12
705.90	1095.84
706.23	1089.05
706.57	1089.29
706.91	1087.41
707.24	1082.26
707.58	1084.84
707.91	1080.63
708.25	1085.77
708.58	1084.60
708.92	1091.16
709.26	1086.48
709.59	1092.09
709.93	1084.60
710.26	1079.69
710.60	1076.18
710.93	1069.16
711.27	1063.07
711.60	1072.67
711.94	1077.11
712.27	1078.05
712.61	1087.88
712.94	1101.22
713.28	1104.26
713.61	1098.41
713.95	1096.78
714.28	1095.84
714.62	1080.86
714.95	1069.62
715.29	1067.99
715.62	1073.84
715.96	1069.16
716.29	1073.60
716.63	1083.20
716.96	1092.09
717.29	1088.12
717.63	1094.20
717.96	1096.31
718.30	1094.67
718.63	1079.22
718.97	1078.05
719.30	1082.97
719.63	1080.39
719.97	1067.28
720.30	1077.82
720.64	1075.24
720.97	1059.56
721.30	1057.45
721.64	1069.16
721.97	1077.82
722.31	1087.41
722.64	1101.46
722.97	1114.80
723.31	1116.90
723.64	1110.58
723.97	1104.73
724.31	1099.58
724.64	1088.58
724.98	1071.97
725.31	1063.31
725.64	1061.90
725.98	1061.67
726.31	1062.84
726.64	1080.39
726.97	1082.50
727.31	1087.65
727.64	1086.48
727.97	1089.05
728.31	1086.94
728.64	1091.86
728.97	1085.54
729.31	1082.26
729.64	1082.26
729.97	1079.22
730.30	1087.65
730.64	1092.33
730.97	1091.39
731.30	1084.60
731.63	1075.24
731.97	1067.52
732.30	1059.79
732.63	1062.37
732.96	1063.31
733.30	1065.65
733.63	1069.86
733.96	1073.14
734.29	1070.09
734.63	1069.16
734.96	1072.90
735.29	1080.86
735.62	1082.03
735.95	1092.09
736.29	1098.65
736.62	1101.92
736.95	1089.75
737.28	1088.58
737.61	1082.73
737.94	1081.80
738.28	1076.18
738.61	1076.41
738.94	1074.77
739.27	1081.33
739.60	1079.22
739.93	1083.20
740.27	1083.20
740.60	1081.80
740.93	1073.14
741.26	1080.39
741.59	1086.48
741.92	1086.48
742.25	1086.94
742.58	1089.75
742.91	1082.26
743.25	1076.18
743.58	1069.39
743.91	1071.73
744.24	1073.60
744.57	1075.24
744.90	1069.16
745.23	1073.60
745.56	1065.18
745.89	1060.73
746.22	1057.45
746.55	1062.84
746.88	1061.20
747.21	1069.16
747.54	1070.33
747.87	1065.18
748.20	1067.52
748.53	1069.39
748.87	1066.11
749.20	1068.45
749.53	1073.37
749.86	1076.88
750.19	1081.33
750.52	1081.80
750.85	1076.65
751.18	1082.26
751.51	1082.50
751.84	1080.63
752.16	1091.63
752.49	1095.84
752.82	1096.54
753.15	1088.12
753.48	1089.29
753.81	1088.12
754.14	1097.48
754.47	1088.58
754.80	1092.56
755.13	1086.94
755.46	1078.52
755.79	1066.35
756.12	1079.92
756.45	1082.03
756.78	1094.43
757.11	1092.09
757.43	1099.58
757.76	1089.75
758.09	1086.71
758.42	1075.71
758.75	1072.90
759.08	1069.16
759.41	1071.73
759.74	1078.52
760.07	1080.86
760.39	1081.33
760.72	1083.67
761.05	1084.37
761.38	1078.52
761.71	1079.22
762.04	1083.43
762.36	1082.97
762.69	1082.26
763.02	1082.03
763.35	1079.22
763.68	1077.58
764.01	1075.01
764.33	1079.69
764.66	1075.48
764.99	1072.43
765.32	1078.99
765.65	1075.24
765.97	1065.65
766.30	1066.82
