SpectraSuite Data File
++++++++++++++++++++++++++++++++++++
Date: Mon Aug 26 10:25:55 PDT 2019
User: corrico
Dark Spectrum Present: No
Reference Spectrum Present: No
Number of Sampled Component Spectra: 1
Spectrometers: USB2+H06089
Integration Time (usec): 10000 (USB2+H06089)
Spectra Averaged: 2 (USB2+H06089)
Boxcar Smoothing: 2 (USB2+H06089)
Correct for Electrical Dark: No (USB2+H06089)
Strobe/Lamp Enabled: No (USB2+H06089)
Correct for Detector Non-linearity: No (USB2+H06089)
Correct for Stray Light: No (USB2+H06089)
Number of Pixels in Processed Spectrum: 2048
>>>>>Begin Processed Spectral Data<<<<<
339.70	1009.94
340.07	1009.94
340.45	983.96
340.82	963.60
341.19	945.81
341.57	923.81
341.94	918.43
342.31	908.36
342.69	907.19
343.06	895.02
343.43	890.34
343.81	885.42
344.18	895.02
344.55	896.19
344.93	903.21
345.30	914.68
345.67	914.45
346.04	915.38
346.42	922.17
346.79	934.58
347.16	945.11
347.54	958.92
347.91	966.41
348.28	976.94
348.65	991.92
349.03	1001.75
349.40	1010.88
349.77	1027.96
350.14	1031.71
350.52	1035.22
350.89	1043.41
351.26	1058.62
351.63	1056.28
352.01	1071.03
352.38	1071.50
352.75	1064.48
353.12	1057.69
353.50	1062.60
353.87	1063.54
354.24	1070.09
354.61	1076.41
354.98	1091.39
355.36	1095.37
355.73	1100.99
356.10	1095.84
356.47	1095.14
356.84	1084.14
357.22	1078.99
357.59	1072.67
357.96	1077.11
358.33	1069.62
358.70	1067.75
359.08	1066.11
359.45	1067.75
359.82	1067.99
360.19	1078.28
360.56	1072.20
360.94	1071.03
361.31	1066.11
361.68	1064.71
362.05	1056.52
362.42	1057.92
362.79	1062.84
363.16	1062.14
363.54	1050.67
363.91	1056.75
364.28	1062.60
364.65	1071.50
365.02	1082.50
365.39	1093.73
365.76	1097.48
366.14	1094.90
366.51	1080.16
366.88	1068.22
367.25	1063.07
367.62	1052.07
367.99	1053.48
368.36	1054.65
368.73	1050.67
369.10	1048.09
369.48	1055.58
369.85	1057.45
370.22	1062.84
370.59	1065.41
370.96	1073.84
371.33	1071.73
371.70	1066.82
372.07	1059.79
372.44	1062.14
372.81	1059.56
373.18	1060.96
373.55	1065.41
373.93	1070.33
374.30	1061.90
374.67	1057.92
375.04	1056.99
375.41	1052.07
375.78	1048.79
376.15	1060.26
376.52	1071.26
376.89	1069.39
377.26	1079.46
377.63	1080.86
378.00	1087.88
378.37	1084.14
378.74	1098.41
379.11	1093.26
379.48	1089.52
379.85	1079.46
380.22	1074.07
380.59	1063.31
380.96	1064.94
381.33	1065.88
381.70	1058.39
382.07	1056.52
382.44	1052.07
382.81	1043.88
383.18	1048.56
383.55	1054.88
383.92	1044.35
384.29	1052.54
384.66	1059.09
385.03	1053.94
385.40	1060.26
385.77	1078.99
386.14	1068.92
386.51	1076.65
386.88	1082.97
387.25	1081.80
387.62	1081.09
387.99	1091.39
388.36	1078.05
388.73	1071.03
389.10	1071.97
389.46	1072.67
389.83	1073.60
390.20	1080.86
390.57	1086.48
390.94	1083.90
391.31	1068.22
391.68	1061.43
392.05	1067.99
392.42	1072.20
392.79	1064.48
393.16	1068.22
393.53	1066.58
393.89	1049.03
394.26	1047.62
394.63	1051.13
395.00	1056.05
395.37	1061.67
395.74	1061.43
396.11	1057.22
396.48	1061.20
396.84	1072.67
397.21	1068.92
397.58	1079.22
397.95	1080.39
398.32	1084.37
398.69	1078.75
399.06	1078.99
399.42	1078.05
399.79	1078.52
400.16	1075.71
400.53	1072.90
400.90	1074.07
401.27	1075.24
401.64	1078.52
402.00	1086.48
402.37	1088.35
402.74	1087.41
403.11	1087.65
403.48	1094.67
403.84	1090.92
404.21	1093.97
404.58	1089.99
404.95	1097.71
405.32	1092.80
405.68	1085.07
406.05	1087.88
406.42	1084.84
406.79	1066.58
407.16	1071.97
407.52	1078.75
407.89	1069.62
408.26	1078.28
408.63	1087.88
408.99	1077.35
409.36	1078.52
409.73	1079.46
410.10	1069.86
410.47	1074.07
410.83	1075.24
411.20	1074.31
411.57	1084.84
411.94	1094.43
412.30	1084.60
412.67	1084.37
413.04	1080.86
413.40	1071.03
413.77	1066.11
414.14	1072.20
414.51	1072.20
414.87	1063.31
415.24	1061.90
415.61	1066.11
415.97	1063.77
416.34	1067.05
416.71	1073.84
417.08	1079.92
417.44	1072.67
417.81	1077.35
418.18	1080.63
418.54	1083.90
418.91	1076.88
419.28	1082.03
419.64	1085.54
420.01	1083.43
420.38	1078.99
420.74	1078.28
421.11	1080.16
421.48	1071.26
421.84	1071.97
422.21	1073.84
422.58	1064.71
422.94	1060.96
423.31	1059.56
423.68	1057.22
424.04	1059.33
424.41	1073.84
424.77	1079.69
425.14	1080.16
425.51	1080.39
425.87	1082.97
426.24	1080.39
426.61	1076.18
426.97	1076.88
427.34	1072.43
427.70	1068.69
428.07	1076.18
428.44	1078.05
428.80	1076.41
429.17	1086.01
429.53	1076.41
429.90	1075.01
430.27	1073.14
430.63	1076.41
431.00	1058.39
431.36	1071.97
431.73	1071.50
432.09	1064.01
432.46	1072.90
432.83	1082.26
433.19	1083.20
433.56	1080.63
433.92	1093.97
434.29	1087.18
434.65	1100.29
435.02	1094.67
435.38	1094.67
435.75	1091.16
436.11	1088.12
436.48	1075.01
436.84	1077.58
437.21	1079.22
437.57	1073.37
437.94	1072.43
438.30	1069.86
438.67	1064.24
439.03	1076.41
439.40	1077.58
439.76	1086.71
440.13	1095.84
440.49	1103.56
440.86	1089.75
441.22	1091.16
441.59	1086.01
441.95	1076.88
442.32	1073.60
442.68	1082.50
443.05	1098.41
443.41	1098.88
443.78	1101.46
444.14	1096.78
444.51	1085.54
444.87	1068.22
445.24	1060.73
445.60	1061.90
445.96	1069.39
446.33	1069.16
446.69	1078.52
447.06	1081.80
447.42	1080.39
447.79	1075.48
448.15	1073.60
448.51	1075.48
448.88	1078.75
449.24	1070.09
449.61	1072.20
449.97	1074.07
450.33	1074.07
450.70	1069.86
451.06	1082.50
451.43	1095.14
451.79	1104.03
452.15	1096.54
452.52	1098.41
452.88	1093.50
453.24	1080.39
453.61	1066.82
453.97	1064.94
454.34	1064.71
454.70	1062.84
455.06	1063.07
455.43	1064.94
455.79	1075.71
456.15	1068.92
456.52	1080.16
456.88	1075.94
457.24	1076.18
457.61	1067.99
457.97	1083.67
458.33	1075.94
458.70	1086.01
459.06	1086.01
459.42	1084.84
459.79	1080.39
460.15	1085.54
460.51	1082.26
460.88	1090.46
461.24	1093.50
461.60	1100.29
461.96	1092.33
462.33	1082.26
462.69	1083.67
463.05	1082.50
463.42	1076.65
463.78	1083.90
464.14	1093.26
464.50	1085.54
464.87	1087.41
465.23	1083.67
465.59	1086.24
465.95	1083.43
466.32	1082.97
466.68	1077.58
467.04	1073.60
467.40	1056.52
467.77	1058.62
468.13	1061.67
468.49	1069.62
468.85	1081.56
469.22	1100.05
469.58	1086.24
469.94	1087.18
470.30	1072.43
470.66	1054.65
471.03	1047.16
471.39	1055.35
471.75	1058.39
472.11	1072.67
472.47	1084.14
472.84	1080.86
473.20	1092.33
473.56	1102.16
473.92	1107.07
474.28	1101.22
474.65	1094.67
475.01	1081.56
475.37	1063.31
475.73	1058.16
476.09	1062.14
476.45	1082.73
476.81	1087.65
477.18	1094.43
477.54	1096.78
477.90	1089.05
478.26	1078.52
478.62	1079.69
478.98	1076.18
479.34	1071.26
479.71	1077.82
480.07	1082.03
480.43	1084.37
480.79	1088.35
481.15	1084.37
481.51	1091.86
481.87	1078.28
482.23	1075.94
482.59	1073.60
482.96	1072.67
483.32	1077.11
483.68	1092.33
484.04	1092.33
484.40	1086.48
484.76	1083.20
485.12	1073.14
485.48	1060.96
485.84	1056.75
486.20	1060.26
486.56	1072.67
486.92	1068.45
487.28	1079.46
487.64	1084.60
488.00	1088.12
488.37	1090.46
488.73	1094.90
489.09	1092.09
489.45	1089.05
489.81	1080.86
490.17	1068.92
490.53	1070.80
490.89	1064.94
491.25	1064.94
491.61	1071.97
491.97	1077.11
492.33	1072.67
492.69	1079.92
493.05	1078.75
493.41	1087.65
493.77	1092.56
494.13	1090.69
494.49	1091.16
494.85	1098.41
495.21	1088.12
495.57	1093.26
495.93	1096.54
496.29	1089.05
496.64	1077.58
497.00	1075.01
497.36	1069.16
497.72	1074.54
498.08	1086.71
498.44	1093.26
498.80	1098.65
499.16	1090.92
499.52	1082.03
499.88	1062.14
500.24	1061.20
500.60	1054.18
500.96	1060.73
501.32	1069.62
501.68	1079.92
502.03	1081.56
502.39	1094.90
502.75	1094.43
503.11	1094.67
503.47	1091.16
503.83	1090.69
504.19	1087.88
504.55	1090.46
504.91	1089.52
505.26	1095.14
505.62	1095.60
505.98	1081.09
506.34	1072.90
506.70	1065.65
507.06	1053.48
507.42	1057.45
507.78	1074.77
508.13	1082.50
508.49	1083.90
508.85	1092.80
509.21	1091.16
509.57	1093.50
509.93	1091.63
510.28	1096.31
510.64	1095.60
511.00	1090.22
511.36	1083.43
511.72	1077.35
512.07	1076.88
512.43	1076.88
512.79	1069.86
513.15	1076.41
513.51	1074.54
513.86	1074.31
514.22	1081.09
514.58	1086.01
514.94	1076.88
515.30	1085.54
515.65	1086.71
516.01	1076.88
516.37	1073.60
516.73	1070.33
517.08	1064.01
517.44	1064.24
517.80	1070.09
518.16	1089.99
518.51	1092.09
518.87	1088.82
519.23	1083.90
519.59	1079.46
519.94	1060.26
520.30	1061.67
520.66	1068.45
521.01	1067.28
521.37	1067.05
521.73	1068.22
522.09	1076.18
522.44	1078.99
522.80	1084.84
523.16	1093.97
523.51	1104.26
523.87	1098.65
524.23	1091.63
524.58	1093.03
524.94	1085.77
525.30	1082.97
525.65	1073.37
526.01	1078.75
526.37	1075.01
526.72	1086.94
527.08	1081.09
527.44	1084.37
527.79	1082.97
528.15	1082.97
528.51	1085.31
528.86	1098.65
529.22	1097.71
529.58	1101.92
529.93	1110.82
530.29	1097.48
530.65	1096.78
531.00	1108.71
531.36	1101.92
531.71	1099.12
532.07	1106.14
532.43	1099.35
532.78	1092.56
533.14	1097.24
533.49	1094.90
533.85	1093.26
534.21	1092.33
534.56	1099.12
534.92	1097.95
535.27	1099.12
535.63	1103.56
535.98	1108.71
536.34	1102.39
536.69	1095.84
537.05	1095.37
537.41	1087.65
537.76	1089.99
538.12	1082.73
538.47	1086.24
538.83	1079.69
539.18	1074.54
539.54	1073.14
539.89	1078.28
540.25	1078.99
540.60	1079.69
540.96	1085.77
541.31	1077.11
541.67	1077.58
542.02	1076.88
542.38	1088.82
542.73	1093.03
543.09	1091.63
543.44	1090.69
543.80	1104.73
544.15	1095.37
544.51	1091.86
544.86	1097.71
545.22	1102.86
545.57	1092.80
545.93	1091.39
546.28	1096.78
546.64	1093.73
546.99	1093.50
547.35	1099.82
547.70	1100.05
548.05	1093.73
548.41	1099.82
548.76	1091.86
549.12	1080.86
549.47	1085.07
549.83	1089.05
550.18	1085.77
550.53	1097.71
550.89	1104.97
551.24	1098.18
551.60	1097.01
551.95	1087.18
552.30	1077.11
552.66	1070.33
553.01	1071.50
553.37	1059.33
553.72	1078.75
554.07	1083.43
554.43	1085.31
554.78	1084.14
555.13	1095.14
555.49	1081.80
555.84	1079.92
556.19	1079.69
556.55	1089.29
556.90	1088.35
557.26	1089.99
557.61	1087.65
557.96	1084.60
558.32	1085.31
558.67	1079.69
559.02	1084.37
559.37	1087.41
559.73	1090.22
560.08	1086.94
560.43	1089.99
560.79	1085.54
561.14	1093.73
561.49	1096.31
561.85	1090.92
562.20	1087.18
562.55	1087.41
562.90	1072.90
563.26	1078.75
563.61	1081.80
563.96	1082.26
564.32	1085.31
564.67	1089.52
565.02	1090.92
565.37	1085.54
565.73	1091.63
566.08	1091.86
566.43	1096.54
566.78	1081.80
567.14	1089.75
567.49	1090.22
567.84	1088.58
568.19	1078.99
568.54	1091.16
568.90	1085.31
569.25	1081.56
569.60	1084.84
569.95	1093.50
570.31	1082.26
570.66	1078.52
571.01	1075.94
571.36	1071.50
571.71	1069.39
572.06	1077.82
572.42	1088.12
572.77	1099.35
573.12	1103.80
573.47	1099.35
573.82	1100.99
574.18	1088.35
574.53	1077.35
574.88	1074.31
575.23	1083.67
575.58	1081.33
575.93	1082.03
576.28	1082.50
576.64	1075.48
576.99	1059.56
577.34	1060.73
577.69	1066.35
578.04	1069.62
578.39	1082.03
578.74	1096.54
579.09	1100.99
579.44	1103.80
579.80	1104.26
580.15	1095.60
580.50	1097.24
580.85	1087.65
581.20	1098.41
581.55	1102.16
581.90	1100.29
582.25	1099.82
582.60	1104.26
582.95	1092.56
583.30	1091.63
583.65	1093.73
584.00	1094.20
584.35	1088.82
584.71	1093.73
585.06	1083.90
585.41	1082.03
585.76	1069.39
586.11	1078.05
586.46	1076.88
586.81	1079.22
587.16	1081.09
587.51	1089.99
587.86	1084.84
588.21	1076.65
588.56	1080.63
588.91	1079.22
589.26	1081.33
589.61	1083.20
589.96	1091.16
590.31	1096.31
590.66	1102.63
591.01	1104.73
591.36	1103.80
591.71	1096.54
592.06	1097.71
592.41	1092.33
592.76	1082.73
593.10	1080.63
593.45	1087.88
593.80	1083.43
594.15	1082.97
594.50	1078.52
594.85	1077.82
595.20	1072.20
595.55	1082.97
595.90	1086.01
596.25	1091.86
596.60	1085.31
596.95	1086.01
597.30	1077.11
597.64	1132.12
597.99	1138.20
598.34	1141.25
598.69	1143.35
599.04	1150.37
599.39	1095.84
599.74	1093.03
600.09	1090.46
600.44	1086.71
600.78	1079.92
601.13	1073.14
601.48	1065.65
601.83	1065.18
602.18	1063.31
602.53	1059.33
602.88	1071.97
603.22	1075.48
603.57	1083.90
603.92	1090.92
604.27	1088.58
604.62	1083.43
604.97	1080.39
605.31	1080.39
605.66	1076.18
606.01	1083.20
606.36	1076.18
606.71	1075.01
607.05	1076.18
607.40	1079.46
607.75	1073.14
608.10	1086.01
608.44	1097.48
608.79	1092.56
609.14	1103.09
609.49	1100.99
609.84	1095.60
610.18	1094.90
610.53	1097.95
610.88	1091.63
611.23	1107.31
611.57	1106.84
611.92	1108.48
612.27	1110.82
612.62	1111.29
612.96	1104.03
613.31	1103.09
613.66	1099.12
614.00	1099.82
614.35	1099.12
614.70	1097.95
615.05	1097.95
615.39	1088.58
615.74	1085.77
616.09	1075.48
616.43	1074.54
616.78	1069.16
617.13	1075.71
617.47	1071.03
617.82	1070.09
618.17	1068.45
618.51	1075.24
618.86	1073.84
619.21	1071.26
619.55	1083.67
619.90	1087.65
620.25	1083.20
620.59	1090.22
620.94	1097.48
621.29	1092.09
621.63	1085.77
621.98	1094.20
622.32	1087.41
622.67	1082.03
623.02	1080.86
623.36	1089.52
623.71	1078.52
624.05	1078.05
624.40	1076.41
624.75	1072.43
625.09	1072.90
625.44	1088.58
625.78	1094.67
626.13	1103.33
626.48	1110.12
626.82	1100.29
627.17	1089.99
627.51	1091.39
627.86	1096.31
628.20	1103.80
628.55	1109.18
628.89	1104.50
629.24	1099.35
629.58	1086.24
629.93	1080.86
630.28	1089.29
630.62	1085.07
630.97	1082.73
631.31	1092.09
631.66	1085.07
632.00	1072.43
632.35	1083.20
632.69	1086.94
633.04	1078.75
633.38	1082.73
633.73	1079.69
634.07	1084.84
634.42	1089.29
634.76	1094.90
635.11	1088.58
635.45	1088.82
635.79	1075.48
636.14	1066.35
636.48	1064.94
636.83	1066.11
637.17	1074.31
637.52	1079.69
637.86	1080.63
638.21	1077.58
638.55	1077.35
638.89	1069.86
639.24	1074.07
639.58	1073.60
639.93	1075.94
640.27	1071.97
640.61	1080.86
640.96	1076.18
641.30	1069.16
641.65	1066.58
641.99	1070.33
642.33	1068.22
642.68	1070.33
643.02	1078.52
643.37	1082.73
643.71	1090.22
644.05	1084.14
644.40	1083.43
644.74	1086.94
645.08	1087.18
645.43	1076.41
645.77	1074.07
646.11	1065.88
646.46	1054.65
646.80	1052.30
647.14	1054.41
647.49	1055.58
647.83	1064.71
648.17	1076.88
648.52	1067.99
648.86	1067.99
649.20	1073.14
649.55	1068.22
649.89	1067.75
650.23	1076.41
650.57	1078.52
650.92	1074.77
651.26	1078.99
651.60	1076.65
651.95	1072.43
652.29	1074.77
652.63	1084.37
652.97	1074.77
653.32	1074.54
653.66	1078.28
654.00	1080.39
654.34	1072.43
654.69	1087.88
655.03	1084.60
655.37	1083.67
655.71	1076.18
656.05	1075.01
656.40	1070.33
656.74	1078.75
657.08	1090.69
657.42	1094.67
657.76	1089.29
658.11	1084.84
658.45	1078.99
658.79	1069.16
659.13	1061.67
659.47	1068.22
659.82	1078.05
660.16	1079.46
660.50	1079.69
660.84	1084.14
661.18	1079.22
661.52	1085.07
661.87	1085.77
662.21	1087.65
662.55	1094.43
662.89	1102.63
663.23	1090.69
663.57	1093.73
663.91	1087.18
664.25	1084.60
664.60	1081.80
664.94	1077.82
665.28	1078.52
665.62	1087.65
665.96	1078.99
666.30	1080.39
666.64	1081.56
666.98	1082.97
667.32	1083.43
667.66	1085.54
668.01	1081.80
668.35	1078.75
668.69	1071.03
669.03	1079.22
669.37	1085.54
669.71	1087.88
670.05	1088.82
670.39	1091.86
670.73	1083.43
671.07	1079.92
671.41	1083.90
671.75	1096.78
672.09	1097.48
672.43	1093.73
672.77	1102.63
673.11	1103.09
673.45	1092.33
673.79	1091.16
674.13	1087.88
674.47	1072.20
674.81	1067.28
675.15	1068.22
675.49	1052.30
675.83	1052.07
676.17	1063.07
676.51	1064.71
676.85	1061.20
677.19	1072.90
677.53	1069.62
677.87	1066.11
678.21	1063.54
678.55	1062.14
678.89	1060.50
679.23	1062.60
679.57	1060.26
679.90	1067.52
680.24	1073.14
680.58	1067.75
680.92	1074.07
681.26	1080.39
681.60	1071.26
681.94	1072.90
682.28	1088.82
682.62	1086.71
682.96	1086.24
683.29	1093.97
683.63	1093.97
683.97	1089.75
684.31	1092.56
684.65	1093.03
684.99	1097.24
685.33	1100.75
685.67	1103.33
686.00	1093.26
686.34	1097.71
686.68	1095.60
687.02	1085.77
687.36	1080.86
687.70	1095.14
688.03	1085.07
688.37	1073.60
688.71	1074.54
689.05	1078.52
689.39	1080.39
689.72	1075.71
690.06	1073.60
690.40	1087.18
690.74	1084.84
691.08	1077.11
691.41	1091.63
691.75	1107.31
692.09	1099.35
692.43	1104.73
692.76	1111.29
693.10	1106.37
693.44	1100.29
693.78	1102.39
694.11	1099.82
694.45	1098.88
694.79	1098.41
695.13	1097.01
695.46	1102.16
695.80	1101.92
696.14	1095.60
696.48	1092.33
696.81	1091.86
697.15	1088.12
697.49	1086.48
697.82	1086.01
698.16	1094.67
698.50	1089.05
698.83	1084.60
699.17	1088.35
699.51	1092.09
699.84	1083.90
700.18	1088.58
700.52	1078.99
700.85	1068.92
701.19	1056.52
701.53	1058.86
701.86	1059.56
702.20	1064.48
702.54	1071.26
702.87	1082.97
703.21	1089.05
703.55	1076.41
703.88	1069.62
704.22	1070.33
704.55	1070.09
704.89	1056.28
705.23	1069.39
705.56	1070.80
705.90	1067.52
706.23	1060.50
706.57	1055.58
706.91	1047.62
707.24	1055.82
707.58	1042.24
707.91	1052.54
708.25	1067.75
708.58	1079.46
708.92	1078.75
709.26	1097.71
709.59	1091.86
709.93	1081.80
710.26	1079.92
710.60	1080.86
710.93	1076.41
711.27	1067.99
711.60	1075.48
711.94	1084.60
712.27	1083.67
712.61	1078.52
712.94	1081.80
713.28	1078.28
713.61	1066.82
713.95	1063.31
714.28	1057.22
714.62	1059.56
714.95	1060.26
715.29	1063.77
715.62	1073.37
715.96	1087.41
716.29	1099.35
716.63	1103.80
716.96	1100.29
717.29	1101.22
717.63	1096.78
717.96	1090.22
718.30	1092.09
718.63	1087.88
718.97	1082.97
719.30	1084.84
719.63	1092.33
719.97	1086.71
720.30	1086.24
720.64	1092.80
720.97	1091.16
721.30	1072.43
721.64	1069.39
721.97	1070.33
722.31	1065.41
722.64	1067.05
722.97	1083.43
723.31	1092.56
723.64	1097.95
723.97	1086.24
724.31	1085.31
724.64	1075.24
724.98	1073.14
725.31	1065.65
725.64	1072.90
725.98	1066.82
726.31	1067.99
726.64	1061.67
726.97	1067.99
727.31	1069.16
727.64	1069.86
727.97	1069.39
728.31	1078.52
728.64	1072.90
728.97	1070.80
729.31	1083.67
729.64	1082.26
729.97	1080.86
730.30	1087.41
730.64	1088.82
730.97	1069.86
731.30	1076.41
731.63	1078.52
731.97	1081.80
732.30	1084.14
732.63	1099.35
732.96	1090.46
733.30	1082.03
733.63	1083.90
733.96	1081.80
734.29	1072.20
734.63	1072.43
734.96	1082.50
735.29	1079.69
735.62	1080.86
735.95	1082.73
736.29	1084.37
736.62	1080.86
736.95	1079.92
737.28	1076.88
737.61	1086.01
737.94	1085.31
738.28	1075.94
738.61	1077.82
738.94	1079.46
739.27	1068.45
739.60	1072.90
739.93	1081.80
740.27	1073.37
740.60	1072.90
740.93	1082.26
741.26	1087.88
741.59	1080.39
741.92	1083.20
742.25	1089.05
742.58	1094.43
742.91	1083.43
743.25	1088.12
743.58	1095.84
743.91	1097.01
744.24	1084.60
744.57	1094.67
744.90	1092.80
745.23	1089.05
745.56	1088.12
745.89	1091.86
746.22	1089.29
746.55	1093.26
746.88	1089.52
747.21	1084.14
747.54	1091.39
747.87	1082.97
748.20	1073.37
748.53	1072.67
748.87	1065.88
749.20	1046.69
749.53	1055.35
749.86	1066.58
750.19	1073.37
750.52	1081.09
750.85	1086.94
751.18	1077.82
751.51	1073.14
751.84	1071.03
752.16	1069.16
752.49	1073.84
752.82	1084.14
753.15	1083.67
753.48	1080.63
753.81	1078.99
754.14	1084.60
754.47	1081.33
754.80	1071.97
755.13	1074.31
755.46	1081.80
755.79	1082.26
756.12	1079.69
756.45	1087.65
756.78	1084.84
757.11	1077.58
757.43	1075.01
757.76	1081.09
758.09	1085.07
758.42	1082.03
758.75	1079.46
759.08	1068.22
759.41	1069.62
759.74	1075.01
760.07	1072.20
760.39	1078.99
760.72	1090.92
761.05	1082.50
761.38	1068.45
761.71	1064.48
762.04	1064.01
762.36	1062.14
762.69	1064.94
763.02	1066.11
763.35	1077.35
763.68	1072.67
764.01	1071.73
764.33	1070.09
764.66	1080.63
764.99	1092.09
765.32	1101.22
765.65	1106.61
765.97	1105.67
766.30	1100.52
