SpectraSuite Data File
++++++++++++++++++++++++++++++++++++
Date: Mon Aug 26 10:25:57 PDT 2019
User: corrico
Dark Spectrum Present: No
Reference Spectrum Present: No
Number of Sampled Component Spectra: 1
Spectrometers: USB2+H06089
Integration Time (usec): 10000 (USB2+H06089)
Spectra Averaged: 2 (USB2+H06089)
Boxcar Smoothing: 2 (USB2+H06089)
Correct for Electrical Dark: No (USB2+H06089)
Strobe/Lamp Enabled: No (USB2+H06089)
Correct for Detector Non-linearity: No (USB2+H06089)
Correct for Stray Light: No (USB2+H06089)
Number of Pixels in Processed Spectrum: 2048
>>>>>Begin Processed Spectral Data<<<<<
339.70	1046.22
340.07	1046.22
340.45	998.24
340.82	980.92
341.19	951.19
341.57	928.26
341.94	926.85
342.31	920.53
342.69	913.98
343.06	917.72
343.43	910.94
343.81	910.47
344.18	920.30
344.55	917.49
344.93	906.49
345.30	915.62
345.67	922.64
346.04	932.70
346.42	934.81
346.79	960.09
347.16	967.58
347.54	967.11
347.91	969.68
348.28	985.13
348.65	993.32
349.03	995.90
349.40	1008.54
349.77	1019.54
350.14	1031.71
350.52	1032.64
350.89	1040.13
351.26	1041.54
351.63	1046.69
352.01	1058.16
352.38	1067.75
352.75	1061.67
353.12	1070.56
353.50	1064.01
353.87	1050.20
354.24	1045.75
354.61	1060.73
354.98	1062.60
355.36	1076.88
355.73	1079.22
356.10	1081.56
356.47	1089.05
356.84	1081.33
357.22	1072.90
357.59	1075.48
357.96	1070.80
358.33	1062.37
358.70	1070.56
359.08	1075.94
359.45	1072.43
359.82	1079.46
360.19	1088.12
360.56	1081.09
360.94	1069.86
361.31	1071.26
361.68	1071.26
362.05	1064.24
362.42	1076.18
362.79	1078.99
363.16	1092.09
363.54	1087.65
363.91	1079.92
364.28	1073.84
364.65	1078.05
365.02	1065.65
365.39	1065.41
365.76	1075.94
366.14	1075.94
366.51	1068.92
366.88	1069.16
367.25	1061.43
367.62	1057.45
367.99	1041.54
368.36	1051.84
368.73	1049.26
369.10	1064.24
369.48	1066.35
369.85	1082.97
370.22	1080.16
370.59	1076.65
370.96	1078.52
371.33	1071.73
371.70	1067.05
372.07	1060.96
372.44	1058.86
372.81	1057.92
373.18	1063.77
373.55	1065.41
373.93	1069.16
374.30	1078.05
374.67	1077.11
375.04	1066.35
375.41	1065.18
375.78	1051.60
376.15	1049.03
376.52	1042.47
376.89	1047.86
377.26	1042.24
377.63	1059.56
378.00	1058.39
378.37	1063.54
378.74	1065.18
379.11	1071.03
379.48	1071.26
379.85	1069.39
380.22	1065.65
380.59	1058.62
380.96	1055.82
381.33	1053.94
381.70	1052.77
382.07	1053.01
382.44	1065.88
382.81	1076.88
383.18	1073.37
383.55	1075.71
383.92	1078.05
384.29	1074.54
384.66	1066.35
385.03	1069.39
385.40	1072.43
385.77	1066.82
386.14	1070.33
386.51	1085.77
386.88	1088.82
387.25	1074.31
387.62	1072.67
387.99	1056.52
388.36	1059.79
388.73	1053.24
389.10	1068.69
389.46	1072.20
389.83	1089.52
390.20	1067.05
390.57	1069.39
390.94	1069.86
391.31	1075.24
391.68	1071.73
392.05	1073.60
392.42	1076.18
392.79	1072.67
393.16	1075.71
393.53	1067.28
393.89	1075.24
394.26	1069.16
394.63	1078.52
395.00	1069.62
395.37	1077.11
395.74	1071.97
396.11	1076.65
396.48	1067.52
396.84	1071.73
397.21	1072.43
397.58	1072.20
397.95	1064.24
398.32	1061.90
398.69	1062.37
399.06	1069.39
399.42	1073.60
399.79	1079.69
400.16	1084.84
400.53	1072.43
400.90	1059.56
401.27	1056.28
401.64	1050.20
402.00	1048.33
402.37	1061.43
402.74	1065.88
403.11	1064.01
403.48	1075.71
403.84	1080.16
404.21	1084.37
404.58	1079.92
404.95	1077.82
405.32	1068.92
405.68	1066.58
406.05	1065.41
406.42	1070.56
406.79	1075.94
407.16	1082.50
407.52	1081.56
407.89	1071.73
408.26	1065.41
408.63	1065.88
408.99	1066.58
409.36	1067.52
409.73	1067.75
410.10	1075.01
410.47	1086.71
410.83	1078.75
411.20	1077.58
411.57	1078.52
411.94	1080.16
412.30	1069.39
412.67	1058.86
413.04	1069.39
413.40	1074.07
413.77	1077.58
414.14	1069.62
414.51	1088.58
414.87	1083.67
415.24	1084.60
415.61	1079.22
415.97	1082.26
416.34	1072.20
416.71	1071.03
417.08	1071.03
417.44	1068.69
417.81	1072.67
418.18	1072.43
418.54	1069.16
418.91	1064.71
419.28	1063.07
419.64	1054.41
420.01	1056.28
420.38	1065.88
420.74	1064.48
421.11	1071.03
421.48	1075.94
421.84	1081.56
422.21	1067.28
422.58	1066.35
422.94	1072.67
423.31	1074.31
423.68	1075.94
424.04	1088.35
424.41	1087.65
424.77	1078.05
425.14	1076.65
425.51	1091.86
425.87	1085.07
426.24	1089.05
426.61	1086.48
426.97	1090.46
427.34	1069.16
427.70	1068.45
428.07	1067.99
428.44	1065.41
428.80	1063.07
429.17	1073.84
429.53	1085.77
429.90	1080.39
430.27	1081.56
430.63	1078.99
431.00	1071.26
431.36	1065.18
431.73	1067.52
432.09	1074.77
432.46	1080.63
432.83	1088.58
433.19	1084.60
433.56	1103.09
433.92	1094.90
434.29	1095.37
434.65	1098.88
435.02	1104.73
435.38	1096.54
435.75	1093.03
436.11	1082.97
436.48	1079.22
436.84	1076.18
437.21	1073.84
437.57	1089.05
437.94	1097.95
438.30	1086.94
438.67	1082.73
439.03	1078.05
439.40	1067.75
439.76	1065.41
440.13	1073.84
440.49	1076.18
440.86	1078.28
441.22	1074.07
441.59	1070.09
441.95	1067.75
442.32	1066.58
442.68	1067.28
443.05	1078.75
443.41	1074.31
443.78	1075.48
444.14	1093.73
444.51	1091.39
444.87	1078.05
445.24	1091.39
445.60	1084.84
445.96	1060.50
446.33	1060.73
446.69	1077.58
447.06	1081.09
447.42	1077.35
447.79	1080.16
448.15	1086.48
448.51	1089.29
448.88	1078.28
449.24	1083.43
449.61	1080.39
449.97	1078.28
450.33	1063.07
450.70	1064.48
451.06	1074.54
451.43	1077.58
451.79	1069.62
452.15	1075.48
452.52	1075.24
452.88	1074.77
453.24	1077.35
453.61	1084.14
453.97	1082.03
454.34	1091.16
454.70	1089.29
455.06	1094.90
455.43	1092.56
455.79	1095.84
456.15	1087.18
456.52	1084.84
456.88	1082.26
457.24	1080.16
457.61	1076.88
457.97	1067.52
458.33	1059.09
458.70	1063.07
459.06	1067.05
459.42	1075.24
459.79	1096.54
460.15	1105.44
460.51	1093.26
460.88	1093.26
461.24	1093.26
461.60	1076.88
461.96	1072.43
462.33	1069.62
462.69	1055.58
463.05	1043.88
463.42	1052.77
463.78	1059.56
464.14	1068.45
464.50	1086.24
464.87	1093.26
465.23	1093.26
465.59	1089.99
465.95	1096.31
466.32	1097.48
466.68	1098.88
467.04	1090.92
467.40	1093.03
467.77	1086.01
468.13	1079.22
468.49	1072.43
468.85	1067.75
469.22	1059.56
469.58	1053.01
469.94	1046.22
470.30	1054.88
470.66	1066.58
471.03	1072.20
471.39	1079.46
471.75	1084.14
472.11	1083.90
472.47	1084.37
472.84	1074.07
473.20	1078.75
473.56	1085.31
473.92	1078.28
474.28	1076.18
474.65	1078.05
475.01	1077.11
475.37	1078.52
475.73	1085.77
476.09	1084.84
476.45	1097.01
476.81	1100.99
477.18	1098.65
477.54	1100.05
477.90	1089.52
478.26	1096.31
478.62	1086.94
478.98	1087.41
479.34	1083.43
479.71	1096.31
480.07	1094.90
480.43	1090.22
480.79	1090.69
481.15	1096.78
481.51	1092.33
481.87	1081.56
482.23	1078.05
482.59	1073.60
482.96	1065.65
483.32	1066.35
483.68	1065.88
484.04	1081.80
484.40	1087.65
484.76	1089.52
485.12	1092.09
485.48	1097.24
485.84	1089.05
486.20	1076.41
486.56	1075.71
486.92	1076.65
487.28	1067.75
487.64	1068.22
488.00	1071.26
488.37	1063.31
488.73	1056.52
489.09	1064.01
489.45	1072.90
489.81	1074.54
490.17	1072.43
490.53	1071.73
490.89	1075.01
491.25	1063.54
491.61	1068.45
491.97	1076.65
492.33	1086.48
492.69	1090.92
493.05	1096.78
493.41	1098.65
493.77	1096.07
494.13	1089.99
494.49	1078.28
494.85	1080.86
495.21	1077.58
495.57	1080.39
495.93	1083.43
496.29	1082.50
496.64	1071.73
497.00	1072.67
497.36	1071.97
497.72	1079.69
498.08	1084.37
498.44	1082.50
498.80	1076.65
499.16	1066.82
499.52	1050.90
499.88	1057.92
500.24	1067.28
500.60	1082.26
500.96	1096.07
501.32	1104.50
501.68	1096.07
502.03	1089.05
502.39	1075.94
502.75	1068.69
503.11	1067.52
503.47	1064.24
503.83	1068.69
504.19	1066.35
504.55	1073.84
504.91	1082.26
505.26	1082.26
505.62	1086.48
505.98	1093.73
506.34	1089.99
506.70	1076.65
507.06	1087.65
507.42	1084.14
507.78	1086.24
508.13	1097.24
508.49	1101.69
508.85	1095.14
509.21	1095.14
509.57	1091.86
509.93	1077.11
510.28	1075.01
510.64	1078.52
511.00	1081.09
511.36	1077.58
511.72	1085.31
512.07	1085.31
512.43	1082.50
512.79	1082.50
513.15	1096.31
513.51	1084.37
513.86	1093.50
514.22	1095.37
514.58	1087.41
514.94	1074.07
515.30	1075.94
515.65	1068.22
516.01	1062.14
516.37	1065.41
516.73	1061.43
517.08	1068.69
517.44	1068.22
517.80	1075.48
518.16	1082.03
518.51	1082.03
518.87	1090.22
519.23	1097.71
519.59	1093.73
519.94	1089.75
520.30	1097.01
520.66	1079.46
521.01	1077.82
521.37	1082.97
521.73	1092.09
522.09	1095.37
522.44	1117.37
522.80	1116.90
523.16	1108.71
523.51	1113.63
523.87	1117.14
524.23	1112.46
524.58	1115.03
524.94	1123.46
525.30	1115.03
525.65	1107.31
526.01	1098.41
526.37	1101.69
526.72	1098.65
527.08	1093.26
527.44	1097.01
527.79	1108.01
528.15	1106.37
528.51	1108.48
528.86	1114.09
529.22	1110.12
529.58	1091.63
529.93	1089.99
530.29	1077.35
530.65	1074.77
531.00	1073.84
531.36	1077.82
531.71	1077.35
532.07	1085.54
532.43	1085.77
532.78	1081.09
533.14	1082.73
533.49	1082.50
533.85	1084.14
534.21	1077.82
534.56	1089.29
534.92	1092.80
535.27	1099.82
535.63	1109.65
535.98	1113.63
536.34	1118.07
536.69	1122.75
537.05	1112.22
537.41	1102.63
537.76	1095.14
538.12	1088.12
538.47	1081.80
538.83	1085.54
539.18	1082.73
539.54	1090.92
539.89	1082.03
540.25	1083.90
540.60	1077.11
540.96	1087.18
541.31	1088.12
541.67	1102.63
542.02	1095.37
542.38	1100.52
542.73	1082.03
543.09	1082.03
543.44	1076.88
543.80	1083.90
544.15	1075.48
544.51	1071.26
544.86	1071.26
545.22	1067.99
545.57	1058.86
545.93	1052.77
546.28	1058.39
546.64	1057.22
546.99	1057.22
547.35	1069.39
547.70	1083.43
548.05	1093.03
548.41	1095.37
548.76	1090.46
549.12	1077.58
549.47	1071.50
549.83	1068.45
550.18	1069.16
550.53	1075.48
550.89	1078.99
551.24	1095.60
551.60	1101.46
551.95	1103.80
552.30	1107.54
552.66	1108.24
553.01	1092.56
553.37	1090.46
553.72	1085.31
554.07	1078.28
554.43	1088.12
554.78	1090.92
555.13	1089.05
555.49	1092.09
555.84	1099.58
556.19	1089.75
556.55	1086.71
556.90	1081.09
557.26	1075.48
557.61	1071.26
557.96	1075.24
558.32	1074.77
558.67	1078.52
559.02	1083.20
559.37	1077.82
559.73	1079.69
560.08	1086.71
560.43	1077.11
560.79	1078.05
561.14	1091.39
561.49	1092.56
561.85	1091.39
562.20	1094.67
562.55	1087.41
562.90	1079.46
563.26	1077.35
563.61	1068.45
563.96	1081.09
564.32	1078.75
564.67	1077.11
565.02	1071.73
565.37	1076.18
565.73	1078.05
566.08	1083.20
566.43	1079.46
566.78	1083.20
567.14	1077.58
567.49	1071.50
567.84	1066.11
568.19	1066.11
568.54	1066.82
568.90	1079.46
569.25	1084.84
569.60	1083.67
569.95	1083.20
570.31	1080.39
570.66	1076.18
571.01	1075.01
571.36	1086.48
571.71	1085.07
572.06	1091.39
572.42	1099.12
572.77	1100.29
573.12	1094.90
573.47	1101.46
573.82	1088.58
574.18	1090.22
574.53	1084.14
574.88	1095.14
575.23	1097.48
575.58	1107.78
575.93	1099.58
576.28	1100.05
576.64	1087.88
576.99	1082.97
577.34	1081.09
577.69	1077.58
578.04	1070.33
578.39	1071.50
578.74	1070.80
579.09	1077.58
579.44	1082.03
579.80	1080.63
580.15	1083.20
580.50	1079.22
580.85	1065.41
581.20	1058.86
581.55	1075.48
581.90	1069.16
582.25	1078.75
582.60	1088.12
582.95	1084.60
583.30	1078.05
583.65	1089.75
584.00	1093.73
584.35	1089.05
584.71	1096.78
585.06	1098.18
585.41	1089.05
585.76	1081.09
586.11	1088.82
586.46	1074.31
586.81	1066.35
587.16	1063.07
587.51	1060.73
587.86	1060.26
588.21	1075.71
588.56	1072.90
588.91	1073.37
589.26	1075.01
589.61	1075.01
589.96	1076.65
590.31	1079.92
590.66	1080.39
591.01	1078.28
591.36	1075.24
591.71	1075.94
592.06	1073.84
592.41	1079.69
592.76	1081.33
593.10	1076.41
593.45	1076.41
593.80	1087.41
594.15	1084.60
594.50	1085.07
594.85	1089.75
595.20	1089.75
595.55	1073.14
595.90	1078.05
596.25	1077.82
596.60	1077.82
596.95	1075.94
597.30	1082.26
597.64	1134.46
597.99	1145.22
598.34	1152.25
598.69	1151.08
599.04	1165.12
599.39	1105.90
599.74	1100.52
600.09	1096.78
600.44	1093.03
600.78	1083.90
601.13	1082.97
601.48	1072.43
601.83	1065.88
602.18	1066.58
602.53	1067.75
602.88	1078.99
603.22	1086.01
603.57	1092.80
603.92	1089.29
604.27	1078.52
604.62	1064.01
604.97	1061.90
605.31	1055.82
605.66	1064.24
606.01	1074.31
606.36	1083.20
606.71	1086.01
607.05	1084.60
607.40	1079.92
607.75	1084.60
608.10	1089.29
608.44	1093.26
608.79	1100.29
609.14	1104.73
609.49	1115.97
609.84	1116.67
610.18	1116.90
610.53	1113.16
610.88	1109.88
611.23	1094.90
611.57	1097.48
611.92	1098.41
612.27	1099.12
612.62	1105.20
612.96	1098.88
613.31	1091.63
613.66	1084.37
614.00	1081.09
614.35	1075.94
614.70	1079.69
615.05	1079.22
615.39	1081.56
615.74	1084.60
616.09	1084.60
616.43	1086.48
616.78	1083.90
617.13	1076.18
617.47	1073.84
617.82	1070.80
618.17	1060.73
618.51	1062.60
618.86	1074.31
619.21	1081.80
619.55	1080.16
619.90	1088.35
620.25	1085.07
620.59	1077.35
620.94	1073.14
621.29	1076.88
621.63	1075.71
621.98	1076.88
622.32	1080.86
622.67	1074.54
623.02	1077.58
623.36	1075.71
623.71	1076.18
624.05	1073.60
624.40	1080.16
624.75	1071.03
625.09	1066.58
625.44	1064.48
625.78	1071.03
626.13	1075.01
626.48	1089.99
626.82	1101.92
627.17	1101.46
627.51	1100.99
627.86	1103.09
628.20	1091.63
628.55	1089.52
628.89	1092.80
629.24	1090.92
629.58	1084.14
629.93	1087.18
630.28	1081.56
630.62	1074.77
630.97	1073.84
631.31	1073.14
631.66	1081.56
632.00	1092.09
632.35	1096.31
632.69	1097.24
633.04	1103.09
633.38	1090.92
633.73	1086.01
634.07	1083.43
634.42	1087.18
634.76	1081.33
635.11	1085.54
635.45	1072.67
635.79	1086.48
636.14	1085.31
636.48	1081.33
636.83	1091.63
637.17	1097.48
637.52	1099.35
637.86	1084.84
638.21	1090.92
638.55	1083.20
638.89	1087.88
639.24	1074.07
639.58	1077.35
639.93	1069.39
640.27	1063.31
640.61	1062.37
640.96	1055.82
641.30	1054.88
641.65	1063.77
641.99	1064.71
642.33	1056.52
642.68	1066.58
643.02	1071.03
643.37	1064.94
643.71	1058.16
644.05	1069.39
644.40	1067.28
644.74	1071.50
645.08	1082.26
645.43	1097.48
645.77	1097.71
646.11	1097.24
646.46	1098.18
646.80	1091.63
647.14	1090.22
647.49	1089.52
647.83	1081.80
648.17	1086.94
648.52	1084.60
648.86	1086.01
649.20	1092.09
649.55	1098.65
649.89	1084.14
650.23	1075.24
650.57	1070.56
650.92	1061.43
651.26	1064.94
651.60	1066.11
651.95	1077.11
652.29	1078.28
652.63	1084.14
652.97	1083.90
653.32	1081.09
653.66	1074.07
654.00	1081.09
654.34	1075.48
654.69	1070.33
655.03	1084.84
655.37	1086.71
655.71	1068.45
656.05	1065.88
656.40	1077.82
656.74	1066.35
657.08	1082.03
657.42	1088.82
657.76	1097.95
658.11	1085.31
658.45	1081.80
658.79	1066.58
659.13	1062.84
659.47	1059.33
659.82	1065.65
660.16	1065.41
660.50	1069.62
660.84	1076.18
661.18	1070.09
661.52	1071.97
661.87	1080.16
662.21	1081.56
662.55	1076.18
662.89	1076.65
663.23	1072.90
663.57	1077.35
663.91	1078.52
664.25	1087.18
664.60	1095.84
664.94	1094.90
665.28	1096.07
665.62	1093.26
665.96	1089.99
666.30	1077.58
666.64	1075.24
666.98	1071.50
667.32	1069.86
667.66	1074.54
668.01	1075.48
668.35	1077.11
668.69	1076.41
669.03	1080.86
669.37	1081.56
669.71	1080.86
670.05	1085.31
670.39	1081.80
670.73	1078.05
671.07	1075.24
671.41	1080.16
671.75	1082.97
672.09	1092.33
672.43	1089.99
672.77	1089.99
673.11	1090.69
673.45	1087.18
673.79	1082.73
674.13	1077.11
674.47	1071.03
674.81	1070.56
675.15	1080.63
675.49	1078.28
675.83	1085.54
676.17	1090.22
676.51	1094.67
676.85	1087.18
677.19	1080.63
677.53	1081.80
677.87	1074.31
678.21	1079.69
678.55	1075.94
678.89	1080.39
679.23	1079.22
679.57	1079.92
679.90	1075.24
680.24	1078.28
680.58	1076.88
680.92	1075.94
681.26	1078.75
681.60	1082.26
681.94	1087.88
682.28	1092.09
682.62	1101.92
682.96	1114.56
683.29	1110.12
683.63	1099.82
683.97	1093.26
684.31	1085.77
684.65	1081.33
684.99	1082.97
685.33	1080.63
685.67	1093.03
686.00	1096.78
686.34	1094.90
686.68	1091.39
687.02	1092.33
687.36	1087.41
687.70	1075.48
688.03	1069.86
688.37	1061.90
688.71	1067.75
689.05	1066.58
689.39	1071.97
689.72	1083.67
690.06	1094.90
690.40	1095.60
690.74	1097.48
691.08	1095.37
691.41	1082.26
691.75	1085.54
692.09	1087.65
692.43	1088.58
692.76	1098.88
693.10	1098.41
693.44	1100.29
693.78	1104.03
694.11	1097.01
694.45	1089.75
694.79	1089.52
695.13	1069.39
695.46	1060.26
695.80	1055.82
696.14	1059.09
696.48	1058.86
696.81	1070.09
697.15	1075.01
697.49	1088.12
697.82	1096.54
698.16	1103.80
698.50	1102.16
698.83	1093.03
699.17	1088.58
699.51	1079.22
699.84	1066.58
700.18	1070.33
700.52	1067.75
700.85	1062.60
701.19	1059.79
701.53	1063.31
701.86	1055.58
702.20	1056.05
702.54	1061.67
702.87	1067.52
703.21	1068.22
703.55	1080.63
703.88	1087.88
704.22	1078.05
704.55	1075.01
704.89	1080.16
705.23	1067.28
705.56	1061.67
705.90	1059.33
706.23	1061.67
706.57	1061.43
706.91	1068.45
707.24	1079.46
707.58	1096.54
707.91	1098.41
708.25	1105.20
708.58	1097.71
708.92	1095.14
709.26	1094.43
709.59	1096.54
709.93	1084.60
710.26	1088.12
710.60	1079.22
710.93	1073.84
711.27	1066.11
711.60	1071.97
711.94	1071.26
712.27	1074.54
712.61	1079.69
712.94	1084.37
713.28	1086.24
713.61	1093.73
713.95	1098.65
714.28	1086.24
714.62	1074.07
714.95	1067.05
715.29	1056.75
715.62	1046.22
715.96	1051.13
716.29	1065.88
716.63	1063.77
716.96	1066.58
717.29	1069.62
717.63	1061.43
717.96	1045.05
718.30	1049.03
718.63	1051.37
718.97	1050.67
719.30	1060.26
719.63	1073.84
719.97	1080.86
720.30	1078.28
720.64	1079.46
720.97	1072.90
721.30	1077.58
721.64	1067.05
721.97	1069.39
722.31	1072.67
722.64	1076.41
722.97	1067.28
723.31	1069.62
723.64	1074.07
723.97	1082.03
724.31	1084.60
724.64	1093.73
724.98	1096.54
725.31	1083.43
725.64	1078.05
725.98	1081.33
726.31	1074.07
726.64	1073.60
726.97	1080.86
727.31	1082.73
727.64	1080.16
727.97	1071.97
728.31	1073.60
728.64	1071.26
728.97	1053.01
729.31	1042.24
729.64	1041.77
729.97	1038.50
730.30	1044.11
730.64	1062.37
730.97	1067.99
731.30	1070.33
731.63	1071.50
731.97	1073.37
732.30	1065.88
732.63	1075.24
732.96	1079.69
733.30	1086.24
733.63	1090.46
733.96	1099.58
734.29	1095.84
734.63	1090.92
734.96	1085.54
735.29	1085.07
735.62	1073.60
735.95	1072.43
736.29	1079.69
736.62	1078.28
736.95	1074.07
737.28	1075.94
737.61	1083.43
737.94	1085.31
738.28	1086.48
738.61	1089.75
738.94	1101.22
739.27	1101.46
739.60	1102.63
739.93	1101.69
740.27	1094.43
740.60	1082.97
740.93	1071.50
741.26	1068.92
741.59	1078.28
741.92	1084.84
742.25	1097.95
742.58	1111.29
742.91	1115.27
743.25	1100.75
743.58	1097.71
743.91	1081.56
744.24	1072.43
744.57	1062.84
744.90	1065.88
745.23	1067.05
745.56	1085.31
745.89	1083.20
746.22	1086.01
746.55	1092.33
746.88	1094.67
747.21	1090.46
747.54	1089.75
747.87	1093.73
748.20	1093.73
748.53	1085.54
748.87	1078.75
749.20	1081.33
749.53	1077.35
749.86	1071.73
750.19	1081.80
750.52	1071.26
750.85	1075.24
751.18	1069.86
751.51	1073.14
751.84	1074.07
752.16	1093.03
752.49	1092.09
752.82	1100.75
753.15	1089.99
753.48	1091.86
753.81	1079.92
754.14	1075.24
754.47	1071.97
754.80	1077.58
755.13	1070.80
755.46	1078.99
755.79	1075.24
756.12	1067.99
756.45	1066.58
756.78	1069.62
757.11	1067.75
757.43	1083.43
757.76	1087.18
758.09	1097.48
758.42	1080.16
758.75	1066.82
759.08	1057.22
759.41	1062.60
759.74	1054.65
760.07	1058.86
760.39	1066.82
760.72	1053.94
761.05	1048.33
761.38	1051.13
761.71	1055.82
762.04	1058.62
762.36	1069.86
762.69	1077.35
763.02	1069.86
763.35	1080.86
763.68	1083.67
764.01	1080.63
764.33	1086.01
764.66	1103.33
764.99	1098.65
765.32	1095.60
765.65	1092.33
765.97	1072.67
766.30	1061.90
