SpectraSuite Data File
++++++++++++++++++++++++++++++++++++
Date: Mon Aug 26 10:25:55 PDT 2019
User: corrico
Dark Spectrum Present: No
Reference Spectrum Present: No
Number of Sampled Component Spectra: 1
Spectrometers: USB2+H06089
Integration Time (usec): 10000 (USB2+H06089)
Spectra Averaged: 2 (USB2+H06089)
Boxcar Smoothing: 2 (USB2+H06089)
Correct for Electrical Dark: No (USB2+H06089)
Strobe/Lamp Enabled: No (USB2+H06089)
Correct for Detector Non-linearity: No (USB2+H06089)
Correct for Stray Light: No (USB2+H06089)
Number of Pixels in Processed Spectrum: 2048
>>>>>Begin Processed Spectral Data<<<<<
339.70	1033.35
340.07	1033.35
340.45	1005.49
340.82	985.37
341.19	964.53
341.57	934.81
341.94	923.58
342.31	905.09
342.69	896.89
343.06	892.68
343.43	888.70
343.81	887.06
344.18	893.62
344.55	899.23
344.93	905.32
345.30	926.62
345.67	940.90
346.04	945.58
346.42	952.60
346.79	955.64
347.16	957.05
347.54	978.34
347.91	983.26
348.28	985.37
348.65	992.86
349.03	1001.75
349.40	999.64
349.77	1013.92
350.14	1022.58
350.52	1042.71
350.89	1051.13
351.26	1051.60
351.63	1052.54
352.01	1065.88
352.38	1056.05
352.75	1066.82
353.12	1073.84
353.50	1081.56
353.87	1080.16
354.24	1074.77
354.61	1057.92
354.98	1061.90
355.36	1053.94
355.73	1053.71
356.10	1074.07
356.47	1085.54
356.84	1080.86
357.22	1079.69
357.59	1076.41
357.96	1066.35
358.33	1069.86
358.70	1068.45
359.08	1072.67
359.45	1075.94
359.82	1075.24
360.19	1072.43
360.56	1077.58
360.94	1088.12
361.31	1086.71
361.68	1088.35
362.05	1080.39
362.42	1083.43
362.79	1072.20
363.16	1079.92
363.54	1076.88
363.91	1074.77
364.28	1059.33
364.65	1064.24
365.02	1063.31
365.39	1067.05
365.76	1069.62
366.14	1079.22
366.51	1071.73
366.88	1069.62
367.25	1073.37
367.62	1073.60
367.99	1078.28
368.36	1074.07
368.73	1071.97
369.10	1065.18
369.48	1066.35
369.85	1051.84
370.22	1057.22
370.59	1055.82
370.96	1064.94
371.33	1061.20
371.70	1070.33
372.07	1062.84
372.44	1057.69
372.81	1042.47
373.18	1051.60
373.55	1054.88
373.93	1071.97
374.30	1078.05
374.67	1082.97
375.04	1084.84
375.41	1080.86
375.78	1076.65
376.15	1069.16
376.52	1073.60
376.89	1070.80
377.26	1065.18
377.63	1052.07
378.00	1056.99
378.37	1053.01
378.74	1048.56
379.11	1058.62
379.48	1076.41
379.85	1077.11
380.22	1081.80
380.59	1091.16
380.96	1091.39
381.33	1090.69
381.70	1094.43
382.07	1089.75
382.44	1085.77
382.81	1081.09
383.18	1073.14
383.55	1076.65
383.92	1081.56
384.29	1085.07
384.66	1086.01
385.03	1091.86
385.40	1083.43
385.77	1075.71
386.14	1068.45
386.51	1075.24
386.88	1061.90
387.25	1061.20
387.62	1060.96
387.99	1058.39
388.36	1052.30
388.73	1063.31
389.10	1066.11
389.46	1078.28
389.83	1084.37
390.20	1083.67
390.57	1075.94
390.94	1082.26
391.31	1079.22
391.68	1072.90
392.05	1075.48
392.42	1078.52
392.79	1069.62
393.16	1061.67
393.53	1064.94
393.89	1069.16
394.26	1077.82
394.63	1087.18
395.00	1087.41
395.37	1081.80
395.74	1078.28
396.11	1075.01
396.48	1067.52
396.84	1087.18
397.21	1089.99
397.58	1091.86
397.95	1087.41
398.32	1087.88
398.69	1076.41
399.06	1081.80
399.42	1077.11
399.79	1077.82
400.16	1081.33
400.53	1072.43
400.90	1068.92
401.27	1062.60
401.64	1063.54
402.00	1054.18
402.37	1051.84
402.74	1045.75
403.11	1049.26
403.48	1047.16
403.84	1049.73
404.21	1051.37
404.58	1056.52
404.95	1059.56
405.32	1067.75
405.68	1068.69
406.05	1081.09
406.42	1079.46
406.79	1085.77
407.16	1082.26
407.52	1082.97
407.89	1080.39
408.26	1081.80
408.63	1073.60
408.99	1064.71
409.36	1066.11
409.73	1063.54
410.10	1068.45
410.47	1076.41
410.83	1079.46
411.20	1086.48
411.57	1084.37
411.94	1074.54
412.30	1067.52
412.67	1069.39
413.04	1069.86
413.40	1072.90
413.77	1068.92
414.14	1071.73
414.51	1072.67
414.87	1069.62
415.24	1056.28
415.61	1062.14
415.97	1055.58
416.34	1045.05
416.71	1045.75
417.08	1064.01
417.44	1074.31
417.81	1083.67
418.18	1098.18
418.54	1091.16
418.91	1083.67
419.28	1075.71
419.64	1078.52
420.01	1070.33
420.38	1076.65
420.74	1073.84
421.11	1078.52
421.48	1072.20
421.84	1081.56
422.21	1075.94
422.58	1078.28
422.94	1083.67
423.31	1082.03
423.68	1081.56
424.04	1089.99
424.41	1092.33
424.77	1083.20
425.14	1081.56
425.51	1080.39
425.87	1078.99
426.24	1082.73
426.61	1081.33
426.97	1078.99
427.34	1071.26
427.70	1066.82
428.07	1062.14
428.44	1066.35
428.80	1078.28
429.17	1084.84
429.53	1086.71
429.90	1085.77
430.27	1086.24
430.63	1081.09
431.00	1074.07
431.36	1064.01
431.73	1073.84
432.09	1078.28
432.46	1075.48
432.83	1080.16
433.19	1083.90
433.56	1079.22
433.92	1060.73
434.29	1063.07
434.65	1060.73
435.02	1074.54
435.38	1074.31
435.75	1083.67
436.11	1079.69
436.48	1083.67
436.84	1068.22
437.21	1059.33
437.57	1065.65
437.94	1073.37
438.30	1078.99
438.67	1085.77
439.03	1100.05
439.40	1097.71
439.76	1091.39
440.13	1079.22
440.49	1080.86
440.86	1078.75
441.22	1076.41
441.59	1078.99
441.95	1085.54
442.32	1078.99
442.68	1073.84
443.05	1074.77
443.41	1077.11
443.78	1069.62
444.14	1080.86
444.51	1075.71
444.87	1077.58
445.24	1081.09
445.60	1084.14
445.96	1080.39
446.33	1090.69
446.69	1100.75
447.06	1089.52
447.42	1089.99
447.79	1085.07
448.15	1072.67
448.51	1056.52
448.88	1053.24
449.24	1067.28
449.61	1060.26
449.97	1064.48
450.33	1061.90
450.70	1077.58
451.06	1074.31
451.43	1078.52
451.79	1081.33
452.15	1076.41
452.52	1061.90
452.88	1051.13
453.24	1056.99
453.61	1059.79
453.97	1082.73
454.34	1077.82
454.70	1078.99
455.06	1075.48
455.43	1069.62
455.79	1061.43
456.15	1064.24
456.52	1061.43
456.88	1067.99
457.24	1076.41
457.61	1079.92
457.97	1081.56
458.33	1082.50
458.70	1078.52
459.06	1071.73
459.42	1067.28
459.79	1071.50
460.15	1076.88
460.51	1086.94
460.88	1088.58
461.24	1088.82
461.60	1083.20
461.96	1077.11
462.33	1070.09
462.69	1072.67
463.05	1070.80
463.42	1072.20
463.78	1070.80
464.14	1065.65
464.50	1063.77
464.87	1063.31
465.23	1064.48
465.59	1080.63
465.95	1083.43
466.32	1081.09
466.68	1072.67
467.04	1086.01
467.40	1080.86
467.77	1075.94
468.13	1084.14
468.49	1094.90
468.85	1081.33
469.22	1074.54
469.58	1087.65
469.94	1073.37
470.30	1077.11
470.66	1084.37
471.03	1088.12
471.39	1079.92
471.75	1094.43
472.11	1087.88
472.47	1082.26
472.84	1083.20
473.20	1085.54
473.56	1078.99
473.92	1076.88
474.28	1076.65
474.65	1069.39
475.01	1075.71
475.37	1078.05
475.73	1085.31
476.09	1081.33
476.45	1082.26
476.81	1064.94
477.18	1062.60
477.54	1055.82
477.90	1066.11
478.26	1079.46
478.62	1084.60
478.98	1086.48
479.34	1086.71
479.71	1077.35
480.07	1073.37
480.43	1069.86
480.79	1065.41
481.15	1072.90
481.51	1077.35
481.87	1068.69
482.23	1073.37
482.59	1076.88
482.96	1071.26
483.32	1071.50
483.68	1072.90
484.04	1072.67
484.40	1076.65
484.76	1073.60
485.12	1071.73
485.48	1075.24
485.84	1074.54
486.20	1068.22
486.56	1083.90
486.92	1085.77
487.28	1084.84
487.64	1085.54
488.00	1089.99
488.37	1076.88
488.73	1072.90
489.09	1068.22
489.45	1066.82
489.81	1055.35
490.17	1062.84
490.53	1069.16
490.89	1072.67
491.25	1083.20
491.61	1099.35
491.97	1085.54
492.33	1084.84
492.69	1080.63
493.05	1074.54
493.41	1066.35
493.77	1077.82
494.13	1079.92
494.49	1084.14
494.85	1076.18
495.21	1078.28
495.57	1084.14
495.93	1084.37
496.29	1088.58
496.64	1098.41
497.00	1080.63
497.36	1070.33
497.72	1069.62
498.08	1063.54
498.44	1066.58
498.80	1084.84
499.16	1085.54
499.52	1089.29
499.88	1094.90
500.24	1085.77
500.60	1078.99
500.96	1085.31
501.32	1090.46
501.68	1087.41
502.03	1095.84
502.39	1094.90
502.75	1082.50
503.11	1066.82
503.47	1072.20
503.83	1077.35
504.19	1088.58
504.55	1099.35
504.91	1105.20
505.26	1103.33
505.62	1092.33
505.98	1089.99
506.34	1086.71
506.70	1094.67
507.06	1093.26
507.42	1104.97
507.78	1108.01
508.13	1113.16
508.49	1098.65
508.85	1095.84
509.21	1083.20
509.57	1079.69
509.93	1069.86
510.28	1075.71
510.64	1077.35
511.00	1079.92
511.36	1079.46
511.72	1078.05
512.07	1081.56
512.43	1083.67
512.79	1076.41
513.15	1074.77
513.51	1081.33
513.86	1084.37
514.22	1098.65
514.58	1107.07
514.94	1105.20
515.30	1102.39
515.65	1100.99
516.01	1084.37
516.37	1089.52
516.73	1092.09
517.08	1096.31
517.44	1097.24
517.80	1095.37
518.16	1092.33
518.51	1092.09
518.87	1095.60
519.23	1094.43
519.59	1100.99
519.94	1099.82
520.30	1096.54
520.66	1086.24
521.01	1078.75
521.37	1077.58
521.73	1071.26
522.09	1071.97
522.44	1095.14
522.80	1096.31
523.16	1089.29
523.51	1100.99
523.87	1098.41
524.23	1087.65
524.58	1094.67
524.94	1098.18
525.30	1088.58
525.65	1096.31
526.01	1090.92
526.37	1076.88
526.72	1081.56
527.08	1092.33
527.44	1094.90
527.79	1102.39
528.15	1117.61
528.51	1112.46
528.86	1100.99
529.22	1094.67
529.58	1090.46
529.93	1088.82
530.29	1090.69
530.65	1096.54
531.00	1102.63
531.36	1090.69
531.71	1088.58
532.07	1097.48
532.43	1092.56
532.78	1093.03
533.14	1096.78
533.49	1099.35
533.85	1089.75
534.21	1099.12
534.56	1093.26
534.92	1101.92
535.27	1095.84
535.63	1095.84
535.98	1092.09
536.34	1092.09
536.69	1093.03
537.05	1101.46
537.41	1100.05
537.76	1098.88
538.12	1101.92
538.47	1089.52
538.83	1086.24
539.18	1094.43
539.54	1099.35
539.89	1101.46
540.25	1112.46
540.60	1102.16
540.96	1089.75
541.31	1091.39
541.67	1085.07
542.02	1084.14
542.38	1100.52
542.73	1100.05
543.09	1089.52
543.44	1093.50
543.80	1081.09
544.15	1074.07
544.51	1083.90
544.86	1086.01
545.22	1086.01
545.57	1098.41
545.93	1097.01
546.28	1098.88
546.64	1091.16
546.99	1081.56
547.35	1075.48
547.70	1074.07
548.05	1073.60
548.41	1085.07
548.76	1080.63
549.12	1080.39
549.47	1076.65
549.83	1065.88
550.18	1064.24
550.53	1068.45
550.89	1069.86
551.24	1073.37
551.60	1084.14
551.95	1084.84
552.30	1081.56
552.66	1079.46
553.01	1083.43
553.37	1081.56
553.72	1077.58
554.07	1078.28
554.43	1089.05
554.78	1083.90
555.13	1083.90
555.49	1086.94
555.84	1092.33
556.19	1078.28
556.55	1085.07
556.90	1076.41
557.26	1073.84
557.61	1079.92
557.96	1084.84
558.32	1075.48
558.67	1084.60
559.02	1088.58
559.37	1093.26
559.73	1098.41
560.08	1106.84
560.43	1106.61
560.79	1110.35
561.14	1102.16
561.49	1098.41
561.85	1096.54
562.20	1100.29
562.55	1102.86
562.90	1093.73
563.26	1089.52
563.61	1085.07
563.96	1079.69
564.32	1071.73
564.67	1082.50
565.02	1094.43
565.37	1089.05
565.73	1089.29
566.08	1089.05
566.43	1086.01
566.78	1076.41
567.14	1080.39
567.49	1072.90
567.84	1070.80
568.19	1075.94
568.54	1074.77
568.90	1075.48
569.25	1075.01
569.60	1075.71
569.95	1065.41
570.31	1062.14
570.66	1065.18
571.01	1062.37
571.36	1051.60
571.71	1060.50
572.06	1062.84
572.42	1055.11
572.77	1061.67
573.12	1067.05
573.47	1063.54
573.82	1071.97
574.18	1087.88
574.53	1089.29
574.88	1094.43
575.23	1100.29
575.58	1094.43
575.93	1089.99
576.28	1094.20
576.64	1089.05
576.99	1077.58
577.34	1082.73
577.69	1082.73
578.04	1076.18
578.39	1079.46
578.74	1080.86
579.09	1078.05
579.44	1070.09
579.80	1069.16
580.15	1069.16
580.50	1073.60
580.85	1067.28
581.20	1073.14
581.55	1079.46
581.90	1086.94
582.25	1092.09
582.60	1104.73
582.95	1103.80
583.30	1095.14
583.65	1083.43
584.00	1079.92
584.35	1063.31
584.71	1061.67
585.06	1069.86
585.41	1076.65
585.76	1076.88
586.11	1094.20
586.46	1099.12
586.81	1088.35
587.16	1086.71
587.51	1077.82
587.86	1068.69
588.21	1065.18
588.56	1082.26
588.91	1090.22
589.26	1102.39
589.61	1104.50
589.96	1101.22
590.31	1092.56
590.66	1081.33
591.01	1069.62
591.36	1073.37
591.71	1082.03
592.06	1083.43
592.41	1083.43
592.76	1103.33
593.10	1099.12
593.45	1088.58
593.80	1087.18
594.15	1098.88
594.50	1084.60
594.85	1081.09
595.20	1080.63
595.55	1081.80
595.90	1080.39
596.25	1085.77
596.60	1089.52
596.95	1089.29
597.30	1082.73
597.64	1124.16
597.99	1127.67
598.34	1124.63
598.69	1127.67
599.04	1133.29
599.39	1090.22
599.74	1092.56
600.09	1093.03
600.44	1102.39
600.78	1102.39
601.13	1095.84
601.48	1093.50
601.83	1091.86
602.18	1089.52
602.53	1082.03
602.88	1087.88
603.22	1084.60
603.57	1081.09
603.92	1072.43
604.27	1091.16
604.62	1091.63
604.97	1083.90
605.31	1092.33
605.66	1105.20
606.01	1093.50
606.36	1091.16
606.71	1098.18
607.05	1098.65
607.40	1094.20
607.75	1090.69
608.10	1087.41
608.44	1078.75
608.79	1074.77
609.14	1063.31
609.49	1067.05
609.84	1062.60
610.18	1075.48
610.53	1077.82
610.88	1092.80
611.23	1094.43
611.57	1099.12
611.92	1094.90
612.27	1095.14
612.62	1088.58
612.96	1091.16
613.31	1092.09
613.66	1091.63
614.00	1089.52
614.35	1090.92
614.70	1091.39
615.05	1090.92
615.39	1087.88
615.74	1096.31
616.09	1087.88
616.43	1079.69
616.78	1081.80
617.13	1087.88
617.47	1086.94
617.82	1092.56
618.17	1095.14
618.51	1092.33
618.86	1080.63
619.21	1065.18
619.55	1067.05
619.90	1063.54
620.25	1068.69
620.59	1075.94
620.94	1079.92
621.29	1074.54
621.63	1087.18
621.98	1083.67
622.32	1084.14
622.67	1082.97
623.02	1080.39
623.36	1064.48
623.71	1063.54
624.05	1054.18
624.40	1061.90
624.75	1086.24
625.09	1096.54
625.44	1108.01
625.78	1115.03
626.13	1108.71
626.48	1088.82
626.82	1085.54
627.17	1079.92
627.51	1078.05
627.86	1085.54
628.20	1088.12
628.55	1095.14
628.89	1083.67
629.24	1087.41
629.58	1088.82
629.93	1090.92
630.28	1078.52
630.62	1079.92
630.97	1077.82
631.31	1075.01
631.66	1061.43
632.00	1064.71
632.35	1068.45
632.69	1078.05
633.04	1065.65
633.38	1083.67
633.73	1085.54
634.07	1094.43
634.42	1088.35
634.76	1100.29
635.11	1100.52
635.45	1098.88
635.79	1094.43
636.14	1102.16
636.48	1099.82
636.83	1105.90
637.17	1106.84
637.52	1108.01
637.86	1088.58
638.21	1090.69
638.55	1075.01
638.89	1070.09
639.24	1071.97
639.58	1079.92
639.93	1075.48
640.27	1077.58
640.61	1079.22
640.96	1075.24
641.30	1075.24
641.65	1081.80
641.99	1081.33
642.33	1083.90
642.68	1073.14
643.02	1075.01
643.37	1074.07
643.71	1081.33
644.05	1081.56
644.40	1089.05
644.74	1086.01
645.08	1084.60
645.43	1080.63
645.77	1077.58
646.11	1085.07
646.46	1083.43
646.80	1079.46
647.14	1074.77
647.49	1067.75
647.83	1060.73
648.17	1067.99
648.52	1067.28
648.86	1070.33
649.20	1079.69
649.55	1073.37
649.89	1071.50
650.23	1072.90
650.57	1072.43
650.92	1073.14
651.26	1074.77
651.60	1078.75
651.95	1078.75
652.29	1082.03
652.63	1082.26
652.97	1088.58
653.32	1080.63
653.66	1085.77
654.00	1084.84
654.34	1084.84
654.69	1088.12
655.03	1092.09
655.37	1096.78
655.71	1095.84
656.05	1094.20
656.40	1093.26
656.74	1089.29
657.08	1089.75
657.42	1084.84
657.76	1090.22
658.11	1083.20
658.45	1084.84
658.79	1078.05
659.13	1078.52
659.47	1071.26
659.82	1073.60
660.16	1067.52
660.50	1065.65
660.84	1076.88
661.18	1078.99
661.52	1079.92
661.87	1086.01
662.21	1078.28
662.55	1071.03
662.89	1079.22
663.23	1077.82
663.57	1077.11
663.91	1092.56
664.25	1086.94
664.60	1080.16
664.94	1086.71
665.28	1086.48
665.62	1081.33
665.96	1096.31
666.30	1095.37
666.64	1083.43
666.98	1078.28
667.32	1074.54
667.66	1072.90
668.01	1079.22
668.35	1089.99
668.69	1089.05
669.03	1095.84
669.37	1086.48
669.71	1090.46
670.05	1086.24
670.39	1101.22
670.73	1090.22
671.07	1094.20
671.41	1082.03
671.75	1077.58
672.09	1067.05
672.43	1074.54
672.77	1072.67
673.11	1077.35
673.45	1076.65
673.79	1082.03
674.13	1075.24
674.47	1073.14
674.81	1070.56
675.15	1071.50
675.49	1070.56
675.83	1070.33
676.17	1072.43
676.51	1077.58
676.85	1085.77
677.19	1089.05
677.53	1091.63
677.87	1085.31
678.21	1083.67
678.55	1083.20
678.89	1075.24
679.23	1075.94
679.57	1083.20
679.90	1080.63
680.24	1069.86
680.58	1067.05
680.92	1067.05
681.26	1060.73
681.60	1054.65
681.94	1067.52
682.28	1069.16
682.62	1075.71
682.96	1080.16
683.29	1085.77
683.63	1077.58
683.97	1085.07
684.31	1078.05
684.65	1075.01
684.99	1082.03
685.33	1081.80
685.67	1069.86
686.00	1073.60
686.34	1081.09
686.68	1068.45
687.02	1063.31
687.36	1070.80
687.70	1077.82
688.03	1061.90
688.37	1069.39
688.71	1079.92
689.05	1074.31
689.39	1067.75
689.72	1072.20
690.06	1069.62
690.40	1057.22
690.74	1065.65
691.08	1062.60
691.41	1061.67
691.75	1052.30
692.09	1059.09
692.43	1050.43
692.76	1049.03
693.10	1045.99
693.44	1052.54
693.78	1055.35
694.11	1057.22
694.45	1058.86
694.79	1070.56
695.13	1076.88
695.46	1076.88
695.80	1077.58
696.14	1074.77
696.48	1075.01
696.81	1079.92
697.15	1078.99
697.49	1095.60
697.82	1099.82
698.16	1094.90
698.50	1095.14
698.83	1095.60
699.17	1087.41
699.51	1093.26
699.84	1095.37
700.18	1088.35
700.52	1087.88
700.85	1087.18
701.19	1075.48
701.53	1071.97
701.86	1081.33
702.20	1082.26
702.54	1082.73
702.87	1087.41
703.21	1089.99
703.55	1084.14
703.88	1070.80
704.22	1067.99
704.55	1067.05
704.89	1072.43
705.23	1067.52
705.56	1083.43
705.90	1069.39
706.23	1076.41
706.57	1072.67
706.91	1069.62
707.24	1064.24
707.58	1083.43
707.91	1081.80
708.25	1086.48
708.58	1098.18
708.92	1100.05
709.26	1095.60
709.59	1091.16
709.93	1089.75
710.26	1088.12
710.60	1090.69
710.93	1097.01
711.27	1099.58
711.60	1097.01
711.94	1093.50
712.27	1085.77
712.61	1075.71
712.94	1071.26
713.28	1075.71
713.61	1069.16
713.95	1077.35
714.28	1074.31
714.62	1071.50
714.95	1066.35
715.29	1073.37
715.62	1067.75
715.96	1079.92
716.29	1084.37
716.63	1095.37
716.96	1094.90
717.29	1101.22
717.63	1091.16
717.96	1096.54
718.30	1078.28
718.63	1073.60
718.97	1066.11
719.30	1072.20
719.63	1066.35
719.97	1079.69
720.30	1091.63
720.64	1092.80
720.97	1094.67
721.30	1097.95
721.64	1098.88
721.97	1089.29
722.31	1089.75
722.64	1075.94
722.97	1070.80
723.31	1063.77
723.64	1062.84
723.97	1068.69
724.31	1078.52
724.64	1090.22
724.98	1092.09
725.31	1102.86
725.64	1097.95
725.98	1091.63
726.31	1085.31
726.64	1080.16
726.97	1067.05
727.31	1064.71
727.64	1071.50
727.97	1070.80
728.31	1066.35
728.64	1069.86
728.97	1066.82
729.31	1063.31
729.64	1064.24
729.97	1073.60
730.30	1071.97
730.64	1081.33
730.97	1079.46
731.30	1072.90
731.63	1070.56
731.97	1071.26
732.30	1072.90
732.63	1071.97
732.96	1076.65
733.30	1075.94
733.63	1069.16
733.96	1057.92
734.29	1064.71
734.63	1062.84
734.96	1062.37
735.29	1071.50
735.62	1076.41
735.95	1069.86
736.29	1064.48
736.62	1066.35
736.95	1062.14
737.28	1068.69
737.61	1075.94
737.94	1085.31
738.28	1079.46
738.61	1081.80
738.94	1076.41
739.27	1080.16
739.60	1078.28
739.93	1085.31
740.27	1093.50
740.60	1097.95
740.93	1087.65
741.26	1089.75
741.59	1078.99
741.92	1063.07
742.25	1068.45
742.58	1080.86
742.91	1077.82
743.25	1093.73
743.58	1100.05
743.91	1089.75
744.24	1077.58
744.57	1080.16
744.90	1075.01
745.23	1077.11
745.56	1084.60
745.89	1094.67
746.22	1095.60
746.55	1091.16
746.88	1100.05
747.21	1095.60
747.54	1093.26
747.87	1086.94
748.20	1088.12
748.53	1074.31
748.87	1075.01
749.20	1073.14
749.53	1080.63
749.86	1079.46
750.19	1086.48
750.52	1090.22
750.85	1092.33
751.18	1090.92
751.51	1091.16
751.84	1088.58
752.16	1077.58
752.49	1070.09
752.82	1073.37
753.15	1085.31
753.48	1080.63
753.81	1086.24
754.14	1095.60
754.47	1083.43
754.80	1078.28
755.13	1083.20
755.46	1082.97
755.79	1061.90
756.12	1067.99
756.45	1064.94
756.78	1068.22
757.11	1065.18
757.43	1078.05
757.76	1081.09
758.09	1068.45
758.42	1071.26
758.75	1066.35
759.08	1069.86
759.41	1052.54
759.74	1060.26
760.07	1061.20
760.39	1070.56
760.72	1072.90
761.05	1084.37
761.38	1094.43
761.71	1088.12
762.04	1081.33
762.36	1072.90
762.69	1079.22
763.02	1070.33
763.35	1061.90
763.68	1069.39
764.01	1076.41
764.33	1077.58
764.66	1078.05
764.99	1087.41
765.32	1083.20
765.65	1079.69
765.97	1076.18
766.30	1072.20
