SpectraSuite Data File
++++++++++++++++++++++++++++++++++++
Date: Mon Aug 26 10:25:59 PDT 2019
User: corrico
Dark Spectrum Present: No
Reference Spectrum Present: No
Number of Sampled Component Spectra: 1
Spectrometers: USB2+H06089
Integration Time (usec): 10000 (USB2+H06089)
Spectra Averaged: 2 (USB2+H06089)
Boxcar Smoothing: 2 (USB2+H06089)
Correct for Electrical Dark: No (USB2+H06089)
Strobe/Lamp Enabled: No (USB2+H06089)
Correct for Detector Non-linearity: No (USB2+H06089)
Correct for Stray Light: No (USB2+H06089)
Number of Pixels in Processed Spectrum: 2048
>>>>>Begin Processed Spectral Data<<<<<
339.70	1068.45
340.07	1068.45
340.45	1023.28
340.82	989.58
341.19	957.75
341.57	931.07
341.94	921.23
342.31	923.11
342.69	923.58
343.06	927.09
343.43	918.66
343.81	909.30
344.18	903.45
344.55	907.66
344.93	913.04
345.30	922.87
345.67	930.83
346.04	944.64
346.42	955.64
346.79	959.85
347.16	964.07
347.54	983.96
347.91	995.66
348.28	1004.32
348.65	1003.62
349.03	1016.49
349.40	1017.20
349.77	1012.28
350.14	1011.11
350.52	1024.69
350.89	1028.67
351.26	1031.94
351.63	1047.39
352.01	1060.96
352.38	1065.65
352.75	1069.16
353.12	1067.05
353.50	1061.90
353.87	1056.05
354.24	1057.22
354.61	1063.54
354.98	1066.58
355.36	1074.07
355.73	1075.48
356.10	1073.84
356.47	1070.80
356.84	1076.18
357.22	1074.77
357.59	1083.20
357.96	1088.82
358.33	1084.37
358.70	1089.99
359.08	1085.31
359.45	1075.94
359.82	1069.39
360.19	1066.82
360.56	1060.03
360.94	1069.16
361.31	1081.09
361.68	1085.07
362.05	1090.46
362.42	1086.24
362.79	1074.54
363.16	1063.54
363.54	1056.75
363.91	1055.82
364.28	1068.45
364.65	1078.75
365.02	1081.33
365.39	1094.43
365.76	1090.46
366.14	1069.62
366.51	1068.69
366.88	1071.50
367.25	1056.75
367.62	1063.54
367.99	1079.69
368.36	1077.82
368.73	1075.01
369.10	1086.01
369.48	1083.43
369.85	1082.03
370.22	1086.48
370.59	1089.05
370.96	1081.09
371.33	1080.63
371.70	1065.18
372.07	1050.20
372.44	1050.20
372.81	1047.86
373.18	1045.99
373.55	1056.52
373.93	1058.39
374.30	1067.05
374.67	1068.69
375.04	1079.22
375.41	1079.22
375.78	1089.29
376.15	1076.41
376.52	1075.94
376.89	1068.69
377.26	1069.39
377.63	1060.26
378.00	1058.86
378.37	1055.35
378.74	1060.50
379.11	1059.33
379.48	1058.39
379.85	1060.03
380.22	1070.80
380.59	1065.18
380.96	1068.69
381.33	1070.33
381.70	1072.43
382.07	1062.14
382.44	1067.75
382.81	1066.58
383.18	1072.20
383.55	1072.67
383.92	1080.16
384.29	1073.84
384.66	1076.88
385.03	1067.75
385.40	1069.39
385.77	1069.62
386.14	1068.22
386.51	1064.94
386.88	1067.05
387.25	1056.28
387.62	1061.20
387.99	1061.67
388.36	1053.71
388.73	1058.16
389.10	1066.58
389.46	1072.90
389.83	1069.62
390.20	1075.01
390.57	1086.48
390.94	1086.01
391.31	1081.56
391.68	1091.86
392.05	1097.95
392.42	1092.09
392.79	1092.33
393.16	1079.22
393.53	1077.35
393.89	1077.11
394.26	1078.52
394.63	1080.16
395.00	1087.41
395.37	1089.75
395.74	1092.56
396.11	1081.56
396.48	1076.88
396.84	1087.18
397.21	1090.69
397.58	1088.58
397.95	1092.56
398.32	1097.71
398.69	1084.14
399.06	1074.54
399.42	1067.52
399.79	1074.31
400.16	1070.80
400.53	1067.75
400.90	1072.90
401.27	1075.71
401.64	1074.07
402.00	1078.75
402.37	1092.80
402.74	1091.86
403.11	1094.43
403.48	1088.58
403.84	1093.50
404.21	1089.29
404.58	1093.50
404.95	1096.07
405.32	1094.20
405.68	1089.52
406.05	1085.31
406.42	1067.28
406.79	1058.39
407.16	1060.73
407.52	1054.41
407.89	1044.82
408.26	1057.92
408.63	1058.39
408.99	1060.73
409.36	1058.16
409.73	1071.26
410.10	1073.14
410.47	1073.60
410.83	1064.71
411.20	1058.39
411.57	1064.24
411.94	1062.84
412.30	1060.73
412.67	1068.22
413.04	1078.05
413.40	1072.90
413.77	1068.92
414.14	1076.65
414.51	1084.37
414.87	1077.82
415.24	1071.73
415.61	1078.05
415.97	1068.92
416.34	1066.82
416.71	1079.46
417.08	1071.03
417.44	1064.48
417.81	1067.52
418.18	1058.62
418.54	1056.28
418.91	1074.77
419.28	1075.94
419.64	1082.97
420.01	1089.99
420.38	1082.97
420.74	1074.54
421.11	1074.07
421.48	1064.94
421.84	1069.86
422.21	1073.84
422.58	1085.31
422.94	1085.77
423.31	1092.56
423.68	1083.90
424.04	1089.75
424.41	1081.56
424.77	1075.24
425.14	1069.16
425.51	1077.58
425.87	1081.09
426.24	1081.09
426.61	1090.69
426.97	1093.73
427.34	1084.60
427.70	1075.24
428.07	1066.35
428.44	1063.31
428.80	1067.05
429.17	1078.99
429.53	1081.56
429.90	1088.35
430.27	1081.09
430.63	1078.75
431.00	1075.94
431.36	1068.45
431.73	1071.97
432.09	1075.01
432.46	1080.39
432.83	1069.39
433.19	1076.65
433.56	1075.24
433.92	1083.67
434.29	1081.09
434.65	1087.41
435.02	1088.58
435.38	1092.80
435.75	1091.16
436.11	1085.54
436.48	1092.33
436.84	1089.52
437.21	1085.31
437.57	1078.52
437.94	1082.73
438.30	1078.75
438.67	1076.41
439.03	1076.88
439.40	1070.80
439.76	1063.07
440.13	1056.05
440.49	1042.47
440.86	1045.52
441.22	1056.52
441.59	1062.60
441.95	1060.03
442.32	1080.16
442.68	1068.45
443.05	1061.90
443.41	1065.88
443.78	1069.62
444.14	1064.24
444.51	1070.80
444.87	1074.31
445.24	1083.90
445.60	1080.86
445.96	1081.09
446.33	1081.33
446.69	1088.12
447.06	1074.77
447.42	1074.77
447.79	1087.88
448.15	1087.65
448.51	1094.20
448.88	1096.31
449.24	1100.29
449.61	1090.69
449.97	1087.41
450.33	1073.37
450.70	1078.75
451.06	1087.41
451.43	1089.99
451.79	1094.43
452.15	1101.92
452.52	1098.18
452.88	1082.73
453.24	1077.35
453.61	1078.52
453.97	1074.07
454.34	1080.39
454.70	1090.46
455.06	1088.35
455.43	1091.63
455.79	1096.07
456.15	1082.73
456.52	1077.11
456.88	1076.88
457.24	1068.92
457.61	1058.62
457.97	1060.96
458.33	1073.60
458.70	1077.11
459.06	1084.84
459.42	1089.52
459.79	1094.90
460.15	1078.05
460.51	1075.24
460.88	1064.71
461.24	1062.84
461.60	1059.33
461.96	1053.48
462.33	1058.86
462.69	1065.18
463.05	1057.92
463.42	1057.22
463.78	1072.67
464.14	1065.65
464.50	1066.35
464.87	1086.71
465.23	1081.80
465.59	1078.05
465.95	1072.20
466.32	1066.11
466.68	1059.33
467.04	1064.71
467.40	1075.48
467.77	1091.86
468.13	1093.97
468.49	1090.22
468.85	1088.12
469.22	1071.73
469.58	1063.07
469.94	1070.09
470.30	1071.03
470.66	1075.48
471.03	1089.29
471.39	1092.33
471.75	1091.16
472.11	1093.03
472.47	1087.41
472.84	1076.18
473.20	1082.26
473.56	1077.35
473.92	1073.60
474.28	1074.31
474.65	1083.90
475.01	1074.07
475.37	1077.35
475.73	1074.77
476.09	1075.71
476.45	1065.41
476.81	1069.16
477.18	1065.65
477.54	1070.56
477.90	1071.97
478.26	1090.22
478.62	1088.58
478.98	1091.63
479.34	1087.65
479.71	1082.97
480.07	1063.31
480.43	1067.52
480.79	1065.41
481.15	1067.99
481.51	1078.52
481.87	1085.77
482.23	1083.67
482.59	1085.77
482.96	1081.33
483.32	1066.82
483.68	1063.07
484.04	1072.43
484.40	1064.94
484.76	1072.43
485.12	1072.90
485.48	1077.82
485.84	1069.62
486.20	1082.97
486.56	1081.09
486.92	1088.58
487.28	1083.20
487.64	1084.84
488.00	1070.56
488.37	1061.20
488.73	1061.43
489.09	1066.11
489.45	1060.50
489.81	1068.45
490.17	1077.58
490.53	1076.18
490.89	1081.09
491.25	1085.77
491.61	1076.88
491.97	1084.37
492.33	1078.99
492.69	1070.56
493.05	1063.54
493.41	1071.03
493.77	1070.33
494.13	1080.39
494.49	1077.35
494.85	1080.39
495.21	1083.90
495.57	1070.09
495.93	1070.33
496.29	1069.39
496.64	1071.03
497.00	1062.60
497.36	1075.24
497.72	1071.73
498.08	1081.80
498.44	1073.60
498.80	1080.16
499.16	1081.09
499.52	1082.97
499.88	1079.92
500.24	1090.46
500.60	1089.75
500.96	1085.07
501.32	1077.35
501.68	1075.24
502.03	1078.99
502.39	1086.48
502.75	1086.94
503.11	1093.26
503.47	1102.39
503.83	1099.58
504.19	1103.09
504.55	1102.39
504.91	1109.88
505.26	1092.09
505.62	1089.99
505.98	1081.09
506.34	1084.14
506.70	1082.03
507.06	1093.97
507.42	1093.26
507.78	1089.05
508.13	1081.33
508.49	1082.97
508.85	1078.99
509.21	1078.52
509.57	1085.07
509.93	1077.82
510.28	1068.92
510.64	1065.65
511.00	1063.54
511.36	1059.33
511.72	1076.18
512.07	1094.67
512.43	1109.41
512.79	1108.24
513.15	1116.67
513.51	1117.84
513.86	1110.12
514.22	1105.67
514.58	1111.75
514.94	1105.44
515.30	1093.03
515.65	1083.67
516.01	1080.86
516.37	1078.05
516.73	1082.50
517.08	1099.35
517.44	1107.78
517.80	1106.14
518.16	1113.63
518.51	1105.44
518.87	1100.05
519.23	1093.26
519.59	1090.69
519.94	1090.22
520.30	1098.88
520.66	1097.48
521.01	1098.65
521.37	1103.33
521.73	1097.01
522.09	1090.46
522.44	1086.94
522.80	1079.46
523.16	1069.39
523.51	1067.52
523.87	1073.37
524.23	1073.84
524.58	1076.18
524.94	1078.05
525.30	1079.92
525.65	1076.18
526.01	1073.60
526.37	1080.39
526.72	1092.09
527.08	1082.97
527.44	1082.03
527.79	1084.60
528.15	1083.20
528.51	1078.05
528.86	1078.05
529.22	1074.31
529.58	1066.58
529.93	1073.84
530.29	1063.31
530.65	1066.11
531.00	1063.77
531.36	1074.54
531.71	1069.39
532.07	1083.20
532.43	1085.07
532.78	1095.84
533.14	1090.22
533.49	1083.20
533.85	1079.46
534.21	1088.58
534.56	1086.01
534.92	1081.56
535.27	1087.41
535.63	1083.20
535.98	1083.90
536.34	1081.80
536.69	1090.22
537.05	1080.16
537.41	1082.50
537.76	1078.28
538.12	1075.24
538.47	1070.56
538.83	1085.54
539.18	1085.31
539.54	1093.50
539.89	1096.78
540.25	1094.43
540.60	1086.71
540.96	1088.35
541.31	1083.43
541.67	1088.12
542.02	1098.65
542.38	1097.71
542.73	1108.48
543.09	1098.65
543.44	1089.29
543.80	1093.50
544.15	1095.60
544.51	1091.16
544.86	1099.35
545.22	1097.24
545.57	1096.54
545.93	1091.63
546.28	1092.56
546.64	1085.07
546.99	1087.18
547.35	1079.92
547.70	1088.58
548.05	1076.41
548.41	1086.24
548.76	1093.97
549.12	1095.84
549.47	1095.84
549.83	1105.44
550.18	1100.05
550.53	1103.33
550.89	1104.73
551.24	1093.73
551.60	1098.18
551.95	1098.41
552.30	1082.73
552.66	1072.90
553.01	1079.46
553.37	1075.94
553.72	1078.75
554.07	1085.77
554.43	1093.97
554.78	1096.78
555.13	1092.09
555.49	1082.03
555.84	1080.39
556.19	1079.22
556.55	1075.24
556.90	1074.07
557.26	1075.48
557.61	1082.03
557.96	1075.24
558.32	1079.92
558.67	1079.46
559.02	1083.67
559.37	1067.99
559.73	1066.58
560.08	1058.39
560.43	1054.88
560.79	1063.31
561.14	1082.50
561.49	1089.99
561.85	1092.09
562.20	1102.86
562.55	1094.20
562.90	1080.86
563.26	1072.43
563.61	1082.50
563.96	1068.69
564.32	1069.39
564.67	1075.71
565.02	1085.54
565.37	1079.46
565.73	1089.05
566.08	1082.97
566.43	1086.01
566.78	1090.92
567.14	1084.14
567.49	1085.07
567.84	1090.69
568.19	1076.18
568.54	1068.22
568.90	1067.99
569.25	1052.77
569.60	1053.24
569.95	1064.48
570.31	1063.07
570.66	1062.14
571.01	1073.14
571.36	1066.35
571.71	1073.14
572.06	1073.37
572.42	1071.03
572.77	1068.92
573.12	1075.71
573.47	1069.62
573.82	1069.39
574.18	1082.26
574.53	1084.84
574.88	1090.46
575.23	1090.69
575.58	1092.33
575.93	1086.94
576.28	1089.75
576.64	1093.26
576.99	1092.33
577.34	1097.48
577.69	1095.14
578.04	1103.09
578.39	1103.56
578.74	1093.26
579.09	1087.88
579.44	1086.94
579.80	1076.18
580.15	1058.86
580.50	1068.22
580.85	1075.94
581.20	1071.73
581.55	1077.58
581.90	1086.71
582.25	1087.65
582.60	1081.33
582.95	1093.26
583.30	1090.92
583.65	1088.82
584.00	1086.94
584.35	1087.41
584.71	1073.14
585.06	1068.22
585.41	1064.48
585.76	1064.24
586.11	1055.11
586.46	1067.99
586.81	1068.69
587.16	1076.18
587.51	1079.22
587.86	1077.58
588.21	1078.52
588.56	1075.01
588.91	1077.11
589.26	1069.86
589.61	1077.82
589.96	1083.20
590.31	1095.60
590.66	1086.94
591.01	1098.18
591.36	1090.22
591.71	1080.16
592.06	1072.20
592.41	1082.50
592.76	1079.22
593.10	1088.82
593.45	1079.46
593.80	1076.88
594.15	1070.80
594.50	1062.37
594.85	1060.73
595.20	1071.03
595.55	1073.37
595.90	1075.71
596.25	1089.52
596.60	1089.29
596.95	1090.46
597.30	1095.37
597.64	1143.82
597.99	1138.67
598.34	1143.35
598.69	1147.56
599.04	1144.99
599.39	1092.80
599.74	1088.58
600.09	1077.82
600.44	1080.63
600.78	1073.60
601.13	1082.03
601.48	1085.07
601.83	1094.20
602.18	1090.22
602.53	1098.65
602.88	1086.71
603.22	1085.31
603.57	1087.41
603.92	1082.26
604.27	1076.88
604.62	1089.75
604.97	1088.82
605.31	1089.29
605.66	1092.33
606.01	1090.92
606.36	1080.63
606.71	1087.41
607.05	1072.90
607.40	1064.94
607.75	1074.54
608.10	1087.65
608.44	1083.90
608.79	1096.07
609.14	1108.95
609.49	1105.20
609.84	1090.69
610.18	1093.03
610.53	1088.58
610.88	1082.03
611.23	1085.77
611.57	1088.82
611.92	1096.07
612.27	1100.05
612.62	1098.18
612.96	1097.95
613.31	1099.82
613.66	1092.33
614.00	1086.24
614.35	1091.63
614.70	1086.48
615.05	1080.63
615.39	1078.28
615.74	1081.80
616.09	1079.46
616.43	1081.80
616.78	1090.92
617.13	1083.90
617.47	1088.35
617.82	1087.65
618.17	1081.33
618.51	1075.48
618.86	1077.11
619.21	1077.58
619.55	1084.37
619.90	1080.16
620.25	1086.48
620.59	1095.60
620.94	1099.35
621.29	1095.84
621.63	1104.03
621.98	1096.31
622.32	1098.88
622.67	1091.86
623.02	1080.63
623.36	1092.56
623.71	1101.69
624.05	1088.58
624.40	1097.24
624.75	1104.50
625.09	1094.90
625.44	1090.69
625.78	1094.90
626.13	1082.26
626.48	1077.82
626.82	1072.20
627.17	1067.52
627.51	1063.54
627.86	1066.58
628.20	1075.01
628.55	1078.52
628.89	1074.54
629.24	1077.35
629.58	1079.46
629.93	1078.05
630.28	1082.26
630.62	1093.97
630.97	1093.50
631.31	1086.01
631.66	1075.24
632.00	1072.67
632.35	1062.84
632.69	1065.18
633.04	1072.20
633.38	1075.48
633.73	1081.56
634.07	1079.46
634.42	1076.65
634.76	1076.18
635.11	1085.31
635.45	1075.01
635.79	1078.99
636.14	1078.99
636.48	1083.43
636.83	1079.92
637.17	1080.39
637.52	1096.31
637.86	1103.80
638.21	1094.67
638.55	1092.09
638.89	1093.50
639.24	1084.84
639.58	1076.65
639.93	1071.50
640.27	1078.75
640.61	1078.52
640.96	1070.80
641.30	1074.31
641.65	1083.20
641.99	1091.39
642.33	1094.43
642.68	1099.12
643.02	1102.16
643.37	1098.65
643.71	1082.50
644.05	1074.77
644.40	1072.90
644.74	1067.99
645.08	1066.11
645.43	1068.45
645.77	1075.48
646.11	1081.56
646.46	1084.60
646.80	1089.52
647.14	1088.82
647.49	1083.43
647.83	1078.28
648.17	1081.09
648.52	1085.07
648.86	1094.67
649.20	1097.24
649.55	1097.01
649.89	1096.31
650.23	1099.35
650.57	1088.82
650.92	1086.71
651.26	1088.82
651.60	1090.69
651.95	1083.20
652.29	1082.97
652.63	1091.63
652.97	1096.54
653.32	1091.86
653.66	1088.58
654.00	1085.07
654.34	1082.26
654.69	1074.77
655.03	1073.60
655.37	1077.35
655.71	1087.41
656.05	1080.16
656.40	1086.01
656.74	1077.11
657.08	1083.20
657.42	1093.26
657.76	1097.24
658.11	1092.33
658.45	1101.92
658.79	1099.82
659.13	1092.33
659.47	1094.90
659.82	1089.29
660.16	1094.90
660.50	1088.35
660.84	1081.09
661.18	1065.88
661.52	1064.24
661.87	1058.62
662.21	1066.35
662.55	1070.56
662.89	1083.67
663.23	1080.16
663.57	1078.99
663.91	1077.11
664.25	1072.67
664.60	1068.22
664.94	1071.97
665.28	1079.22
665.62	1081.56
665.96	1079.92
666.30	1090.46
666.64	1094.90
666.98	1087.65
667.32	1079.22
667.66	1082.97
668.01	1075.01
668.35	1074.31
668.69	1078.05
669.03	1072.67
669.37	1063.77
669.71	1064.01
670.05	1061.20
670.39	1061.43
670.73	1072.67
671.07	1078.52
671.41	1093.97
671.75	1098.88
672.09	1087.88
672.43	1088.58
672.77	1095.84
673.11	1085.77
673.45	1078.99
673.79	1089.52
674.13	1084.14
674.47	1079.46
674.81	1077.35
675.15	1090.22
675.49	1086.71
675.83	1084.60
676.17	1075.01
676.51	1079.69
676.85	1068.22
677.19	1060.26
677.53	1064.71
677.87	1070.09
678.21	1064.24
678.55	1078.75
678.89	1092.80
679.23	1087.41
679.57	1087.18
679.90	1075.71
680.24	1054.65
680.58	1052.30
680.92	1064.24
681.26	1066.82
681.60	1086.24
681.94	1108.24
682.28	1112.22
682.62	1104.26
682.96	1116.20
683.29	1113.63
683.63	1110.58
683.97	1108.48
684.31	1108.71
684.65	1100.29
684.99	1093.03
685.33	1087.41
685.67	1082.50
686.00	1079.22
686.34	1070.80
686.68	1072.43
687.02	1073.14
687.36	1074.77
687.70	1075.01
688.03	1080.86
688.37	1078.75
688.71	1073.14
689.05	1066.58
689.39	1063.77
689.72	1058.39
690.06	1056.05
690.40	1060.96
690.74	1068.45
691.08	1075.01
691.41	1082.26
691.75	1093.26
692.09	1080.39
692.43	1074.31
692.76	1062.14
693.10	1053.71
693.44	1042.01
693.78	1051.13
694.11	1061.20
694.45	1074.07
694.79	1080.63
695.13	1094.20
695.46	1098.65
695.80	1094.90
696.14	1095.14
696.48	1099.12
696.81	1089.29
697.15	1087.41
697.49	1085.54
697.82	1091.86
698.16	1088.12
698.50	1093.97
698.83	1098.41
699.17	1105.67
699.51	1097.95
699.84	1095.14
700.18	1091.63
700.52	1075.01
700.85	1063.31
701.19	1054.18
701.53	1047.86
701.86	1052.07
702.20	1062.60
702.54	1069.39
702.87	1084.84
703.21	1098.18
703.55	1087.41
703.88	1079.92
704.22	1076.65
704.55	1068.45
704.89	1061.90
705.23	1067.75
705.56	1082.03
705.90	1082.97
706.23	1086.01
706.57	1090.69
706.91	1089.05
707.24	1083.43
707.58	1082.03
707.91	1087.88
708.25	1089.52
708.58	1094.90
708.92	1100.52
709.26	1101.92
709.59	1099.58
709.93	1097.48
710.26	1098.41
710.60	1092.09
710.93	1088.12
711.27	1075.94
711.60	1072.67
711.94	1071.73
712.27	1084.60
712.61	1092.33
712.94	1101.46
713.28	1094.90
713.61	1097.95
713.95	1083.90
714.28	1086.01
714.62	1086.01
714.95	1097.71
715.29	1093.50
715.62	1095.60
715.96	1089.05
716.29	1088.35
716.63	1080.86
716.96	1073.14
717.29	1075.48
717.63	1072.67
717.96	1076.88
718.30	1086.24
718.63	1086.71
718.97	1083.90
719.30	1082.97
719.63	1079.46
719.97	1075.24
720.30	1081.80
720.64	1078.99
720.97	1087.65
721.30	1086.94
721.64	1086.48
721.97	1086.94
722.31	1091.16
722.64	1084.14
722.97	1087.41
723.31	1082.03
723.64	1076.88
723.97	1072.90
724.31	1081.80
724.64	1071.03
724.98	1070.56
725.31	1074.54
725.64	1087.88
725.98	1082.50
726.31	1087.65
726.64	1082.97
726.97	1083.90
727.31	1073.14
727.64	1069.62
727.97	1081.33
728.31	1088.35
728.64	1080.86
728.97	1065.18
729.31	1075.71
729.64	1067.05
729.97	1070.09
730.30	1076.88
730.64	1092.33
730.97	1083.67
731.30	1099.12
731.63	1104.26
731.97	1108.95
732.30	1108.24
732.63	1107.07
732.96	1090.69
733.30	1074.31
733.63	1067.52
733.96	1060.96
734.29	1065.65
734.63	1057.45
734.96	1063.77
735.29	1065.88
735.62	1077.11
735.95	1074.31
736.29	1087.65
736.62	1091.16
736.95	1086.48
737.28	1082.50
737.61	1087.88
737.94	1081.56
738.28	1073.84
738.61	1076.18
738.94	1072.67
739.27	1073.37
739.60	1063.07
739.93	1072.43
740.27	1067.75
740.60	1073.14
740.93	1063.54
741.26	1075.24
741.59	1074.31
741.92	1071.26
742.25	1066.82
742.58	1071.73
742.91	1070.56
743.25	1064.01
743.58	1075.01
743.91	1084.37
744.24	1081.09
744.57	1081.33
744.90	1086.24
745.23	1082.03
745.56	1075.01
745.89	1082.97
746.22	1087.65
746.55	1087.88
746.88	1088.58
747.21	1093.97
747.54	1080.16
747.87	1073.60
748.20	1075.48
748.53	1080.86
748.87	1071.26
749.20	1077.82
749.53	1085.07
749.86	1076.65
750.19	1064.71
750.52	1078.05
750.85	1081.80
751.18	1069.62
751.51	1076.65
751.84	1090.69
752.16	1083.90
752.49	1077.35
752.82	1086.24
753.15	1082.26
753.48	1075.71
753.81	1077.35
754.14	1086.71
754.47	1089.29
754.80	1094.20
755.13	1093.26
755.46	1082.26
755.79	1086.24
756.12	1083.43
756.45	1084.14
756.78	1081.09
757.11	1088.82
757.43	1077.11
757.76	1071.97
758.09	1077.82
758.42	1077.58
758.75	1073.14
759.08	1075.01
759.41	1083.43
759.74	1082.73
760.07	1086.24
760.39	1090.92
760.72	1085.54
761.05	1071.50
761.38	1065.18
761.71	1066.35
762.04	1067.75
762.36	1079.22
762.69	1085.31
763.02	1090.69
763.35	1093.50
763.68	1086.24
764.01	1084.37
764.33	1089.52
764.66	1089.75
764.99	1079.46
765.32	1086.71
765.65	1084.60
765.97	1079.46
766.30	1076.65
