SpectraSuite Data File
++++++++++++++++++++++++++++++++++++
Date: Mon Aug 26 10:25:55 PDT 2019
User: corrico
Dark Spectrum Present: No
Reference Spectrum Present: No
Number of Sampled Component Spectra: 1
Spectrometers: USB2+H06089
Integration Time (usec): 10000 (USB2+H06089)
Spectra Averaged: 2 (USB2+H06089)
Boxcar Smoothing: 2 (USB2+H06089)
Correct for Electrical Dark: No (USB2+H06089)
Strobe/Lamp Enabled: No (USB2+H06089)
Correct for Detector Non-linearity: No (USB2+H06089)
Correct for Stray Light: No (USB2+H06089)
Number of Pixels in Processed Spectrum: 2048
>>>>>Begin Processed Spectral Data<<<<<
339.70	1074.31
340.07	1074.31
340.45	1012.52
340.82	973.43
341.19	943.70
341.57	908.36
341.94	910.00
342.31	903.45
342.69	911.87
343.06	907.19
343.43	908.83
343.81	908.36
344.18	903.21
344.55	903.91
344.93	902.04
345.30	902.51
345.67	906.26
346.04	931.30
346.42	941.83
346.79	957.98
347.16	972.96
347.54	977.41
347.91	968.51
348.28	966.64
348.65	973.19
349.03	973.90
349.40	981.62
349.77	997.77
350.14	1010.88
350.52	1016.73
350.89	1027.03
351.26	1031.71
351.63	1048.09
352.01	1056.05
352.38	1060.26
352.75	1066.58
353.12	1065.65
353.50	1065.18
353.87	1074.31
354.24	1085.54
354.61	1083.67
354.98	1085.77
355.36	1084.14
355.73	1066.35
356.10	1058.39
356.47	1057.22
356.84	1060.73
357.22	1058.86
357.59	1067.52
357.96	1075.24
358.33	1084.37
358.70	1089.05
359.08	1081.09
359.45	1081.56
359.82	1078.28
360.19	1075.71
360.56	1074.77
360.94	1078.99
361.31	1077.35
361.68	1059.79
362.05	1057.92
362.42	1058.39
362.79	1063.77
363.16	1067.75
363.54	1080.39
363.91	1079.22
364.28	1080.16
364.65	1073.14
365.02	1072.43
365.39	1061.20
365.76	1059.33
366.14	1051.37
366.51	1052.07
366.88	1057.22
367.25	1064.94
367.62	1072.43
367.99	1079.46
368.36	1080.63
368.73	1072.43
369.10	1078.28
369.48	1074.77
369.85	1071.50
370.22	1078.75
370.59	1076.88
370.96	1069.86
371.33	1062.14
371.70	1054.65
372.07	1039.67
372.44	1042.01
372.81	1043.41
373.18	1056.28
373.55	1074.31
373.93	1083.90
374.30	1084.84
374.67	1083.90
375.04	1080.16
375.41	1072.20
375.78	1068.22
376.15	1078.99
376.52	1084.84
376.89	1087.18
377.26	1082.73
377.63	1086.71
378.00	1077.82
378.37	1069.39
378.74	1058.16
379.11	1067.75
379.48	1058.16
379.85	1054.18
380.22	1065.88
380.59	1064.71
380.96	1045.99
381.33	1054.18
381.70	1057.22
382.07	1060.73
382.44	1068.22
382.81	1087.88
383.18	1093.50
383.55	1090.92
383.92	1084.60
384.29	1084.60
384.66	1078.75
385.03	1070.56
385.40	1066.82
385.77	1064.24
386.14	1060.26
386.51	1055.35
386.88	1059.56
387.25	1065.41
387.62	1072.90
387.99	1070.80
388.36	1080.63
388.73	1082.97
389.10	1081.56
389.46	1075.24
389.83	1075.01
390.20	1056.75
390.57	1045.99
390.94	1046.69
391.31	1038.03
391.68	1046.45
392.05	1069.16
392.42	1086.94
392.79	1091.63
393.16	1102.63
393.53	1096.07
393.89	1090.22
394.26	1082.50
394.63	1071.97
395.00	1072.20
395.37	1078.05
395.74	1081.80
396.11	1087.18
396.48	1089.99
396.84	1080.39
397.21	1075.94
397.58	1072.20
397.95	1070.09
398.32	1072.90
398.69	1085.31
399.06	1088.35
399.42	1089.99
399.79	1084.60
400.16	1080.63
400.53	1089.05
400.90	1092.09
401.27	1093.03
401.64	1097.95
402.00	1112.92
402.37	1097.48
402.74	1099.35
403.11	1096.78
403.48	1093.73
403.84	1072.90
404.21	1076.18
404.58	1073.14
404.95	1073.14
405.32	1074.54
405.68	1075.24
406.05	1064.94
406.42	1064.48
406.79	1059.79
407.16	1046.92
407.52	1048.79
407.89	1062.37
408.26	1065.41
408.63	1066.82
408.99	1078.52
409.36	1086.94
409.73	1086.24
410.10	1076.65
410.47	1070.80
410.83	1073.14
411.20	1071.73
411.57	1069.39
411.94	1072.43
412.30	1078.05
412.67	1075.71
413.04	1071.50
413.40	1066.82
413.77	1072.43
414.14	1080.63
414.51	1085.07
414.87	1084.14
415.24	1089.29
415.61	1079.92
415.97	1062.14
416.34	1058.62
416.71	1061.20
417.08	1064.94
417.44	1071.26
417.81	1078.75
418.18	1070.09
418.54	1069.16
418.91	1059.56
419.28	1064.24
419.64	1072.20
420.01	1078.75
420.38	1086.48
420.74	1092.80
421.11	1094.67
421.48	1097.24
421.84	1086.24
422.21	1089.29
422.58	1089.52
422.94	1084.84
423.31	1081.80
423.68	1084.60
424.04	1082.03
424.41	1078.99
424.77	1075.24
425.14	1069.86
425.51	1074.31
425.87	1076.65
426.24	1079.46
426.61	1086.71
426.97	1086.71
427.34	1093.50
427.70	1083.90
428.07	1078.52
428.44	1074.31
428.80	1076.88
429.17	1072.43
429.53	1075.48
429.90	1081.33
430.27	1079.22
430.63	1075.24
431.00	1071.26
431.36	1065.18
431.73	1067.52
432.09	1071.73
432.46	1082.97
432.83	1083.43
433.19	1081.80
433.56	1079.69
433.92	1075.71
434.29	1069.39
434.65	1080.63
435.02	1088.35
435.38	1089.29
435.75	1089.75
436.11	1093.73
436.48	1082.73
436.84	1085.31
437.21	1081.09
437.57	1067.75
437.94	1067.28
438.30	1082.50
438.67	1088.58
439.03	1079.92
439.40	1089.99
439.76	1082.97
440.13	1068.69
440.49	1059.09
440.86	1065.88
441.22	1077.82
441.59	1072.43
441.95	1069.39
442.32	1070.80
442.68	1072.43
443.05	1065.65
443.41	1078.75
443.78	1086.48
444.14	1097.01
444.51	1091.86
444.87	1087.88
445.24	1077.58
445.60	1080.63
445.96	1072.43
446.33	1081.09
446.69	1078.99
447.06	1087.65
447.42	1081.80
447.79	1081.09
448.15	1076.88
448.51	1082.73
448.88	1082.03
449.24	1085.77
449.61	1084.37
449.97	1083.43
450.33	1078.05
450.70	1074.54
451.06	1065.88
451.43	1072.43
451.79	1087.18
452.15	1096.54
452.52	1104.50
452.88	1115.73
453.24	1107.78
453.61	1097.71
453.97	1086.01
454.34	1075.24
454.70	1059.56
455.06	1053.94
455.43	1049.96
455.79	1060.96
456.15	1069.86
456.52	1066.58
456.88	1069.39
457.24	1065.18
457.61	1064.24
457.97	1060.50
458.33	1069.16
458.70	1073.84
459.06	1071.26
459.42	1062.60
459.79	1061.20
460.15	1070.09
460.51	1068.22
460.88	1076.18
461.24	1078.28
461.60	1080.16
461.96	1071.03
462.33	1071.97
462.69	1080.39
463.05	1089.75
463.42	1097.24
463.78	1098.18
464.14	1105.44
464.50	1083.90
464.87	1084.60
465.23	1064.71
465.59	1072.67
465.95	1071.03
466.32	1084.60
466.68	1079.46
467.04	1088.12
467.40	1085.31
467.77	1087.88
468.13	1095.14
468.49	1090.22
468.85	1086.48
469.22	1086.71
469.58	1080.39
469.94	1078.28
470.30	1087.65
470.66	1090.69
471.03	1084.14
471.39	1082.50
471.75	1073.37
472.11	1066.58
472.47	1070.80
472.84	1080.16
473.20	1078.75
473.56	1077.82
473.92	1082.50
474.28	1078.75
474.65	1071.03
475.01	1071.03
475.37	1078.05
475.73	1082.50
476.09	1081.33
476.45	1080.63
476.81	1083.43
477.18	1084.14
477.54	1067.52
477.90	1067.28
478.26	1078.99
478.62	1073.84
478.98	1066.58
479.34	1074.07
479.71	1082.03
480.07	1084.14
480.43	1088.12
480.79	1089.05
481.15	1079.92
481.51	1075.48
481.87	1077.35
482.23	1079.22
482.59	1081.09
482.96	1091.39
483.32	1090.92
483.68	1080.63
484.04	1070.56
484.40	1063.31
484.76	1060.03
485.12	1051.84
485.48	1045.99
485.84	1048.33
486.20	1051.84
486.56	1054.88
486.92	1060.50
487.28	1070.09
487.64	1072.43
488.00	1078.75
488.37	1078.28
488.73	1084.14
489.09	1082.03
489.45	1081.56
489.81	1087.41
490.17	1089.52
490.53	1089.05
490.89	1090.69
491.25	1099.82
491.61	1091.39
491.97	1088.82
492.33	1086.01
492.69	1080.39
493.05	1068.69
493.41	1066.35
493.77	1062.14
494.13	1056.99
494.49	1053.48
494.85	1054.18
495.21	1060.26
495.57	1073.14
495.93	1077.58
496.29	1085.54
496.64	1090.69
497.00	1087.18
497.36	1081.80
497.72	1081.56
498.08	1074.31
498.44	1074.77
498.80	1068.69
499.16	1060.50
499.52	1062.14
499.88	1064.48
500.24	1063.54
500.60	1071.26
500.96	1074.31
501.32	1072.20
501.68	1073.84
502.03	1067.99
502.39	1069.39
502.75	1070.56
503.11	1072.90
503.47	1073.60
503.83	1086.94
504.19	1082.26
504.55	1083.67
504.91	1090.22
505.26	1100.52
505.62	1094.20
505.98	1100.75
506.34	1102.86
506.70	1094.90
507.06	1090.92
507.42	1085.77
507.78	1078.05
508.13	1081.33
508.49	1081.80
508.85	1074.77
509.21	1073.84
509.57	1074.31
509.93	1068.45
510.28	1071.50
510.64	1073.37
511.00	1087.41
511.36	1087.65
511.72	1091.86
512.07	1085.31
512.43	1088.35
512.79	1081.56
513.15	1081.33
513.51	1079.92
513.86	1085.77
514.22	1079.46
514.58	1069.16
514.94	1078.99
515.30	1075.48
515.65	1068.92
516.01	1071.26
516.37	1076.88
516.73	1068.92
517.08	1064.71
517.44	1066.35
517.80	1070.80
518.16	1081.80
518.51	1083.43
518.87	1085.77
519.23	1093.97
519.59	1098.65
519.94	1093.03
520.30	1089.99
520.66	1092.09
521.01	1085.54
521.37	1083.90
521.73	1091.39
522.09	1100.52
522.44	1096.54
522.80	1105.67
523.16	1095.60
523.51	1082.26
523.87	1080.63
524.23	1088.58
524.58	1082.03
524.94	1087.18
525.30	1099.12
525.65	1098.88
526.01	1094.20
526.37	1095.14
526.72	1101.22
527.08	1097.01
527.44	1088.58
527.79	1086.24
528.15	1080.16
528.51	1084.14
528.86	1085.77
529.22	1088.12
529.58	1099.82
529.93	1107.31
530.29	1102.63
530.65	1088.35
531.00	1093.97
531.36	1082.97
531.71	1062.14
532.07	1059.79
532.43	1069.39
532.78	1071.50
533.14	1069.39
533.49	1082.26
533.85	1086.94
534.21	1096.78
534.56	1086.01
534.92	1092.80
535.27	1093.03
535.63	1086.48
535.98	1075.48
536.34	1077.11
536.69	1078.28
537.05	1086.71
537.41	1083.20
537.76	1080.86
538.12	1093.50
538.47	1086.24
538.83	1085.77
539.18	1089.99
539.54	1095.60
539.89	1092.33
540.25	1108.24
540.60	1114.33
540.96	1115.27
541.31	1112.92
541.67	1109.18
542.02	1101.46
542.38	1094.67
542.73	1095.37
543.09	1097.24
543.44	1079.69
543.80	1079.69
544.15	1087.41
544.51	1088.82
544.86	1092.09
545.22	1105.67
545.57	1091.86
545.93	1083.43
546.28	1082.97
546.64	1075.24
546.99	1076.41
547.35	1087.88
547.70	1080.39
548.05	1072.43
548.41	1078.75
548.76	1086.01
549.12	1084.14
549.47	1093.73
549.83	1096.54
550.18	1096.07
550.53	1091.39
550.89	1096.07
551.24	1094.90
551.60	1091.86
551.95	1093.03
552.30	1089.05
552.66	1083.90
553.01	1077.58
553.37	1073.84
553.72	1073.84
554.07	1072.90
554.43	1079.92
554.78	1083.90
555.13	1092.56
555.49	1094.20
555.84	1094.43
556.19	1089.75
556.55	1096.31
556.90	1089.05
557.26	1077.35
557.61	1089.52
557.96	1091.39
558.32	1097.01
558.67	1099.12
559.02	1104.50
559.37	1095.60
559.73	1097.71
560.08	1079.92
560.43	1079.92
560.79	1074.77
561.14	1075.48
561.49	1072.67
561.85	1077.58
562.20	1078.99
562.55	1093.50
562.90	1100.52
563.26	1091.86
563.61	1094.90
563.96	1096.31
564.32	1078.52
564.67	1066.82
565.02	1071.97
565.37	1065.18
565.73	1065.18
566.08	1079.69
566.43	1080.39
566.78	1075.01
567.14	1079.69
567.49	1084.37
567.84	1078.52
568.19	1078.52
568.54	1076.88
568.90	1088.82
569.25	1079.46
569.60	1079.69
569.95	1086.24
570.31	1094.67
570.66	1074.07
571.01	1080.16
571.36	1082.26
571.71	1086.48
572.06	1085.54
572.42	1089.99
572.77	1084.84
573.12	1078.75
573.47	1057.92
573.82	1050.90
574.18	1054.18
574.53	1049.73
574.88	1048.09
575.23	1060.73
575.58	1066.35
575.93	1059.79
576.28	1060.96
576.64	1061.67
576.99	1063.77
577.34	1068.22
577.69	1077.58
578.04	1082.73
578.39	1085.31
578.74	1083.43
579.09	1082.03
579.44	1085.77
579.80	1089.99
580.15	1093.50
580.50	1103.09
580.85	1104.03
581.20	1091.86
581.55	1086.94
581.90	1090.92
582.25	1086.01
582.60	1086.24
582.95	1094.90
583.30	1104.03
583.65	1100.99
584.00	1097.24
584.35	1098.88
584.71	1101.92
585.06	1094.20
585.41	1090.69
585.76	1090.46
586.11	1088.58
586.46	1094.90
586.81	1099.12
587.16	1107.07
587.51	1100.99
587.86	1096.54
588.21	1080.16
588.56	1073.14
588.91	1064.94
589.26	1078.28
589.61	1078.05
589.96	1087.65
590.31	1092.09
590.66	1099.58
591.01	1101.92
591.36	1101.69
591.71	1098.65
592.06	1100.99
592.41	1092.56
592.76	1080.86
593.10	1077.35
593.45	1076.88
593.80	1080.16
594.15	1078.99
594.50	1093.73
594.85	1103.33
595.20	1105.20
595.55	1104.03
595.90	1111.52
596.25	1095.84
596.60	1095.84
596.95	1089.29
597.30	1080.39
597.64	1136.80
597.99	1140.54
598.34	1138.20
598.69	1140.07
599.04	1132.59
599.39	1072.67
599.74	1072.43
600.09	1074.54
600.44	1088.35
600.78	1091.16
601.13	1084.84
601.48	1083.90
601.83	1075.94
602.18	1053.24
602.53	1060.50
602.88	1060.03
603.22	1056.05
603.57	1061.67
603.92	1067.99
604.27	1076.88
604.62	1087.18
604.97	1098.18
605.31	1097.95
605.66	1098.41
606.01	1092.80
606.36	1098.65
606.71	1094.90
607.05	1095.60
607.40	1107.07
607.75	1105.44
608.10	1086.48
608.44	1084.60
608.79	1087.41
609.14	1080.39
609.49	1079.46
609.84	1086.94
610.18	1086.01
610.53	1085.77
610.88	1088.58
611.23	1094.90
611.57	1098.41
611.92	1102.39
612.27	1097.24
612.62	1090.46
612.96	1085.07
613.31	1086.48
613.66	1085.07
614.00	1091.63
614.35	1099.82
614.70	1100.05
615.05	1099.12
615.39	1094.43
615.74	1085.31
616.09	1083.20
616.43	1084.37
616.78	1091.16
617.13	1092.56
617.47	1093.26
617.82	1089.05
618.17	1088.82
618.51	1083.43
618.86	1083.20
619.21	1094.43
619.55	1096.07
619.90	1096.31
620.25	1089.52
620.59	1084.14
620.94	1066.58
621.29	1068.69
621.63	1068.22
621.98	1073.37
622.32	1078.99
622.67	1092.09
623.02	1097.48
623.36	1091.63
623.71	1086.24
624.05	1088.12
624.40	1084.37
624.75	1069.62
625.09	1072.20
625.44	1073.84
625.78	1082.03
626.13	1082.73
626.48	1089.99
626.82	1096.54
627.17	1102.63
627.51	1083.43
627.86	1085.31
628.20	1086.01
628.55	1074.31
628.89	1075.01
629.24	1072.67
629.58	1071.97
629.93	1079.46
630.28	1079.92
630.62	1077.58
630.97	1093.26
631.31	1092.09
631.66	1085.77
632.00	1087.65
632.35	1082.03
632.69	1078.28
633.04	1082.03
633.38	1083.67
633.73	1089.05
634.07	1082.73
634.42	1083.43
634.76	1074.54
635.11	1069.39
635.45	1067.99
635.79	1075.71
636.14	1077.35
636.48	1080.16
636.83	1081.33
637.17	1081.80
637.52	1080.63
637.86	1081.80
638.21	1090.92
638.55	1098.65
638.89	1097.48
639.24	1104.50
639.58	1107.78
639.93	1104.03
640.27	1100.75
640.61	1103.80
640.96	1092.80
641.30	1081.33
641.65	1075.24
641.99	1066.35
642.33	1059.09
642.68	1065.65
643.02	1067.52
643.37	1071.03
643.71	1078.75
644.05	1085.07
644.40	1085.07
644.74	1087.88
645.08	1086.48
645.43	1075.24
645.77	1070.33
646.11	1070.33
646.46	1077.35
646.80	1082.97
647.14	1093.97
647.49	1092.33
647.83	1094.43
648.17	1094.43
648.52	1091.86
648.86	1096.31
649.20	1095.84
649.55	1095.14
649.89	1084.84
650.23	1083.67
650.57	1075.01
650.92	1085.07
651.26	1080.39
651.60	1086.94
651.95	1087.65
652.29	1094.20
652.63	1088.82
652.97	1094.90
653.32	1087.18
653.66	1088.58
654.00	1087.18
654.34	1085.77
654.69	1085.07
655.03	1094.90
655.37	1094.20
655.71	1091.16
656.05	1097.95
656.40	1091.39
656.74	1089.05
657.08	1083.20
657.42	1080.16
657.76	1069.16
658.11	1085.07
658.45	1080.16
658.79	1086.01
659.13	1082.26
659.47	1089.29
659.82	1075.94
660.16	1082.97
660.50	1078.52
660.84	1077.82
661.18	1069.86
661.52	1077.82
661.87	1070.33
662.21	1071.97
662.55	1072.67
662.89	1075.71
663.23	1074.07
663.57	1079.92
663.91	1084.84
664.25	1089.29
664.60	1097.95
664.94	1089.05
665.28	1093.73
665.62	1081.56
665.96	1089.99
666.30	1087.41
666.64	1090.22
666.98	1083.67
667.32	1098.65
667.66	1092.56
668.01	1082.50
668.35	1085.54
668.69	1091.39
669.03	1086.24
669.37	1085.54
669.71	1099.82
670.05	1104.73
670.39	1089.75
670.73	1082.50
671.07	1081.80
671.41	1072.67
671.75	1071.03
672.09	1080.16
672.43	1080.16
672.77	1075.01
673.11	1082.50
673.45	1075.71
673.79	1070.09
674.13	1070.80
674.47	1082.97
674.81	1087.18
675.15	1086.01
675.49	1098.65
675.83	1103.09
676.17	1098.18
676.51	1088.12
676.85	1087.18
677.19	1083.67
677.53	1081.80
677.87	1070.33
678.21	1071.50
678.55	1084.84
678.89	1085.31
679.23	1075.48
679.57	1084.14
679.90	1089.52
680.24	1080.86
680.58	1082.03
680.92	1090.69
681.26	1090.22
681.60	1078.52
681.94	1073.14
682.28	1053.24
682.62	1057.22
682.96	1055.11
683.29	1062.14
683.63	1066.58
683.97	1081.56
684.31	1084.84
684.65	1092.80
684.99	1083.43
685.33	1085.07
685.67	1079.22
686.00	1065.18
686.34	1050.90
686.68	1059.56
687.02	1059.79
687.36	1054.65
687.70	1060.96
688.03	1081.09
688.37	1085.31
688.71	1078.75
689.05	1089.52
689.39	1091.16
689.72	1075.94
690.06	1071.97
690.40	1076.88
690.74	1084.84
691.08	1084.60
691.41	1088.12
691.75	1088.82
692.09	1098.41
692.43	1092.80
692.76	1094.20
693.10	1100.99
693.44	1100.75
693.78	1085.31
694.11	1080.16
694.45	1081.56
694.79	1075.94
695.13	1066.35
695.46	1067.28
695.80	1068.22
696.14	1065.65
696.48	1070.33
696.81	1082.97
697.15	1089.52
697.49	1086.24
697.82	1079.46
698.16	1072.43
698.50	1065.88
698.83	1065.88
699.17	1069.39
699.51	1073.60
699.84	1073.60
700.18	1080.16
700.52	1080.39
700.85	1077.11
701.19	1086.71
701.53	1087.65
701.86	1088.82
702.20	1095.14
702.54	1101.69
702.87	1103.56
703.21	1111.75
703.55	1110.12
703.88	1106.61
704.22	1101.69
704.55	1088.12
704.89	1081.80
705.23	1075.48
705.56	1068.45
705.90	1073.84
706.23	1089.29
706.57	1094.20
706.91	1090.69
707.24	1092.09
707.58	1080.39
707.91	1063.31
708.25	1050.43
708.58	1056.75
708.92	1051.84
709.26	1064.94
709.59	1074.77
709.93	1081.33
710.26	1083.20
710.60	1089.75
710.93	1081.56
711.27	1078.28
711.60	1080.86
711.94	1083.67
712.27	1073.60
712.61	1079.46
712.94	1078.05
713.28	1069.86
713.61	1067.75
713.95	1077.58
714.28	1071.50
714.62	1079.69
714.95	1094.67
715.29	1092.80
715.62	1091.86
715.96	1089.52
716.29	1082.50
716.63	1073.14
716.96	1078.28
717.29	1086.01
717.63	1095.37
717.96	1101.69
718.30	1105.20
718.63	1101.46
718.97	1090.69
719.30	1077.35
719.63	1074.31
719.97	1076.65
720.30	1074.07
720.64	1079.22
720.97	1088.58
721.30	1091.86
721.64	1089.75
721.97	1097.48
722.31	1100.52
722.64	1099.12
722.97	1085.77
723.31	1081.56
723.64	1086.48
723.97	1087.65
724.31	1099.12
724.64	1106.14
724.98	1110.35
725.31	1091.63
725.64	1084.37
725.98	1077.35
726.31	1075.01
726.64	1071.03
726.97	1075.01
727.31	1080.86
727.64	1077.35
727.97	1088.35
728.31	1090.46
728.64	1097.48
728.97	1092.09
729.31	1093.97
729.64	1088.82
729.97	1087.41
730.30	1083.67
730.64	1077.58
730.97	1077.82
731.30	1070.09
731.63	1058.86
731.97	1051.84
732.30	1061.43
732.63	1067.52
732.96	1072.20
733.30	1076.88
733.63	1078.52
733.96	1068.92
734.29	1059.33
734.63	1070.56
734.96	1079.46
735.29	1081.33
735.62	1086.24
735.95	1093.03
736.29	1077.58
736.62	1069.62
736.95	1060.26
737.28	1057.22
737.61	1049.50
737.94	1056.05
738.28	1063.07
738.61	1074.77
738.94	1082.97
739.27	1093.50
739.60	1103.56
739.93	1111.29
740.27	1110.12
740.60	1108.95
740.93	1101.69
741.26	1092.80
741.59	1078.99
741.92	1077.35
742.25	1080.86
742.58	1075.94
742.91	1077.82
743.25	1078.99
743.58	1085.31
743.91	1082.26
744.24	1084.84
744.57	1075.71
744.90	1077.58
745.23	1072.67
745.56	1070.80
745.89	1073.84
746.22	1080.63
746.55	1083.20
746.88	1083.43
747.21	1072.43
747.54	1070.56
747.87	1072.90
748.20	1067.52
748.53	1066.35
748.87	1075.24
749.20	1078.05
749.53	1075.48
749.86	1072.90
750.19	1080.63
750.52	1079.46
750.85	1069.86
751.18	1073.37
751.51	1081.56
751.84	1067.99
752.16	1073.37
752.49	1092.33
752.82	1092.33
753.15	1092.33
753.48	1100.05
753.81	1091.86
754.14	1093.50
754.47	1087.65
754.80	1085.54
755.13	1090.22
755.46	1097.95
755.79	1090.22
756.12	1087.18
756.45	1093.26
756.78	1087.65
757.11	1087.41
757.43	1081.33
757.76	1087.65
758.09	1089.99
758.42	1089.75
758.75	1088.82
759.08	1080.16
759.41	1079.22
759.74	1074.31
760.07	1074.07
760.39	1083.90
760.72	1100.75
761.05	1100.99
761.38	1101.22
761.71	1101.69
762.04	1092.56
762.36	1086.24
762.69	1089.52
763.02	1085.77
763.35	1090.92
763.68	1091.86
764.01	1091.86
764.33	1089.29
764.66	1086.94
764.99	1087.65
765.32	1094.20
765.65	1096.31
765.97	1095.37
766.30	1097.24
