SpectraSuite Data File
++++++++++++++++++++++++++++++++++++
Date: Mon Aug 26 10:25:58 PDT 2019
User: corrico
Dark Spectrum Present: No
Reference Spectrum Present: No
Number of Sampled Component Spectra: 1
Spectrometers: USB2+H06089
Integration Time (usec): 10000 (USB2+H06089)
Spectra Averaged: 2 (USB2+H06089)
Boxcar Smoothing: 2 (USB2+H06089)
Correct for Electrical Dark: No (USB2+H06089)
Strobe/Lamp Enabled: No (USB2+H06089)
Correct for Detector Non-linearity: No (USB2+H06089)
Correct for Stray Light: No (USB2+H06089)
Number of Pixels in Processed Spectrum: 2048
>>>>>Begin Processed Spectral Data<<<<<
339.70	1073.14
340.07	1073.14
340.45	1030.54
340.82	1001.28
341.19	965.94
341.57	935.28
341.94	924.28
342.31	910.23
342.69	900.40
343.06	905.09
343.43	896.66
343.81	894.32
344.18	902.98
344.55	914.45
344.93	917.26
345.30	925.45
345.67	932.94
346.04	940.19
346.42	940.66
346.79	947.21
347.16	951.90
347.54	958.45
347.91	954.47
348.28	965.71
348.65	978.11
349.03	989.81
349.40	1001.28
349.77	1023.05
350.14	1034.28
350.52	1047.39
350.89	1061.43
351.26	1064.71
351.63	1057.92
352.01	1059.09
352.38	1055.35
352.75	1053.24
353.12	1070.56
353.50	1075.01
353.87	1086.94
354.24	1081.09
354.61	1082.97
354.98	1078.28
355.36	1086.94
355.73	1081.80
356.10	1089.52
356.47	1091.86
356.84	1086.94
357.22	1079.46
357.59	1078.52
357.96	1070.80
358.33	1074.07
358.70	1074.54
359.08	1081.80
359.45	1079.69
359.82	1084.14
360.19	1087.65
360.56	1081.56
360.94	1071.26
361.31	1083.67
361.68	1082.03
362.05	1069.39
362.42	1076.41
362.79	1069.16
363.16	1056.05
363.54	1054.65
363.91	1052.54
364.28	1052.77
364.65	1056.99
365.02	1056.52
365.39	1055.58
365.76	1067.05
366.14	1064.94
366.51	1075.01
366.88	1072.20
367.25	1076.65
367.62	1072.43
367.99	1075.01
368.36	1069.62
368.73	1073.37
369.10	1067.99
369.48	1063.54
369.85	1060.96
370.22	1063.07
370.59	1061.20
370.96	1063.77
371.33	1069.16
371.70	1061.43
372.07	1057.22
372.44	1061.43
372.81	1058.62
373.18	1059.09
373.55	1064.01
373.93	1069.16
374.30	1067.05
374.67	1072.43
375.04	1067.05
375.41	1063.77
375.78	1060.26
376.15	1059.56
376.52	1060.26
376.89	1061.43
377.26	1064.48
377.63	1061.43
378.00	1053.24
378.37	1051.37
378.74	1045.05
379.11	1041.77
379.48	1059.56
379.85	1064.71
380.22	1063.54
380.59	1071.97
380.96	1075.94
381.33	1057.92
381.70	1065.41
382.07	1062.60
382.44	1053.48
382.81	1053.94
383.18	1062.37
383.55	1063.07
383.92	1060.50
384.29	1061.90
384.66	1070.09
385.03	1066.82
385.40	1061.20
385.77	1067.52
386.14	1063.54
386.51	1063.54
386.88	1059.09
387.25	1054.41
387.62	1055.35
387.99	1067.75
388.36	1056.52
388.73	1064.24
389.10	1068.92
389.46	1078.28
389.83	1074.07
390.20	1065.65
390.57	1063.54
390.94	1069.86
391.31	1065.88
391.68	1062.37
392.05	1073.84
392.42	1075.71
392.79	1071.50
393.16	1067.99
393.53	1066.35
393.89	1077.58
394.26	1071.26
394.63	1074.77
395.00	1084.37
395.37	1093.03
395.74	1086.01
396.11	1091.39
396.48	1089.29
396.84	1081.80
397.21	1086.24
397.58	1075.01
397.95	1083.20
398.32	1085.31
398.69	1086.01
399.06	1081.09
399.42	1087.88
399.79	1070.56
400.16	1063.07
400.53	1056.28
400.90	1050.43
401.27	1053.24
401.64	1060.26
402.00	1064.48
402.37	1060.96
402.74	1067.05
403.11	1059.79
403.48	1058.39
403.84	1059.09
404.21	1075.71
404.58	1078.28
404.95	1080.86
405.32	1075.24
405.68	1076.65
406.05	1055.82
406.42	1052.30
406.79	1059.09
407.16	1071.73
407.52	1065.65
407.89	1066.11
408.26	1069.39
408.63	1058.62
408.99	1060.03
409.36	1067.52
409.73	1077.35
410.10	1072.90
410.47	1083.67
410.83	1075.71
411.20	1073.14
411.57	1076.41
411.94	1071.03
412.30	1071.26
412.67	1074.07
413.04	1080.86
413.40	1080.86
413.77	1073.37
414.14	1070.80
414.51	1075.01
414.87	1062.37
415.24	1060.73
415.61	1075.01
415.97	1077.35
416.34	1075.01
416.71	1083.67
417.08	1083.67
417.44	1080.39
417.81	1075.94
418.18	1071.73
418.54	1065.88
418.91	1066.35
419.28	1062.84
419.64	1063.54
420.01	1060.50
420.38	1051.13
420.74	1043.41
421.11	1054.41
421.48	1056.05
421.84	1064.94
422.21	1074.54
422.58	1082.97
422.94	1083.67
423.31	1076.65
423.68	1086.24
424.04	1087.18
424.41	1085.07
424.77	1082.26
425.14	1087.65
425.51	1076.41
425.87	1077.58
426.24	1078.75
426.61	1074.54
426.97	1074.54
427.34	1067.75
427.70	1073.37
428.07	1075.94
428.44	1075.94
428.80	1077.58
429.17	1089.52
429.53	1079.92
429.90	1078.05
430.27	1082.73
430.63	1089.52
431.00	1086.24
431.36	1089.05
431.73	1094.20
432.09	1096.78
432.46	1094.20
432.83	1092.80
433.19	1095.60
433.56	1094.67
433.92	1092.09
434.29	1086.94
434.65	1089.99
435.02	1096.31
435.38	1090.46
435.75	1085.31
436.11	1087.65
436.48	1085.31
436.84	1086.24
437.21	1084.37
437.57	1094.20
437.94	1088.12
438.30	1077.35
438.67	1061.67
439.03	1066.82
439.40	1057.92
439.76	1067.52
440.13	1072.20
440.49	1073.14
440.86	1078.05
441.22	1075.24
441.59	1075.48
441.95	1076.18
442.32	1081.33
442.68	1073.60
443.05	1081.80
443.41	1075.48
443.78	1087.88
444.14	1093.03
444.51	1091.39
444.87	1085.54
445.24	1084.84
445.60	1079.46
445.96	1077.35
446.33	1082.26
446.69	1082.97
447.06	1087.41
447.42	1090.69
447.79	1083.67
448.15	1076.65
448.51	1086.71
448.88	1077.11
449.24	1072.43
449.61	1081.56
449.97	1080.39
450.33	1084.60
450.70	1093.97
451.06	1097.24
451.43	1097.24
451.79	1105.44
452.15	1091.86
452.52	1086.71
452.88	1076.41
453.24	1067.52
453.61	1059.09
453.97	1061.90
454.34	1065.88
454.70	1065.65
455.06	1066.35
455.43	1072.20
455.79	1071.26
456.15	1067.75
456.52	1070.56
456.88	1077.58
457.24	1082.50
457.61	1083.20
457.97	1088.82
458.33	1083.43
458.70	1070.56
459.06	1059.09
459.42	1064.94
459.79	1064.48
460.15	1074.31
460.51	1082.97
460.88	1088.82
461.24	1078.05
461.60	1063.54
461.96	1048.79
462.33	1047.39
462.69	1039.20
463.05	1053.71
463.42	1063.07
463.78	1077.82
464.14	1078.28
464.50	1074.54
464.87	1072.20
465.23	1079.92
465.59	1077.58
465.95	1081.80
466.32	1090.46
466.68	1087.18
467.04	1083.90
467.40	1081.09
467.77	1069.62
468.13	1076.18
468.49	1077.58
468.85	1086.94
469.22	1084.60
469.58	1093.73
469.94	1091.16
470.30	1079.92
470.66	1063.31
471.03	1067.75
471.39	1074.07
471.75	1069.16
472.11	1077.58
472.47	1089.52
472.84	1085.31
473.20	1072.90
473.56	1076.88
473.92	1063.54
474.28	1055.11
474.65	1066.82
475.01	1073.60
475.37	1078.05
475.73	1089.05
476.09	1084.84
476.45	1074.31
476.81	1076.65
477.18	1078.05
477.54	1073.60
477.90	1084.37
478.26	1090.69
478.62	1080.39
478.98	1081.33
479.34	1089.99
479.71	1086.94
480.07	1083.20
480.43	1086.48
480.79	1079.69
481.15	1071.97
481.51	1064.71
481.87	1060.03
482.23	1062.60
482.59	1062.84
482.96	1064.71
483.32	1068.92
483.68	1083.90
484.04	1091.86
484.40	1096.54
484.76	1094.90
485.12	1101.46
485.48	1090.22
485.84	1084.60
486.20	1078.75
486.56	1084.84
486.92	1070.09
487.28	1069.39
487.64	1071.97
488.00	1078.05
488.37	1077.11
488.73	1085.07
489.09	1098.18
489.45	1099.12
489.81	1103.80
490.17	1103.33
490.53	1099.12
490.89	1083.43
491.25	1077.82
491.61	1067.75
491.97	1076.88
492.33	1089.75
492.69	1100.75
493.05	1105.67
493.41	1112.46
493.77	1104.73
494.13	1102.86
494.49	1094.67
494.85	1085.77
495.21	1086.24
495.57	1087.41
495.93	1084.37
496.29	1088.82
496.64	1086.71
497.00	1073.37
497.36	1075.48
497.72	1068.22
498.08	1068.69
498.44	1075.94
498.80	1089.52
499.16	1080.39
499.52	1094.20
499.88	1097.01
500.24	1092.09
500.60	1086.24
500.96	1092.33
501.32	1083.67
501.68	1082.03
502.03	1091.63
502.39	1094.67
502.75	1093.26
503.11	1090.22
503.47	1087.18
503.83	1081.33
504.19	1077.11
504.55	1067.99
504.91	1052.54
505.26	1062.14
505.62	1072.43
505.98	1066.35
506.34	1061.90
506.70	1077.35
507.06	1077.82
507.42	1070.33
507.78	1077.35
508.13	1091.86
508.49	1108.24
508.85	1107.54
509.21	1111.99
509.57	1109.65
509.93	1107.31
510.28	1094.20
510.64	1087.18
511.00	1082.73
511.36	1084.60
511.72	1093.03
512.07	1093.97
512.43	1094.90
512.79	1090.92
513.15	1095.84
513.51	1090.92
513.86	1087.88
514.22	1084.84
514.58	1087.18
514.94	1081.56
515.30	1089.75
515.65	1090.92
516.01	1091.63
516.37	1098.88
516.73	1104.97
517.08	1097.95
517.44	1094.43
517.80	1084.37
518.16	1086.01
518.51	1083.67
518.87	1087.18
519.23	1092.56
519.59	1106.61
519.94	1101.69
520.30	1102.86
520.66	1095.37
521.01	1092.80
521.37	1084.14
521.73	1086.01
522.09	1095.84
522.44	1096.31
522.80	1093.26
523.16	1106.37
523.51	1111.29
523.87	1099.12
524.23	1098.65
524.58	1103.80
524.94	1099.35
525.30	1090.46
525.65	1088.58
526.01	1090.46
526.37	1096.07
526.72	1096.07
527.08	1103.09
527.44	1098.41
527.79	1095.60
528.15	1091.16
528.51	1087.18
528.86	1077.35
529.22	1089.29
529.58	1092.80
529.93	1092.80
530.29	1098.41
530.65	1103.56
531.00	1098.65
531.36	1102.63
531.71	1105.67
532.07	1095.37
532.43	1096.78
532.78	1094.43
533.14	1088.82
533.49	1095.37
533.85	1103.80
534.21	1101.46
534.56	1104.03
534.92	1108.01
535.27	1094.43
535.63	1086.71
535.98	1087.65
536.34	1091.39
536.69	1086.71
537.05	1083.67
537.41	1093.97
537.76	1099.82
538.12	1093.97
538.47	1090.22
538.83	1106.37
539.18	1100.29
539.54	1091.16
539.89	1095.14
540.25	1102.39
540.60	1101.22
540.96	1100.52
541.31	1102.39
541.67	1101.69
542.02	1110.82
542.38	1102.39
542.73	1101.92
543.09	1094.67
543.44	1097.24
543.80	1091.63
544.15	1095.14
544.51	1095.14
544.86	1104.03
545.22	1098.65
545.57	1090.22
545.93	1083.90
546.28	1082.97
546.64	1079.92
546.99	1076.88
547.35	1081.09
547.70	1087.18
548.05	1087.41
548.41	1091.63
548.76	1100.29
549.12	1108.24
549.47	1099.82
549.83	1103.33
550.18	1099.12
550.53	1086.24
550.89	1066.58
551.24	1071.26
551.60	1075.24
551.95	1080.16
552.30	1087.41
552.66	1086.71
553.01	1082.73
553.37	1068.45
553.72	1060.73
554.07	1060.26
554.43	1066.11
554.78	1072.20
555.13	1084.84
555.49	1093.50
555.84	1088.58
556.19	1087.18
556.55	1085.77
556.90	1075.24
557.26	1064.94
557.61	1062.14
557.96	1069.86
558.32	1067.28
558.67	1077.35
559.02	1085.77
559.37	1093.03
559.73	1080.39
560.08	1086.94
560.43	1080.39
560.79	1071.03
561.14	1059.09
561.49	1064.48
561.85	1060.50
562.20	1066.11
562.55	1073.37
562.90	1089.29
563.26	1092.09
563.61	1090.92
563.96	1095.37
564.32	1098.88
564.67	1097.24
565.02	1090.22
565.37	1087.41
565.73	1089.99
566.08	1080.16
566.43	1076.41
566.78	1081.33
567.14	1074.31
567.49	1066.58
567.84	1069.86
568.19	1077.11
568.54	1089.05
568.90	1097.24
569.25	1094.67
569.60	1087.88
569.95	1087.88
570.31	1081.80
570.66	1090.46
571.01	1086.71
571.36	1093.26
571.71	1084.37
572.06	1082.73
572.42	1082.03
572.77	1084.60
573.12	1081.33
573.47	1088.35
573.82	1089.52
574.18	1093.97
574.53	1098.41
574.88	1102.16
575.23	1098.41
575.58	1092.80
575.93	1081.33
576.28	1090.22
576.64	1090.92
576.99	1097.01
577.34	1100.05
577.69	1103.09
578.04	1086.94
578.39	1087.65
578.74	1075.24
579.09	1083.90
579.44	1084.37
579.80	1078.99
580.15	1080.39
580.50	1082.73
580.85	1067.52
581.20	1064.48
581.55	1075.71
581.90	1072.67
582.25	1068.69
582.60	1079.69
582.95	1076.65
583.30	1075.01
583.65	1075.24
584.00	1084.60
584.35	1071.73
584.71	1083.20
585.06	1087.41
585.41	1088.58
585.76	1087.88
586.11	1089.29
586.46	1082.50
586.81	1077.35
587.16	1079.22
587.51	1079.92
587.86	1098.18
588.21	1101.22
588.56	1106.14
588.91	1106.37
589.26	1110.58
589.61	1097.48
589.96	1094.67
590.31	1089.52
590.66	1084.14
591.01	1071.26
591.36	1074.77
591.71	1069.62
592.06	1072.90
592.41	1080.63
592.76	1089.52
593.10	1081.80
593.45	1089.29
593.80	1083.67
594.15	1078.99
594.50	1077.35
594.85	1078.75
595.20	1076.65
595.55	1078.52
595.90	1076.65
596.25	1082.73
596.60	1085.54
596.95	1085.54
597.30	1085.54
597.64	1140.31
597.99	1133.05
598.34	1136.80
598.69	1132.82
599.04	1139.61
599.39	1086.48
599.74	1084.37
600.09	1086.94
600.44	1084.37
600.78	1079.92
601.13	1078.28
601.48	1080.86
601.83	1085.07
602.18	1094.67
602.53	1089.99
602.88	1088.58
603.22	1089.75
603.57	1081.09
603.92	1072.67
604.27	1071.03
604.62	1073.14
604.97	1077.82
605.31	1078.05
605.66	1092.56
606.01	1092.56
606.36	1092.56
606.71	1083.90
607.05	1078.52
607.40	1075.01
607.75	1084.14
608.10	1089.05
608.44	1089.99
608.79	1095.84
609.14	1088.58
609.49	1087.41
609.84	1082.50
610.18	1080.63
610.53	1085.77
610.88	1089.29
611.23	1088.12
611.57	1092.33
611.92	1097.95
612.27	1089.52
612.62	1081.09
612.96	1073.84
613.31	1069.62
613.66	1073.14
614.00	1077.58
614.35	1076.65
614.70	1079.22
615.05	1074.54
615.39	1068.22
615.74	1070.56
616.09	1071.50
616.43	1080.63
616.78	1083.20
617.13	1087.18
617.47	1072.90
617.82	1071.03
618.17	1071.03
618.51	1069.16
618.86	1067.52
619.21	1085.31
619.55	1094.67
619.90	1087.18
620.25	1098.65
620.59	1086.94
620.94	1076.88
621.29	1075.01
621.63	1078.28
621.98	1062.60
622.32	1079.69
622.67	1073.37
623.02	1068.45
623.36	1066.11
623.71	1071.50
624.05	1070.33
624.40	1077.58
624.75	1089.75
625.09	1086.01
625.44	1086.01
625.78	1085.77
626.13	1078.99
626.48	1073.60
626.82	1075.71
627.17	1060.96
627.51	1061.67
627.86	1065.65
628.20	1064.01
628.55	1060.73
628.89	1067.52
629.24	1061.43
629.58	1072.67
629.93	1074.54
630.28	1075.01
630.62	1089.52
630.97	1093.26
631.31	1094.20
631.66	1081.56
632.00	1086.71
632.35	1082.97
632.69	1078.05
633.04	1067.28
633.38	1071.03
633.73	1068.45
634.07	1070.56
634.42	1074.77
634.76	1075.48
635.11	1079.22
635.45	1078.75
635.79	1085.54
636.14	1074.07
636.48	1068.92
636.83	1068.92
637.17	1066.58
637.52	1060.50
637.86	1074.77
638.21	1087.65
638.55	1086.01
638.89	1102.86
639.24	1096.78
639.58	1089.99
639.93	1090.22
640.27	1100.52
640.61	1088.58
640.96	1087.65
641.30	1088.12
641.65	1088.35
641.99	1079.22
642.33	1075.48
642.68	1081.56
643.02	1080.16
643.37	1078.05
643.71	1071.26
644.05	1078.28
644.40	1082.26
644.74	1089.52
645.08	1095.14
645.43	1100.05
645.77	1090.69
646.11	1078.52
646.46	1066.11
646.80	1049.96
647.14	1052.07
647.49	1066.82
647.83	1072.20
648.17	1082.26
648.52	1092.09
648.86	1099.35
649.20	1089.75
649.55	1086.01
649.89	1078.99
650.23	1068.45
650.57	1062.37
650.92	1060.96
651.26	1064.71
651.60	1069.39
651.95	1073.37
652.29	1075.01
652.63	1072.67
652.97	1072.90
653.32	1069.16
653.66	1067.52
654.00	1073.84
654.34	1084.60
654.69	1088.58
655.03	1091.16
655.37	1089.99
655.71	1075.94
656.05	1070.56
656.40	1064.01
656.74	1060.26
657.08	1063.31
657.42	1073.37
657.76	1077.11
658.11	1070.33
658.45	1073.60
658.79	1071.73
659.13	1070.80
659.47	1063.54
659.82	1083.67
660.16	1089.29
660.50	1089.99
660.84	1086.24
661.18	1085.77
661.52	1083.43
661.87	1081.56
662.21	1085.31
662.55	1078.75
662.89	1082.73
663.23	1075.24
663.57	1081.09
663.91	1085.31
664.25	1092.09
664.60	1096.31
664.94	1096.54
665.28	1093.26
665.62	1085.31
665.96	1084.14
666.30	1072.67
666.64	1062.60
666.98	1059.33
667.32	1067.75
667.66	1064.24
668.01	1067.28
668.35	1079.92
668.69	1073.84
669.03	1071.73
669.37	1082.97
669.71	1096.31
670.05	1098.18
670.39	1099.82
670.73	1101.22
671.07	1095.60
671.41	1089.05
671.75	1077.35
672.09	1087.18
672.43	1084.84
672.77	1089.05
673.11	1085.31
673.45	1097.24
673.79	1091.16
674.13	1094.67
674.47	1089.05
674.81	1086.24
675.15	1073.37
675.49	1073.84
675.83	1069.62
676.17	1072.90
676.51	1069.39
676.85	1075.48
677.19	1068.22
677.53	1069.86
677.87	1064.94
678.21	1069.86
678.55	1075.24
678.89	1083.20
679.23	1078.52
679.57	1071.97
679.90	1071.97
680.24	1062.60
680.58	1060.96
680.92	1062.84
681.26	1073.14
681.60	1081.56
681.94	1088.35
682.28	1092.80
682.62	1089.29
682.96	1094.90
683.29	1092.09
683.63	1085.31
683.97	1075.94
684.31	1073.37
684.65	1071.97
684.99	1067.05
685.33	1065.41
685.67	1071.73
686.00	1077.11
686.34	1074.77
686.68	1074.31
687.02	1081.80
687.36	1073.60
687.70	1078.28
688.03	1076.65
688.37	1062.37
688.71	1056.75
689.05	1060.50
689.39	1056.05
689.72	1058.86
690.06	1077.11
690.40	1084.60
690.74	1084.60
691.08	1089.75
691.41	1092.09
691.75	1095.14
692.09	1089.29
692.43	1097.01
692.76	1088.82
693.10	1080.63
693.44	1084.60
693.78	1088.12
694.11	1080.86
694.45	1086.48
694.79	1093.73
695.13	1080.63
695.46	1081.80
695.80	1084.14
696.14	1081.56
696.48	1077.58
696.81	1080.39
697.15	1076.18
697.49	1075.71
697.82	1081.56
698.16	1082.26
698.50	1074.31
698.83	1073.84
699.17	1073.84
699.51	1065.18
699.84	1059.09
700.18	1067.99
700.52	1075.71
700.85	1074.54
701.19	1080.63
701.53	1081.56
701.86	1081.56
702.20	1078.05
702.54	1079.46
702.87	1081.33
703.21	1086.94
703.55	1082.03
703.88	1079.46
704.22	1086.71
704.55	1075.01
704.89	1074.07
705.23	1081.09
705.56	1078.52
705.90	1063.07
706.23	1065.88
706.57	1062.37
706.91	1055.82
707.24	1049.50
707.58	1058.62
707.91	1056.05
708.25	1055.82
708.58	1070.09
708.92	1075.48
709.26	1081.56
709.59	1095.37
709.93	1104.26
710.26	1097.95
710.60	1104.03
710.93	1098.88
711.27	1085.07
711.60	1077.11
711.94	1076.65
712.27	1069.86
712.61	1072.67
712.94	1080.86
713.28	1080.39
713.61	1074.77
713.95	1075.24
714.28	1072.20
714.62	1070.09
714.95	1073.60
715.29	1069.86
715.62	1068.92
715.96	1066.35
716.29	1074.77
716.63	1088.58
716.96	1099.58
717.29	1104.50
717.63	1102.39
717.96	1090.46
718.30	1072.20
718.63	1067.75
718.97	1065.88
719.30	1076.18
719.63	1087.88
719.97	1092.33
720.30	1099.35
720.64	1107.31
720.97	1105.67
721.30	1104.97
721.64	1100.29
721.97	1093.97
722.31	1096.78
722.64	1086.71
722.97	1077.58
723.31	1075.24
723.64	1067.75
723.97	1049.73
724.31	1057.45
724.64	1064.71
724.98	1075.01
725.31	1079.46
725.64	1095.37
725.98	1090.46
726.31	1093.73
726.64	1085.07
726.97	1085.77
727.31	1075.71
727.64	1064.71
727.97	1051.60
728.31	1062.84
728.64	1062.14
728.97	1066.11
729.31	1078.75
729.64	1091.39
729.97	1086.94
730.30	1090.22
730.64	1097.24
730.97	1097.01
731.30	1090.22
731.63	1084.14
731.97	1081.56
732.30	1077.82
732.63	1076.41
732.96	1069.39
733.30	1069.39
733.63	1064.94
733.96	1059.79
734.29	1063.77
734.63	1064.48
734.96	1066.35
735.29	1072.90
735.62	1081.33
735.95	1075.48
736.29	1084.60
736.62	1088.12
736.95	1084.14
737.28	1081.33
737.61	1088.35
737.94	1088.58
738.28	1086.24
738.61	1099.12
738.94	1101.46
739.27	1096.07
739.60	1086.01
739.93	1092.09
740.27	1077.11
740.60	1067.75
740.93	1074.54
741.26	1085.77
741.59	1085.77
741.92	1088.82
742.25	1090.69
742.58	1080.63
742.91	1074.77
743.25	1069.62
743.58	1074.77
743.91	1085.54
744.24	1094.67
744.57	1094.67
744.90	1087.41
745.23	1090.92
745.56	1089.05
745.89	1084.84
746.22	1086.48
746.55	1086.01
746.88	1080.39
747.21	1068.69
747.54	1064.48
747.87	1056.52
748.20	1067.99
748.53	1077.35
748.87	1078.99
749.20	1090.92
749.53	1100.05
749.86	1099.12
750.19	1094.67
750.52	1099.58
750.85	1092.56
751.18	1101.46
751.51	1098.65
751.84	1098.41
752.16	1096.54
752.49	1095.84
752.82	1080.16
753.15	1078.75
753.48	1072.90
753.81	1075.48
754.14	1081.33
754.47	1089.75
754.80	1083.67
755.13	1083.43
755.46	1080.63
755.79	1072.90
756.12	1070.80
756.45	1076.41
756.78	1076.18
757.11	1079.22
757.43	1080.16
757.76	1082.50
758.09	1082.97
758.42	1080.63
758.75	1074.77
759.08	1073.14
759.41	1067.52
759.74	1069.16
760.07	1074.54
760.39	1083.67
760.72	1092.80
761.05	1095.14
761.38	1101.22
761.71	1105.67
762.04	1097.24
762.36	1098.88
762.69	1098.41
763.02	1084.84
763.35	1073.14
763.68	1076.65
764.01	1071.03
764.33	1068.92
764.66	1082.50
764.99	1097.95
765.32	1097.24
765.65	1096.07
765.97	1092.56
766.30	1091.86
