SpectraSuite Data File
++++++++++++++++++++++++++++++++++++
Date: Mon Aug 26 10:25:57 PDT 2019
User: corrico
Dark Spectrum Present: No
Reference Spectrum Present: No
Number of Sampled Component Spectra: 1
Spectrometers: USB2+H06089
Integration Time (usec): 10000 (USB2+H06089)
Spectra Averaged: 2 (USB2+H06089)
Boxcar Smoothing: 2 (USB2+H06089)
Correct for Electrical Dark: No (USB2+H06089)
Strobe/Lamp Enabled: No (USB2+H06089)
Correct for Detector Non-linearity: No (USB2+H06089)
Correct for Stray Light: No (USB2+H06089)
Number of Pixels in Processed Spectrum: 2048
>>>>>Begin Processed Spectral Data<<<<<
339.70	1047.39
340.07	1047.39
340.45	992.86
340.82	967.11
341.19	946.28
341.57	914.45
341.94	927.79
342.31	926.15
342.69	923.11
343.06	912.11
343.43	916.79
343.81	915.15
344.18	908.60
344.55	914.21
344.93	919.36
345.30	923.58
345.67	919.13
346.04	942.07
346.42	941.60
346.79	947.92
347.16	960.09
347.54	961.02
347.91	963.13
348.28	975.77
348.65	988.88
349.03	993.56
349.40	1007.37
349.77	1008.54
350.14	1013.92
350.52	1023.98
350.89	1039.43
351.26	1044.82
351.63	1055.11
352.01	1069.39
352.38	1071.26
352.75	1063.77
353.12	1080.39
353.50	1078.99
353.87	1075.94
354.24	1067.05
354.61	1067.28
354.98	1057.22
355.36	1063.54
355.73	1065.88
356.10	1074.07
356.47	1074.31
356.84	1082.97
357.22	1079.92
357.59	1076.18
357.96	1089.05
358.33	1086.48
358.70	1078.52
359.08	1084.14
359.45	1087.41
359.82	1067.75
360.19	1076.18
360.56	1084.84
360.94	1071.97
361.31	1072.67
361.68	1080.16
362.05	1067.75
362.42	1063.07
362.79	1076.88
363.16	1068.69
363.54	1072.67
363.91	1087.88
364.28	1090.69
364.65	1083.20
365.02	1089.52
365.39	1084.14
365.76	1075.48
366.14	1074.07
366.51	1071.50
366.88	1071.26
367.25	1063.77
367.62	1076.41
367.99	1067.75
368.36	1069.86
368.73	1073.14
369.10	1083.20
369.48	1075.94
369.85	1084.84
370.22	1086.94
370.59	1084.14
370.96	1081.09
371.33	1078.05
371.70	1072.67
372.07	1070.56
372.44	1079.69
372.81	1090.46
373.18	1090.69
373.55	1090.22
373.93	1099.82
374.30	1099.58
374.67	1090.69
375.04	1095.14
375.41	1100.29
375.78	1079.92
376.15	1066.82
376.52	1061.20
376.89	1062.84
377.26	1062.60
377.63	1073.60
378.00	1079.22
378.37	1084.14
378.74	1077.35
379.11	1076.65
379.48	1078.52
379.85	1077.35
380.22	1070.56
380.59	1069.39
380.96	1064.01
381.33	1061.90
381.70	1062.60
382.07	1067.99
382.44	1067.28
382.81	1064.48
383.18	1062.60
383.55	1059.33
383.92	1061.67
384.29	1067.52
384.66	1080.16
385.03	1083.43
385.40	1076.18
385.77	1073.84
386.14	1064.01
386.51	1052.77
386.88	1046.69
387.25	1052.77
387.62	1056.05
387.99	1065.65
388.36	1077.82
388.73	1089.75
389.10	1090.92
389.46	1095.37
389.83	1096.07
390.20	1080.39
390.57	1073.14
390.94	1076.18
391.31	1074.31
391.68	1067.52
392.05	1073.37
392.42	1079.22
392.79	1075.01
393.16	1078.99
393.53	1083.20
393.89	1084.14
394.26	1080.16
394.63	1085.31
395.00	1068.45
395.37	1072.90
395.74	1073.37
396.11	1064.24
396.48	1062.14
396.84	1075.01
397.21	1069.86
397.58	1065.41
397.95	1078.99
398.32	1078.05
398.69	1079.69
399.06	1080.16
399.42	1079.69
399.79	1070.33
400.16	1067.28
400.53	1073.84
400.90	1068.22
401.27	1073.60
401.64	1076.18
402.00	1085.07
402.37	1074.54
402.74	1094.90
403.11	1092.80
403.48	1092.56
403.84	1082.26
404.21	1081.80
404.58	1061.20
404.95	1061.20
405.32	1056.99
405.68	1048.33
406.05	1044.58
406.42	1049.96
406.79	1052.77
407.16	1060.03
407.52	1075.01
407.89	1085.54
408.26	1088.12
408.63	1088.35
408.99	1084.84
409.36	1086.94
409.73	1069.62
410.10	1070.33
410.47	1065.65
410.83	1068.69
411.20	1064.48
411.57	1078.05
411.94	1068.22
412.30	1060.96
412.67	1061.43
413.04	1065.41
413.40	1057.45
413.77	1072.90
414.14	1083.90
414.51	1092.33
414.87	1090.22
415.24	1105.20
415.61	1095.37
415.97	1096.07
416.34	1086.71
416.71	1081.09
417.08	1067.52
417.44	1071.26
417.81	1070.80
418.18	1071.26
418.54	1077.35
418.91	1086.24
419.28	1092.33
419.64	1091.86
420.01	1092.80
420.38	1095.14
420.74	1095.14
421.11	1094.43
421.48	1084.37
421.84	1086.01
422.21	1074.31
422.58	1077.58
422.94	1066.35
423.31	1083.20
423.68	1079.92
424.04	1086.94
424.41	1078.99
424.77	1080.16
425.14	1071.03
425.51	1070.56
425.87	1077.11
426.24	1067.28
426.61	1071.03
426.97	1076.18
427.34	1075.71
427.70	1063.54
428.07	1065.88
428.44	1060.73
428.80	1050.20
429.17	1051.60
429.53	1064.71
429.90	1081.80
430.27	1080.63
430.63	1087.41
431.00	1086.24
431.36	1084.14
431.73	1078.75
432.09	1083.43
432.46	1074.07
432.83	1073.60
433.19	1074.77
433.56	1069.86
433.92	1070.33
434.29	1082.03
434.65	1095.84
435.02	1105.44
435.38	1093.50
435.75	1087.18
436.11	1084.37
436.48	1078.99
436.84	1070.56
437.21	1081.80
437.57	1089.05
437.94	1100.05
438.30	1095.84
438.67	1086.94
439.03	1090.22
439.40	1085.31
439.76	1077.82
440.13	1067.75
440.49	1069.62
440.86	1064.48
441.22	1065.41
441.59	1072.20
441.95	1073.60
442.32	1082.73
442.68	1087.88
443.05	1093.97
443.41	1093.50
443.78	1097.24
444.14	1097.24
444.51	1096.07
444.87	1100.29
445.24	1096.07
445.60	1106.14
445.96	1091.63
446.33	1094.90
446.69	1091.86
447.06	1093.26
447.42	1087.41
447.79	1092.80
448.15	1096.54
448.51	1089.99
448.88	1074.77
449.24	1075.94
449.61	1074.07
449.97	1070.80
450.33	1073.14
450.70	1082.26
451.06	1082.73
451.43	1081.80
451.79	1074.07
452.15	1082.03
452.52	1077.11
452.88	1062.37
453.24	1058.62
453.61	1060.26
453.97	1053.71
454.34	1059.79
454.70	1071.03
455.06	1082.97
455.43	1084.14
455.79	1081.33
456.15	1081.33
456.52	1081.56
456.88	1085.77
457.24	1094.67
457.61	1092.33
457.97	1089.99
458.33	1096.54
458.70	1085.07
459.06	1079.22
459.42	1085.07
459.79	1090.92
460.15	1082.50
460.51	1087.88
460.88	1085.54
461.24	1076.65
461.60	1072.20
461.96	1068.92
462.33	1070.33
462.69	1066.11
463.05	1078.52
463.42	1079.46
463.78	1084.84
464.14	1082.73
464.50	1087.18
464.87	1071.26
465.23	1064.94
465.59	1066.82
465.95	1065.65
466.32	1062.14
466.68	1074.31
467.04	1081.33
467.40	1081.33
467.77	1085.07
468.13	1084.84
468.49	1089.52
468.85	1094.20
469.22	1102.63
469.58	1103.56
469.94	1111.99
470.30	1114.33
470.66	1105.67
471.03	1093.97
471.39	1084.60
471.75	1076.65
472.11	1072.43
472.47	1078.75
472.84	1067.52
473.20	1071.50
473.56	1075.24
473.92	1072.67
474.28	1067.52
474.65	1074.54
475.01	1072.20
475.37	1072.67
475.73	1075.24
476.09	1093.03
476.45	1093.97
476.81	1104.73
477.18	1105.67
477.54	1096.78
477.90	1075.94
478.26	1077.35
478.62	1070.09
478.98	1068.69
479.34	1074.31
479.71	1080.39
480.07	1087.41
480.43	1087.65
480.79	1088.82
481.15	1091.39
481.51	1093.50
481.87	1089.75
482.23	1088.12
482.59	1090.92
482.96	1089.52
483.32	1090.69
483.68	1080.63
484.04	1078.05
484.40	1063.54
484.76	1059.79
485.12	1058.62
485.48	1067.75
485.84	1067.52
486.20	1083.20
486.56	1082.26
486.92	1078.75
487.28	1086.01
487.64	1077.82
488.00	1069.39
488.37	1071.50
488.73	1075.48
489.09	1078.99
489.45	1099.58
489.81	1104.03
490.17	1106.14
490.53	1103.56
490.89	1093.03
491.25	1090.92
491.61	1091.63
491.97	1093.97
492.33	1102.63
492.69	1099.82
493.05	1094.43
493.41	1087.18
493.77	1080.63
494.13	1076.65
494.49	1082.73
494.85	1085.07
495.21	1090.92
495.57	1087.41
495.93	1088.82
496.29	1088.35
496.64	1077.82
497.00	1073.37
497.36	1083.43
497.72	1073.84
498.08	1067.05
498.44	1068.92
498.80	1073.84
499.16	1069.86
499.52	1069.62
499.88	1068.22
500.24	1073.60
500.60	1079.92
500.96	1082.97
501.32	1089.52
501.68	1096.07
502.03	1100.05
502.39	1097.71
502.75	1093.50
503.11	1099.12
503.47	1100.99
503.83	1095.60
504.19	1087.65
504.55	1087.18
504.91	1071.50
505.26	1062.37
505.62	1060.50
505.98	1068.22
506.34	1072.20
506.70	1084.84
507.06	1092.33
507.42	1101.69
507.78	1100.52
508.13	1104.50
508.49	1106.84
508.85	1102.86
509.21	1092.56
509.57	1082.26
509.93	1079.22
510.28	1074.31
510.64	1084.37
511.00	1095.37
511.36	1105.20
511.72	1105.90
512.07	1107.54
512.43	1096.54
512.79	1090.22
513.15	1089.52
513.51	1086.94
513.86	1086.01
514.22	1093.73
514.58	1095.60
514.94	1093.73
515.30	1092.09
515.65	1089.29
516.01	1087.18
516.37	1083.90
516.73	1087.18
517.08	1096.78
517.44	1097.48
517.80	1102.86
518.16	1100.99
518.51	1112.46
518.87	1109.88
519.23	1107.07
519.59	1093.73
519.94	1105.44
520.30	1090.92
520.66	1079.46
521.01	1082.03
521.37	1093.50
521.73	1086.48
522.09	1094.20
522.44	1106.14
522.80	1104.73
523.16	1094.90
523.51	1099.12
523.87	1094.20
524.23	1092.33
524.58	1101.22
524.94	1124.16
525.30	1124.63
525.65	1113.39
526.01	1114.33
526.37	1113.16
526.72	1097.24
527.08	1088.58
527.44	1104.26
527.79	1098.41
528.15	1097.01
528.51	1100.29
528.86	1111.29
529.22	1109.41
529.58	1113.63
529.93	1104.97
530.29	1108.01
530.65	1114.33
531.00	1112.46
531.36	1100.75
531.71	1100.99
532.07	1095.14
532.43	1074.77
532.78	1068.22
533.14	1082.97
533.49	1079.69
533.85	1075.01
534.21	1090.69
534.56	1090.22
534.92	1090.92
535.27	1103.33
535.63	1115.50
535.98	1105.20
536.34	1112.46
536.69	1109.65
537.05	1106.61
537.41	1110.82
537.76	1115.03
538.12	1114.10
538.47	1116.20
538.83	1113.86
539.18	1106.37
539.54	1104.03
539.89	1102.86
540.25	1092.80
540.60	1096.54
540.96	1094.67
541.31	1090.92
541.67	1086.94
542.02	1086.71
542.38	1078.99
542.73	1068.45
543.09	1067.75
543.44	1070.56
543.80	1078.75
544.15	1080.86
544.51	1076.88
544.86	1077.82
545.22	1078.52
545.57	1067.05
545.93	1060.26
546.28	1067.05
546.64	1072.67
546.99	1072.20
547.35	1071.97
547.70	1072.67
548.05	1070.56
548.41	1058.86
548.76	1060.50
549.12	1068.45
549.47	1071.97
549.83	1080.86
550.18	1088.82
550.53	1089.99
550.89	1091.63
551.24	1092.80
551.60	1089.52
551.95	1085.31
552.30	1089.75
552.66	1086.48
553.01	1092.56
553.37	1095.84
553.72	1100.75
554.07	1086.71
554.43	1095.60
554.78	1078.05
555.13	1074.54
555.49	1075.48
555.84	1084.14
556.19	1077.58
556.55	1084.60
556.90	1086.01
557.26	1076.88
557.61	1076.18
557.96	1073.14
558.32	1080.86
558.67	1084.60
559.02	1089.29
559.37	1083.20
559.73	1096.07
560.08	1096.54
560.43	1088.58
560.79	1093.73
561.14	1097.48
561.49	1087.88
561.85	1090.69
562.20	1092.33
562.55	1082.26
562.90	1092.56
563.26	1097.95
563.61	1093.97
563.96	1091.63
564.32	1099.82
564.67	1085.07
565.02	1082.50
565.37	1085.77
565.73	1097.48
566.08	1093.50
566.43	1099.58
566.78	1098.41
567.14	1092.80
567.49	1084.84
567.84	1090.92
568.19	1088.82
568.54	1089.75
568.90	1095.37
569.25	1102.86
569.60	1104.03
569.95	1106.84
570.31	1098.41
570.66	1100.99
571.01	1093.73
571.36	1095.60
571.71	1099.58
572.06	1104.50
572.42	1091.16
572.77	1082.73
573.12	1079.69
573.47	1083.90
573.82	1084.37
574.18	1093.03
574.53	1098.41
574.88	1102.16
575.23	1093.26
575.58	1092.33
575.93	1086.94
576.28	1084.84
576.64	1073.14
576.99	1068.69
577.34	1071.97
577.69	1077.11
578.04	1077.35
578.39	1082.97
578.74	1085.54
579.09	1090.69
579.44	1090.22
579.80	1100.75
580.15	1097.24
580.50	1096.78
580.85	1082.97
581.20	1090.22
581.55	1087.65
581.90	1086.24
582.25	1083.90
582.60	1081.09
582.95	1078.52
583.30	1075.01
583.65	1075.71
584.00	1072.67
584.35	1079.69
584.71	1067.52
585.06	1072.43
585.41	1079.22
585.76	1078.75
586.11	1082.50
586.46	1096.78
586.81	1095.60
587.16	1090.69
587.51	1088.82
587.86	1092.09
588.21	1072.43
588.56	1068.69
588.91	1066.58
589.26	1076.65
589.61	1075.94
589.96	1087.65
590.31	1089.99
590.66	1096.31
591.01	1099.12
591.36	1087.65
591.71	1081.80
592.06	1081.56
592.41	1072.20
592.76	1063.54
593.10	1057.45
593.45	1063.54
593.80	1049.26
594.15	1057.92
594.50	1064.48
594.85	1080.16
595.20	1077.35
595.55	1090.22
595.90	1094.43
596.25	1086.94
596.60	1080.16
596.95	1088.35
597.30	1084.60
597.64	1135.39
597.99	1144.29
598.34	1151.08
598.69	1136.10
599.04	1140.07
599.39	1084.84
599.74	1081.80
600.09	1076.88
600.44	1080.39
600.78	1084.14
601.13	1068.69
601.48	1060.50
601.83	1063.54
602.18	1074.77
602.53	1067.28
602.88	1078.28
603.22	1078.99
603.57	1085.31
603.92	1086.71
604.27	1085.31
604.62	1086.48
604.97	1084.37
605.31	1080.63
605.66	1074.54
606.01	1076.41
606.36	1058.39
606.71	1067.75
607.05	1062.37
607.40	1068.45
607.75	1062.14
608.10	1082.73
608.44	1075.94
608.79	1075.24
609.14	1062.60
609.49	1076.88
609.84	1082.50
610.18	1093.03
610.53	1099.35
610.88	1117.37
611.23	1117.84
611.57	1102.86
611.92	1097.48
612.27	1087.65
612.62	1083.20
612.96	1077.11
613.31	1086.01
613.66	1084.37
614.00	1091.16
614.35	1086.24
614.70	1090.46
615.05	1089.52
615.39	1084.84
615.74	1086.01
616.09	1075.71
616.43	1072.90
616.78	1074.07
617.13	1078.05
617.47	1075.48
617.82	1083.67
618.17	1073.37
618.51	1075.24
618.86	1081.80
619.21	1077.82
619.55	1080.86
619.90	1084.14
620.25	1085.31
620.59	1081.80
620.94	1085.54
621.29	1093.97
621.63	1107.78
621.98	1099.35
622.32	1100.99
622.67	1104.73
623.02	1093.97
623.36	1091.63
623.71	1087.65
624.05	1087.88
624.40	1086.24
624.75	1079.69
625.09	1079.46
625.44	1092.33
625.78	1093.50
626.13	1090.22
626.48	1089.75
626.82	1090.46
627.17	1076.88
627.51	1075.24
627.86	1074.54
628.20	1088.82
628.55	1086.48
628.89	1091.39
629.24	1090.69
629.58	1100.75
629.93	1090.22
630.28	1089.75
630.62	1089.05
630.97	1088.58
631.31	1083.67
631.66	1084.60
632.00	1080.39
632.35	1084.60
632.69	1083.43
633.04	1075.48
633.38	1078.28
633.73	1074.77
634.07	1071.50
634.42	1075.48
634.76	1071.26
635.11	1062.37
635.45	1067.05
635.79	1074.31
636.14	1068.69
636.48	1076.41
636.83	1086.71
637.17	1085.77
637.52	1078.52
637.86	1084.14
638.21	1076.18
638.55	1071.50
638.89	1070.80
639.24	1074.54
639.58	1067.75
639.93	1073.37
640.27	1064.01
640.61	1061.90
640.96	1070.56
641.30	1060.96
641.65	1066.82
641.99	1071.97
642.33	1078.28
642.68	1064.94
643.02	1077.82
643.37	1083.90
643.71	1095.14
644.05	1099.35
644.40	1108.01
644.74	1098.18
645.08	1094.90
645.43	1094.67
645.77	1085.77
646.11	1083.67
646.46	1100.52
646.80	1094.90
647.14	1079.46
647.49	1083.43
647.83	1080.39
648.17	1065.41
648.52	1063.31
648.86	1065.18
649.20	1069.62
649.55	1072.90
649.89	1072.90
650.23	1069.39
650.57	1078.28
650.92	1078.28
651.26	1071.26
651.60	1067.52
651.95	1076.88
652.29	1073.84
652.63	1064.94
652.97	1067.52
653.32	1082.97
653.66	1078.99
654.00	1079.69
654.34	1083.90
654.69	1091.16
655.03	1081.33
655.37	1073.37
655.71	1081.33
656.05	1072.43
656.40	1070.80
656.74	1078.05
657.08	1076.18
657.42	1075.01
657.76	1089.52
658.11	1089.29
658.45	1084.60
658.79	1091.39
659.13	1082.73
659.47	1077.82
659.82	1076.41
660.16	1081.80
660.50	1089.52
660.84	1099.82
661.18	1096.31
661.52	1093.50
661.87	1100.99
662.21	1093.97
662.55	1084.14
662.89	1081.56
663.23	1084.14
663.57	1071.97
663.91	1088.12
664.25	1095.84
664.60	1100.05
664.94	1102.86
665.28	1106.37
665.62	1094.43
665.96	1088.12
666.30	1094.20
666.64	1084.14
666.98	1082.03
667.32	1087.41
667.66	1085.77
668.01	1075.01
668.35	1082.50
668.69	1087.65
669.03	1079.92
669.37	1083.90
669.71	1100.29
670.05	1101.92
670.39	1098.41
670.73	1102.63
671.07	1100.29
671.41	1080.63
671.75	1073.60
672.09	1061.20
672.43	1053.48
672.77	1058.16
673.11	1062.37
673.45	1065.41
673.79	1071.73
674.13	1074.54
674.47	1075.94
674.81	1080.86
675.15	1081.09
675.49	1086.71
675.83	1090.46
676.17	1087.65
676.51	1088.58
676.85	1090.22
677.19	1088.35
677.53	1089.52
677.87	1084.84
678.21	1079.69
678.55	1073.60
678.89	1078.99
679.23	1077.82
679.57	1074.54
679.90	1075.24
680.24	1077.58
680.58	1068.92
680.92	1071.73
681.26	1068.69
681.60	1064.01
681.94	1073.60
682.28	1077.82
682.62	1070.56
682.96	1083.43
683.29	1093.50
683.63	1090.22
683.97	1096.78
684.31	1097.71
684.65	1093.26
684.99	1076.88
685.33	1070.09
685.67	1057.45
686.00	1053.94
686.34	1053.94
686.68	1074.31
687.02	1081.33
687.36	1082.50
687.70	1081.56
688.03	1086.94
688.37	1087.88
688.71	1079.46
689.05	1083.20
689.39	1101.46
689.72	1090.46
690.06	1075.24
690.40	1073.37
690.74	1071.73
691.08	1053.24
691.41	1068.92
691.75	1074.54
692.09	1087.65
692.43	1093.26
692.76	1095.37
693.10	1088.58
693.44	1089.52
693.78	1081.09
694.11	1079.92
694.45	1082.26
694.79	1083.20
695.13	1089.75
695.46	1092.33
695.80	1083.90
696.14	1080.39
696.48	1082.03
696.81	1088.58
697.15	1086.94
697.49	1089.99
697.82	1093.03
698.16	1086.01
698.50	1074.31
698.83	1069.16
699.17	1074.77
699.51	1078.52
699.84	1081.56
700.18	1073.14
700.52	1078.05
700.85	1078.05
701.19	1079.92
701.53	1076.65
701.86	1086.48
702.20	1080.16
702.54	1078.99
702.87	1070.33
703.21	1081.56
703.55	1069.86
703.88	1081.80
704.22	1084.60
704.55	1084.37
704.89	1074.77
705.23	1086.71
705.56	1081.33
705.90	1090.69
706.23	1091.63
706.57	1094.43
706.91	1082.50
707.24	1084.84
707.58	1081.56
707.91	1090.22
708.25	1085.31
708.58	1099.82
708.92	1106.61
709.26	1097.95
709.59	1086.01
709.93	1095.37
710.26	1088.35
710.60	1093.50
710.93	1096.31
711.27	1106.37
711.60	1100.99
711.94	1104.26
712.27	1091.86
712.61	1089.29
712.94	1081.56
713.28	1080.16
713.61	1082.03
713.95	1077.82
714.28	1077.82
714.62	1089.99
714.95	1088.35
715.29	1086.01
715.62	1083.90
715.96	1086.94
716.29	1073.37
716.63	1068.69
716.96	1071.03
717.29	1072.20
717.63	1068.22
717.96	1072.67
718.30	1074.54
718.63	1068.22
718.97	1077.35
719.30	1075.01
719.63	1078.05
719.97	1095.37
720.30	1100.99
720.64	1105.90
720.97	1114.33
721.30	1115.03
721.64	1099.82
721.97	1098.41
722.31	1082.97
722.64	1072.67
722.97	1069.39
723.31	1064.48
723.64	1067.28
723.97	1075.48
724.31	1087.88
724.64	1095.14
724.98	1098.18
725.31	1088.35
725.64	1085.54
725.98	1078.99
726.31	1074.77
726.64	1080.16
726.97	1083.43
727.31	1086.71
727.64	1079.92
727.97	1077.35
728.31	1068.45
728.64	1073.60
728.97	1065.41
729.31	1076.88
729.64	1085.31
729.97	1097.24
730.30	1099.82
730.64	1105.67
730.97	1103.80
731.30	1095.84
731.63	1092.80
731.97	1083.67
732.30	1088.82
732.63	1096.78
732.96	1098.88
733.30	1096.31
733.63	1098.18
733.96	1099.82
734.29	1093.50
734.63	1089.99
734.96	1084.14
735.29	1087.18
735.62	1082.97
735.95	1082.26
736.29	1088.12
736.62	1100.29
736.95	1099.12
737.28	1086.01
737.61	1080.63
737.94	1073.84
738.28	1072.43
738.61	1064.24
738.94	1080.39
739.27	1077.82
739.60	1084.84
739.93	1085.07
740.27	1095.84
740.60	1086.71
740.93	1081.56
741.26	1080.39
741.59	1076.88
741.92	1073.60
742.25	1078.05
742.58	1096.78
742.91	1093.03
743.25	1082.73
743.58	1085.07
743.91	1081.56
744.24	1067.99
744.57	1070.80
744.90	1085.07
745.23	1090.92
745.56	1096.07
745.89	1096.31
746.22	1097.01
746.55	1093.50
746.88	1084.84
747.21	1082.73
747.54	1082.50
747.87	1086.24
748.20	1086.71
748.53	1082.26
748.87	1074.31
749.20	1075.94
749.53	1069.62
749.86	1073.37
750.19	1077.58
750.52	1086.71
750.85	1097.48
751.18	1101.92
751.51	1090.92
751.84	1091.63
752.16	1090.22
752.49	1080.86
752.82	1072.20
753.15	1080.86
753.48	1078.75
753.81	1074.07
754.14	1080.16
754.47	1087.41
754.80	1085.31
755.13	1090.22
755.46	1092.09
755.79	1090.22
756.12	1080.63
756.45	1081.56
756.78	1071.26
757.11	1071.50
757.43	1066.35
757.76	1073.37
758.09	1063.54
758.42	1070.80
758.75	1080.39
759.08	1082.50
759.41	1085.07
759.74	1089.99
760.07	1081.56
760.39	1076.18
760.72	1069.39
761.05	1078.99
761.38	1084.60
761.71	1090.46
762.04	1085.31
762.36	1092.09
762.69	1078.28
763.02	1081.80
763.35	1093.50
763.68	1095.37
764.01	1093.73
764.33	1097.71
764.66	1090.69
764.99	1081.56
765.32	1084.14
765.65	1079.69
765.97	1079.46
766.30	1089.05
