SpectraSuite Data File
++++++++++++++++++++++++++++++++++++
Date: Mon Aug 26 10:25:59 PDT 2019
User: corrico
Dark Spectrum Present: No
Reference Spectrum Present: No
Number of Sampled Component Spectra: 1
Spectrometers: USB2+H06089
Integration Time (usec): 10000 (USB2+H06089)
Spectra Averaged: 2 (USB2+H06089)
Boxcar Smoothing: 2 (USB2+H06089)
Correct for Electrical Dark: No (USB2+H06089)
Strobe/Lamp Enabled: No (USB2+H06089)
Correct for Detector Non-linearity: No (USB2+H06089)
Correct for Stray Light: No (USB2+H06089)
Number of Pixels in Processed Spectrum: 2048
>>>>>Begin Processed Spectral Data<<<<<
339.70	1026.32
340.07	1026.32
340.45	979.98
340.82	958.92
341.19	938.55
341.57	921.94
341.94	912.34
342.31	918.19
342.69	920.53
343.06	922.64
343.43	909.77
343.81	914.68
344.18	910.00
344.55	908.60
344.93	902.04
345.30	918.89
345.67	925.21
346.04	934.58
346.42	943.24
346.79	937.15
347.16	939.49
347.54	946.75
347.91	969.68
348.28	974.37
348.65	1001.28
349.03	1005.26
349.40	1007.37
349.77	1006.66
350.14	1013.69
350.52	1023.05
350.89	1029.13
351.26	1043.18
351.63	1049.03
352.01	1060.03
352.38	1056.99
352.75	1067.99
353.12	1063.54
353.50	1065.41
353.87	1056.75
354.24	1063.77
354.61	1062.14
354.98	1078.99
355.36	1078.05
355.73	1082.03
356.10	1085.54
356.47	1093.03
356.84	1090.22
357.22	1087.88
357.59	1096.07
357.96	1099.12
358.33	1094.20
358.70	1085.31
359.08	1089.52
359.45	1084.84
359.82	1084.84
360.19	1091.39
360.56	1094.43
360.94	1091.16
361.31	1092.33
361.68	1089.05
362.05	1079.69
362.42	1079.69
362.79	1079.46
363.16	1072.67
363.54	1073.84
363.91	1078.05
364.28	1073.37
364.65	1075.24
365.02	1075.24
365.39	1069.39
365.76	1071.26
366.14	1078.28
366.51	1063.07
366.88	1076.18
367.25	1068.45
367.62	1062.60
367.99	1061.20
368.36	1076.18
368.73	1066.35
369.10	1070.33
369.48	1069.39
369.85	1075.01
370.22	1078.52
370.59	1074.07
370.96	1074.77
371.33	1079.92
371.70	1076.18
372.07	1065.88
372.44	1071.03
372.81	1069.39
373.18	1062.60
373.55	1055.82
373.93	1054.41
374.30	1056.75
374.67	1059.56
375.04	1063.31
375.41	1060.50
375.78	1064.94
376.15	1063.77
376.52	1068.45
376.89	1070.33
377.26	1073.37
377.63	1070.56
378.00	1060.26
378.37	1058.86
378.74	1055.35
379.11	1054.18
379.48	1063.31
379.85	1061.43
380.22	1064.94
380.59	1067.52
380.96	1068.69
381.33	1060.73
381.70	1071.26
382.07	1069.86
382.44	1070.80
382.81	1071.50
383.18	1081.09
383.55	1079.92
383.92	1078.99
384.29	1080.39
384.66	1080.63
385.03	1067.99
385.40	1064.94
385.77	1064.48
386.14	1063.54
386.51	1058.16
386.88	1072.43
387.25	1076.41
387.62	1077.35
387.99	1072.67
388.36	1073.84
388.73	1070.09
389.10	1080.39
389.46	1081.56
389.83	1082.97
390.20	1095.37
390.57	1086.94
390.94	1080.86
391.31	1078.28
391.68	1084.84
392.05	1075.94
392.42	1087.18
392.79	1094.43
393.16	1101.22
393.53	1094.90
393.89	1098.41
394.26	1099.12
394.63	1096.31
395.00	1082.26
395.37	1081.33
395.74	1084.14
396.11	1081.09
396.48	1077.58
396.84	1081.80
397.21	1081.56
397.58	1086.24
397.95	1081.33
398.32	1076.18
398.69	1085.07
399.06	1081.09
399.42	1077.82
399.79	1080.39
400.16	1088.82
400.53	1079.69
400.90	1092.33
401.27	1095.60
401.64	1097.48
402.00	1091.39
402.37	1089.99
402.74	1085.07
403.11	1067.05
403.48	1056.99
403.84	1055.11
404.21	1069.39
404.58	1067.28
404.95	1081.80
405.32	1099.35
405.68	1098.18
406.05	1086.24
406.42	1088.12
406.79	1085.77
407.16	1067.75
407.52	1072.90
407.89	1082.50
408.26	1073.37
408.63	1070.33
408.99	1070.56
409.36	1061.90
409.73	1054.18
410.10	1061.67
410.47	1066.11
410.83	1080.63
411.20	1088.58
411.57	1087.88
411.94	1083.20
412.30	1083.43
412.67	1078.28
413.04	1074.31
413.40	1074.77
413.77	1079.69
414.14	1071.50
414.51	1066.58
414.87	1069.86
415.24	1075.01
415.61	1074.07
415.97	1075.48
416.34	1077.11
416.71	1077.35
417.08	1071.97
417.44	1067.75
417.81	1074.31
418.18	1071.97
418.54	1063.31
418.91	1061.67
419.28	1062.14
419.64	1052.77
420.01	1051.13
420.38	1048.09
420.74	1049.26
421.11	1050.43
421.48	1051.13
421.84	1056.28
422.21	1066.58
422.58	1070.33
422.94	1080.86
423.31	1084.84
423.68	1083.43
424.04	1075.24
424.41	1070.33
424.77	1067.05
425.14	1066.58
425.51	1067.75
425.87	1075.94
426.24	1068.22
426.61	1064.71
426.97	1070.33
427.34	1066.58
427.70	1069.62
428.07	1071.73
428.44	1072.43
428.80	1073.84
429.17	1074.31
429.53	1061.90
429.90	1078.99
430.27	1080.16
430.63	1073.14
431.00	1070.56
431.36	1073.84
431.73	1061.20
432.09	1059.56
432.46	1065.41
432.83	1071.97
433.19	1074.77
433.56	1084.60
433.92	1084.14
434.29	1075.71
434.65	1066.58
435.02	1064.94
435.38	1065.88
435.75	1066.35
436.11	1077.35
436.48	1090.69
436.84	1097.95
437.21	1086.71
437.57	1080.86
437.94	1066.35
438.30	1049.73
438.67	1046.92
439.03	1048.33
439.40	1051.60
439.76	1060.50
440.13	1071.50
440.49	1069.86
440.86	1075.94
441.22	1080.16
441.59	1081.09
441.95	1079.69
442.32	1083.67
442.68	1082.50
443.05	1075.94
443.41	1075.24
443.78	1080.86
444.14	1079.22
444.51	1081.33
444.87	1083.67
445.24	1083.67
445.60	1083.90
445.96	1085.31
446.33	1083.20
446.69	1082.73
447.06	1084.37
447.42	1085.07
447.79	1084.37
448.15	1077.11
448.51	1080.16
448.88	1081.80
449.24	1076.18
449.61	1068.22
449.97	1064.24
450.33	1053.01
450.70	1053.48
451.06	1050.20
451.43	1057.92
451.79	1064.48
452.15	1077.11
452.52	1073.14
452.88	1071.50
453.24	1071.03
453.61	1080.16
453.97	1080.63
454.34	1075.48
454.70	1079.69
455.06	1087.41
455.43	1079.22
455.79	1076.65
456.15	1075.01
456.52	1077.11
456.88	1068.45
457.24	1067.28
457.61	1060.73
457.97	1054.88
458.33	1055.58
458.70	1053.48
459.06	1054.65
459.42	1054.88
459.79	1070.80
460.15	1071.03
460.51	1075.48
460.88	1075.48
461.24	1085.54
461.60	1082.26
461.96	1078.99
462.33	1079.69
462.69	1072.90
463.05	1078.99
463.42	1082.03
463.78	1071.50
464.14	1062.60
464.50	1073.84
464.87	1072.90
465.23	1076.18
465.59	1088.82
465.95	1097.95
466.32	1097.95
466.68	1088.82
467.04	1079.69
467.40	1075.01
467.77	1073.37
468.13	1070.09
468.49	1076.41
468.85	1076.41
469.22	1072.43
469.58	1067.99
469.94	1072.43
470.30	1087.65
470.66	1091.16
471.03	1101.46
471.39	1109.65
471.75	1111.52
472.11	1091.86
472.47	1098.65
472.84	1090.92
473.20	1087.18
473.56	1080.16
473.92	1078.28
474.28	1076.18
474.65	1076.65
475.01	1074.07
475.37	1063.54
475.73	1064.01
476.09	1058.16
476.45	1067.75
476.81	1068.69
477.18	1082.03
477.54	1084.37
477.90	1096.31
478.26	1100.52
478.62	1108.48
478.98	1104.73
479.34	1095.14
479.71	1078.99
480.07	1074.07
480.43	1067.75
480.79	1072.43
481.15	1075.71
481.51	1078.75
481.87	1071.26
482.23	1076.18
482.59	1072.20
482.96	1065.41
483.32	1062.84
483.68	1070.56
484.04	1063.31
484.40	1068.22
484.76	1073.60
485.12	1073.37
485.48	1069.16
485.84	1065.18
486.20	1061.20
486.56	1066.82
486.92	1069.86
487.28	1076.88
487.64	1081.80
488.00	1090.46
488.37	1084.84
488.73	1084.37
489.09	1069.16
489.45	1062.37
489.81	1048.56
490.17	1049.73
490.53	1058.39
490.89	1075.01
491.25	1077.58
491.61	1084.84
491.97	1090.46
492.33	1088.12
492.69	1075.01
493.05	1074.54
493.41	1080.39
493.77	1084.14
494.13	1076.18
494.49	1078.28
494.85	1089.99
495.21	1081.80
495.57	1072.67
495.93	1077.82
496.29	1073.60
496.64	1073.37
497.00	1075.48
497.36	1084.37
497.72	1079.92
498.08	1087.88
498.44	1089.29
498.80	1084.37
499.16	1077.35
499.52	1078.28
499.88	1086.01
500.24	1075.24
500.60	1080.86
500.96	1086.01
501.32	1093.03
501.68	1087.41
502.03	1085.77
502.39	1088.12
502.75	1077.82
503.11	1068.45
503.47	1070.80
503.83	1080.86
504.19	1075.24
504.55	1082.50
504.91	1091.63
505.26	1091.39
505.62	1091.86
505.98	1107.54
506.34	1113.16
506.70	1117.61
507.06	1118.78
507.42	1111.99
507.78	1103.33
508.13	1094.67
508.49	1086.71
508.85	1082.03
509.21	1086.48
509.57	1082.50
509.93	1094.43
510.28	1090.46
510.64	1097.95
511.00	1099.82
511.36	1088.58
511.72	1073.60
512.07	1077.58
512.43	1061.90
512.79	1058.86
513.15	1068.92
513.51	1087.41
513.86	1082.97
514.22	1095.14
514.58	1093.50
514.94	1094.20
515.30	1083.90
515.65	1093.73
516.01	1093.26
516.37	1087.65
516.73	1092.09
517.08	1091.16
517.44	1084.60
517.80	1084.37
518.16	1093.73
518.51	1087.88
518.87	1084.14
519.23	1084.84
519.59	1078.52
519.94	1077.82
520.30	1082.26
520.66	1087.65
521.01	1089.75
521.37	1095.14
521.73	1096.54
522.09	1109.41
522.44	1111.52
522.80	1106.61
523.16	1109.88
523.51	1105.44
523.87	1102.39
524.23	1104.73
524.58	1114.80
524.94	1102.63
525.30	1115.73
525.65	1107.78
526.01	1099.12
526.37	1095.37
526.72	1103.80
527.08	1094.20
527.44	1090.46
527.79	1090.46
528.15	1085.77
528.51	1076.18
528.86	1078.28
529.22	1082.73
529.58	1078.05
529.93	1078.99
530.29	1089.29
530.65	1083.20
531.00	1078.28
531.36	1084.84
531.71	1089.99
532.07	1089.99
532.43	1093.26
532.78	1082.97
533.14	1087.18
533.49	1086.48
533.85	1079.92
534.21	1088.12
534.56	1104.50
534.92	1097.95
535.27	1096.54
535.63	1108.01
535.98	1099.35
536.34	1089.05
536.69	1087.18
537.05	1077.58
537.41	1066.58
537.76	1063.54
538.12	1073.14
538.47	1074.77
538.83	1082.26
539.18	1084.60
539.54	1089.29
539.89	1093.26
540.25	1102.39
540.60	1103.80
540.96	1104.97
541.31	1104.73
541.67	1100.29
542.02	1094.43
542.38	1102.63
542.73	1099.82
543.09	1093.97
543.44	1089.05
543.80	1093.03
544.15	1086.01
544.51	1090.69
544.86	1095.37
545.22	1095.37
545.57	1098.18
545.93	1099.35
546.28	1101.92
546.64	1096.54
546.99	1091.63
547.35	1087.88
547.70	1083.20
548.05	1071.73
548.41	1076.18
548.76	1080.63
549.12	1084.14
549.47	1083.67
549.83	1085.77
550.18	1079.22
550.53	1066.82
550.89	1058.16
551.24	1062.14
551.60	1069.62
551.95	1070.80
552.30	1094.20
552.66	1104.97
553.01	1103.09
553.37	1100.29
553.72	1104.97
554.07	1092.56
554.43	1088.58
554.78	1081.56
555.13	1088.58
555.49	1093.97
555.84	1093.97
556.19	1087.18
556.55	1090.92
556.90	1079.92
557.26	1076.88
557.61	1079.46
557.96	1078.52
558.32	1078.28
558.67	1079.46
559.02	1076.18
559.37	1073.60
559.73	1081.80
560.08	1082.73
560.43	1082.73
560.79	1079.22
561.14	1093.03
561.49	1087.88
561.85	1084.84
562.20	1088.82
562.55	1090.92
562.90	1087.65
563.26	1080.16
563.61	1074.54
563.96	1078.28
564.32	1082.26
564.67	1075.48
565.02	1072.90
565.37	1081.80
565.73	1070.33
566.08	1066.82
566.43	1063.07
566.78	1080.86
567.14	1082.73
567.49	1086.01
567.84	1094.43
568.19	1096.54
568.54	1091.16
568.90	1087.65
569.25	1093.97
569.60	1091.39
569.95	1094.67
570.31	1092.33
570.66	1096.54
571.01	1091.39
571.36	1084.37
571.71	1083.90
572.06	1083.43
572.42	1082.97
572.77	1086.71
573.12	1097.01
573.47	1092.80
573.82	1095.84
574.18	1101.69
574.53	1094.43
574.88	1085.07
575.23	1086.24
575.58	1088.12
575.93	1085.31
576.28	1094.43
576.64	1097.95
576.99	1095.84
577.34	1096.31
577.69	1091.16
578.04	1078.05
578.39	1078.05
578.74	1069.16
579.09	1059.79
579.44	1060.03
579.80	1065.88
580.15	1062.60
580.50	1077.82
580.85	1084.14
581.20	1083.43
581.55	1083.90
581.90	1084.84
582.25	1081.56
582.60	1078.52
582.95	1075.94
583.30	1072.90
583.65	1064.01
584.00	1063.07
584.35	1065.41
584.71	1069.86
585.06	1075.94
585.41	1088.58
585.76	1097.71
586.11	1095.37
586.46	1098.65
586.81	1096.78
587.16	1100.29
587.51	1093.97
587.86	1093.50
588.21	1090.69
588.56	1090.92
588.91	1080.16
589.26	1070.80
589.61	1071.26
589.96	1065.41
590.31	1071.73
590.66	1081.09
591.01	1088.82
591.36	1086.48
591.71	1096.31
592.06	1089.99
592.41	1085.77
592.76	1075.24
593.10	1076.88
593.45	1075.94
593.80	1077.82
594.15	1081.33
594.50	1090.69
594.85	1096.07
595.20	1099.58
595.55	1093.97
595.90	1095.84
596.25	1101.69
596.60	1107.07
596.95	1095.37
597.30	1102.39
597.64	1147.80
597.99	1153.88
598.34	1156.69
598.69	1164.88
599.04	1169.57
599.39	1128.14
599.74	1117.37
600.09	1104.26
600.44	1094.90
600.78	1085.07
601.13	1076.41
601.48	1068.22
601.83	1078.05
602.18	1085.77
602.53	1086.01
602.88	1091.16
603.22	1107.78
603.57	1100.29
603.92	1101.92
604.27	1105.20
604.62	1104.26
604.97	1094.67
605.31	1102.63
605.66	1096.54
606.01	1099.35
606.36	1096.54
606.71	1099.35
607.05	1084.84
607.40	1081.80
607.75	1073.14
608.10	1065.65
608.44	1065.41
608.79	1070.80
609.14	1074.07
609.49	1085.54
609.84	1092.56
610.18	1097.95
610.53	1102.16
610.88	1110.58
611.23	1108.48
611.57	1110.12
611.92	1105.20
612.27	1104.03
612.62	1099.35
612.96	1097.48
613.31	1092.80
613.66	1082.50
614.00	1070.80
614.35	1077.82
614.70	1074.54
615.05	1082.03
615.39	1088.35
615.74	1094.90
616.09	1090.22
616.43	1089.99
616.78	1085.31
617.13	1090.92
617.47	1106.37
617.82	1102.63
618.17	1103.56
618.51	1110.35
618.86	1113.86
619.21	1096.07
619.55	1087.65
619.90	1084.14
620.25	1078.05
620.59	1072.20
620.94	1079.92
621.29	1093.97
621.63	1098.88
621.98	1099.82
622.32	1101.92
622.67	1096.78
623.02	1099.12
623.36	1107.07
623.71	1105.67
624.05	1099.58
624.40	1101.92
624.75	1102.39
625.09	1090.22
625.44	1086.01
625.78	1096.54
626.13	1095.84
626.48	1082.26
626.82	1082.97
627.17	1090.69
627.51	1087.88
627.86	1082.73
628.20	1097.71
628.55	1100.29
628.89	1089.52
629.24	1080.16
629.58	1088.58
629.93	1075.24
630.28	1078.28
630.62	1094.43
630.97	1107.78
631.31	1104.03
631.66	1113.39
632.00	1106.84
632.35	1097.01
632.69	1081.56
633.04	1076.88
633.38	1068.92
633.73	1065.65
634.07	1062.60
634.42	1061.90
634.76	1073.37
635.11	1074.31
635.45	1077.11
635.79	1084.14
636.14	1091.39
636.48	1086.48
636.83	1095.37
637.17	1092.80
637.52	1086.24
637.86	1073.84
638.21	1074.31
638.55	1073.37
638.89	1073.84
639.24	1074.31
639.58	1086.48
639.93	1077.82
640.27	1063.31
640.61	1066.58
640.96	1067.05
641.30	1070.33
641.65	1075.01
641.99	1082.26
642.33	1091.16
642.68	1102.63
643.02	1103.80
643.37	1097.48
643.71	1090.46
644.05	1079.92
644.40	1069.62
644.74	1053.24
645.08	1062.14
645.43	1077.11
645.77	1081.80
646.11	1075.01
646.46	1088.12
646.80	1087.88
647.14	1073.84
647.49	1076.65
647.83	1087.65
648.17	1084.14
648.52	1087.41
648.86	1093.03
649.20	1104.97
649.55	1105.20
649.89	1108.95
650.23	1102.16
650.57	1102.16
650.92	1086.71
651.26	1074.54
651.60	1060.50
651.95	1067.75
652.29	1069.62
652.63	1063.77
652.97	1071.97
653.32	1080.16
653.66	1068.69
654.00	1073.14
654.34	1077.35
654.69	1079.46
655.03	1073.60
655.37	1075.94
655.71	1067.28
656.05	1072.90
656.40	1068.69
656.74	1084.14
657.08	1088.35
657.42	1084.14
657.76	1077.82
658.11	1081.56
658.45	1070.80
658.79	1065.88
659.13	1072.67
659.47	1082.26
659.82	1078.99
660.16	1091.86
660.50	1098.18
660.84	1094.43
661.18	1098.18
661.52	1103.09
661.87	1090.69
662.21	1086.01
662.55	1086.48
662.89	1062.60
663.23	1056.28
663.57	1067.52
663.91	1064.24
664.25	1072.43
664.60	1089.99
664.94	1086.71
665.28	1080.63
665.62	1089.29
665.96	1088.58
666.30	1084.84
666.64	1086.94
666.98	1082.97
667.32	1079.46
667.66	1074.77
668.01	1060.73
668.35	1062.60
668.69	1067.99
669.03	1075.71
669.37	1072.43
669.71	1093.26
670.05	1089.29
670.39	1078.28
670.73	1078.28
671.07	1071.03
671.41	1064.01
671.75	1068.69
672.09	1073.14
672.43	1071.97
672.77	1082.26
673.11	1081.80
673.45	1073.60
673.79	1076.41
674.13	1065.88
674.47	1064.48
674.81	1056.75
675.15	1065.18
675.49	1057.45
675.83	1068.69
676.17	1073.37
676.51	1085.31
676.85	1089.99
677.19	1095.14
677.53	1086.71
677.87	1082.73
678.21	1078.99
678.55	1074.31
678.89	1081.09
679.23	1083.90
679.57	1086.48
679.90	1084.60
680.24	1086.24
680.58	1075.94
680.92	1076.18
681.26	1070.33
681.60	1065.65
681.94	1064.24
682.28	1075.94
682.62	1083.43
682.96	1087.65
683.29	1097.71
683.63	1101.69
683.97	1092.80
684.31	1086.71
684.65	1083.20
684.99	1075.01
685.33	1075.01
685.67	1086.24
686.00	1083.67
686.34	1081.56
686.68	1095.60
687.02	1092.56
687.36	1083.43
687.70	1084.60
688.03	1090.46
688.37	1083.20
688.71	1086.94
689.05	1093.03
689.39	1095.37
689.72	1098.88
690.06	1092.09
690.40	1081.56
690.74	1068.92
691.08	1070.80
691.41	1061.20
691.75	1064.94
692.09	1082.03
692.43	1082.97
692.76	1074.31
693.10	1082.73
693.44	1081.80
693.78	1078.05
694.11	1086.01
694.45	1093.26
694.79	1091.16
695.13	1095.37
695.46	1085.07
695.80	1080.39
696.14	1071.73
696.48	1072.90
696.81	1072.20
697.15	1077.11
697.49	1088.35
697.82	1092.09
698.16	1093.50
698.50	1092.80
698.83	1093.26
699.17	1086.94
699.51	1091.39
699.84	1092.33
700.18	1090.92
700.52	1092.80
700.85	1086.71
701.19	1080.63
701.53	1080.16
701.86	1067.28
702.20	1065.88
702.54	1066.58
702.87	1075.71
703.21	1077.35
703.55	1096.07
703.88	1093.73
704.22	1103.80
704.55	1098.65
704.89	1095.60
705.23	1094.90
705.56	1086.94
705.90	1083.67
706.23	1081.80
706.57	1076.65
706.91	1070.09
707.24	1080.16
707.58	1078.05
707.91	1080.86
708.25	1085.54
708.58	1080.16
708.92	1071.50
709.26	1069.62
709.59	1072.67
709.93	1065.65
710.26	1075.24
710.60	1076.88
710.93	1085.31
711.27	1086.24
711.60	1093.26
711.94	1092.80
712.27	1100.52
712.61	1093.73
712.94	1085.31
713.28	1092.56
713.61	1101.92
713.95	1103.56
714.28	1110.35
714.62	1108.71
714.95	1095.84
715.29	1072.67
715.62	1062.37
715.96	1056.05
716.29	1065.18
716.63	1078.28
716.96	1097.48
717.29	1105.44
717.63	1109.41
717.96	1104.26
718.30	1103.33
718.63	1106.14
718.97	1106.61
719.30	1102.86
719.63	1104.26
719.97	1093.97
720.30	1084.37
720.64	1080.86
720.97	1079.69
721.30	1077.35
721.64	1078.75
721.97	1079.46
722.31	1063.54
722.64	1065.18
722.97	1070.56
723.31	1069.39
723.64	1065.41
723.97	1084.37
724.31	1081.56
724.64	1080.63
724.98	1098.41
725.31	1099.12
725.64	1093.26
725.98	1102.16
726.31	1096.07
726.64	1081.80
726.97	1072.90
727.31	1063.31
727.64	1055.58
727.97	1059.56
728.31	1066.58
728.64	1082.97
728.97	1101.22
729.31	1109.41
729.64	1110.58
729.97	1100.52
730.30	1091.63
730.64	1093.26
730.97	1086.94
731.30	1088.35
731.63	1088.35
731.97	1096.54
732.30	1094.67
732.63	1096.07
732.96	1091.16
733.30	1089.52
733.63	1089.05
733.96	1088.58
734.29	1080.16
734.63	1078.99
734.96	1082.26
735.29	1085.07
735.62	1078.52
735.95	1082.26
736.29	1077.35
736.62	1083.67
736.95	1068.92
737.28	1066.11
737.61	1070.56
737.94	1083.67
738.28	1078.52
738.61	1083.20
738.94	1096.78
739.27	1098.18
739.60	1097.71
739.93	1101.69
740.27	1107.54
740.60	1092.80
740.93	1093.50
741.26	1087.41
741.59	1088.12
741.92	1084.37
742.25	1086.48
742.58	1083.90
742.91	1082.50
743.25	1072.43
743.58	1080.39
743.91	1085.54
744.24	1085.07
744.57	1085.31
744.90	1091.39
745.23	1092.56
745.56	1087.88
745.89	1086.48
746.22	1089.99
746.55	1082.26
746.88	1064.24
747.21	1060.50
747.54	1060.50
747.87	1051.13
748.20	1055.35
748.53	1060.96
748.87	1073.60
749.20	1077.82
749.53	1083.20
749.86	1080.16
750.19	1084.84
750.52	1078.05
750.85	1058.86
751.18	1067.05
751.51	1078.28
751.84	1074.31
752.16	1073.37
752.49	1092.33
752.82	1081.56
753.15	1079.46
753.48	1086.24
753.81	1097.01
754.14	1097.48
754.47	1100.52
754.80	1091.86
755.13	1086.24
755.46	1078.99
755.79	1072.90
756.12	1076.41
756.45	1075.01
756.78	1079.46
757.11	1075.71
757.43	1075.48
757.76	1067.99
758.09	1078.99
758.42	1071.73
758.75	1078.28
759.08	1082.97
759.41	1100.99
759.74	1102.39
760.07	1116.90
760.39	1108.48
760.72	1112.92
761.05	1107.31
761.38	1102.63
761.71	1089.75
762.04	1095.37
762.36	1083.90
762.69	1075.94
763.02	1068.45
763.35	1063.77
763.68	1067.28
764.01	1073.37
764.33	1077.35
764.66	1076.88
764.99	1079.46
765.32	1072.43
765.65	1075.71
765.97	1075.94
766.30	1082.26
