SpectraSuite Data File
++++++++++++++++++++++++++++++++++++
Date: Mon Aug 26 10:25:56 PDT 2019
User: corrico
Dark Spectrum Present: No
Reference Spectrum Present: No
Number of Sampled Component Spectra: 1
Spectrometers: USB2+H06089
Integration Time (usec): 10000 (USB2+H06089)
Spectra Averaged: 2 (USB2+H06089)
Boxcar Smoothing: 2 (USB2+H06089)
Correct for Electrical Dark: No (USB2+H06089)
Strobe/Lamp Enabled: No (USB2+H06089)
Correct for Detector Non-linearity: No (USB2+H06089)
Correct for Stray Light: No (USB2+H06089)
Number of Pixels in Processed Spectrum: 2048
>>>>>Begin Processed Spectral Data<<<<<
339.70	1015.79
340.07	1015.79
340.45	990.75
340.82	971.79
341.19	945.58
341.57	915.15
341.94	914.68
342.31	900.40
342.69	894.08
343.06	897.60
343.43	910.94
343.81	902.98
344.18	908.36
344.55	915.38
344.93	916.09
345.30	918.43
345.67	924.51
346.04	932.70
346.42	937.85
346.79	959.15
347.16	961.02
347.54	968.75
347.91	985.83
348.28	1003.86
348.65	1002.69
349.03	1021.18
349.40	1035.69
349.77	1034.52
350.14	1034.52
350.52	1043.64
350.89	1043.41
351.26	1043.64
351.63	1052.30
352.01	1052.30
352.38	1062.60
352.75	1067.75
353.12	1064.71
353.50	1056.99
353.87	1068.69
354.24	1062.14
354.61	1068.45
354.98	1080.16
355.36	1078.99
355.73	1073.60
356.10	1076.88
356.47	1064.94
356.84	1059.33
357.22	1067.75
357.59	1079.46
357.96	1079.22
358.33	1085.54
358.70	1088.82
359.08	1085.54
359.45	1081.56
359.82	1090.22
360.19	1091.63
360.56	1085.54
360.94	1091.16
361.31	1086.24
361.68	1082.97
362.05	1091.39
362.42	1101.46
362.79	1093.26
363.16	1091.39
363.54	1078.99
363.91	1076.65
364.28	1072.67
364.65	1076.65
365.02	1078.75
365.39	1084.60
365.76	1073.14
366.14	1066.58
366.51	1065.65
366.88	1049.26
367.25	1046.22
367.62	1054.65
367.99	1045.52
368.36	1042.71
368.73	1060.50
369.10	1055.35
369.48	1054.18
369.85	1068.69
370.22	1071.50
370.59	1064.71
370.96	1065.41
371.33	1062.84
371.70	1062.84
372.07	1061.43
372.44	1060.50
372.81	1065.65
373.18	1062.37
373.55	1064.94
373.93	1066.11
374.30	1064.24
374.67	1066.58
375.04	1076.18
375.41	1068.22
375.78	1066.58
376.15	1069.16
376.52	1070.33
376.89	1064.94
377.26	1065.41
377.63	1073.84
378.00	1077.11
378.37	1076.41
378.74	1074.07
379.11	1075.24
379.48	1069.86
379.85	1068.45
380.22	1072.90
380.59	1077.35
380.96	1076.41
381.33	1083.43
381.70	1083.43
382.07	1072.90
382.44	1069.16
382.81	1070.80
383.18	1067.05
383.55	1069.16
383.92	1072.20
384.29	1069.39
384.66	1070.33
385.03	1071.26
385.40	1079.92
385.77	1078.75
386.14	1080.63
386.51	1088.82
386.88	1087.65
387.25	1072.90
387.62	1069.16
387.99	1058.86
388.36	1051.60
388.73	1048.79
389.10	1053.71
389.46	1065.18
389.83	1071.50
390.20	1064.24
390.57	1065.65
390.94	1067.28
391.31	1056.75
391.68	1058.86
392.05	1060.50
392.42	1063.77
392.79	1055.11
393.16	1066.11
393.53	1070.80
393.89	1069.39
394.26	1065.88
394.63	1076.41
395.00	1064.24
395.37	1061.90
395.74	1079.22
396.11	1084.14
396.48	1081.33
396.84	1087.41
397.21	1090.22
397.58	1069.16
397.95	1069.86
398.32	1074.77
398.69	1077.82
399.06	1076.88
399.42	1089.29
399.79	1086.01
400.16	1076.41
400.53	1070.33
400.90	1070.33
401.27	1076.41
401.64	1065.88
402.00	1069.16
402.37	1070.33
402.74	1070.80
403.11	1069.86
403.48	1077.58
403.84	1075.71
404.21	1074.31
404.58	1072.20
404.95	1068.69
405.32	1071.26
405.68	1075.71
406.05	1071.03
406.42	1071.50
406.79	1076.65
407.16	1071.26
407.52	1068.69
407.89	1082.97
408.26	1081.80
408.63	1078.05
408.99	1077.58
409.36	1085.07
409.73	1079.22
410.10	1079.46
410.47	1067.52
410.83	1079.69
411.20	1077.11
411.57	1072.67
411.94	1067.52
412.30	1074.31
412.67	1061.67
413.04	1057.92
413.40	1065.18
413.77	1071.73
414.14	1078.75
414.51	1081.33
414.87	1074.31
415.24	1064.71
415.61	1062.37
415.97	1048.33
416.34	1043.18
416.71	1051.60
417.08	1053.24
417.44	1057.45
417.81	1059.79
418.18	1060.96
418.54	1065.65
418.91	1072.67
419.28	1067.99
419.64	1071.50
420.01	1088.82
420.38	1088.35
420.74	1092.56
421.11	1095.84
421.48	1104.26
421.84	1090.46
422.21	1087.41
422.58	1078.28
422.94	1080.86
423.31	1077.11
423.68	1080.86
424.04	1084.60
424.41	1087.88
424.77	1090.69
425.14	1090.69
425.51	1088.58
425.87	1078.75
426.24	1073.14
426.61	1071.97
426.97	1074.07
427.34	1076.65
427.70	1082.73
428.07	1093.97
428.44	1100.99
428.80	1095.37
429.17	1097.48
429.53	1093.73
429.90	1084.84
430.27	1085.31
430.63	1084.37
431.00	1075.24
431.36	1075.48
431.73	1074.07
432.09	1061.67
432.46	1065.88
432.83	1075.24
433.19	1075.01
433.56	1071.26
433.92	1065.18
434.29	1064.48
434.65	1052.77
435.02	1053.01
435.38	1065.65
435.75	1068.92
436.11	1066.35
436.48	1075.48
436.84	1085.31
437.21	1075.94
437.57	1081.80
437.94	1084.60
438.30	1094.67
438.67	1080.86
439.03	1078.75
439.40	1079.92
439.76	1082.50
440.13	1074.07
440.49	1078.05
440.86	1089.05
441.22	1084.14
441.59	1086.24
441.95	1076.88
442.32	1083.67
442.68	1082.26
443.05	1083.20
443.41	1081.80
443.78	1088.82
444.14	1086.24
444.51	1083.43
444.87	1086.01
445.24	1086.01
445.60	1083.90
445.96	1080.86
446.33	1069.39
446.69	1057.69
447.06	1056.05
447.42	1072.43
447.79	1070.09
448.15	1083.20
448.51	1096.54
448.88	1096.54
449.24	1076.18
449.61	1090.92
449.97	1090.69
450.33	1082.50
450.70	1084.60
451.06	1097.71
451.43	1092.33
451.79	1092.80
452.15	1099.35
452.52	1101.22
452.88	1092.33
453.24	1084.60
453.61	1085.07
453.97	1085.07
454.34	1082.26
454.70	1077.35
455.06	1082.50
455.43	1074.31
455.79	1072.67
456.15	1068.92
456.52	1079.69
456.88	1075.48
457.24	1078.28
457.61	1076.88
457.97	1077.58
458.33	1072.90
458.70	1077.11
459.06	1084.14
459.42	1075.24
459.79	1071.97
460.15	1068.69
460.51	1067.52
460.88	1062.14
461.24	1064.71
461.60	1073.37
461.96	1081.09
462.33	1076.65
462.69	1084.84
463.05	1094.43
463.42	1082.50
463.78	1077.35
464.14	1086.94
464.50	1083.20
464.87	1082.73
465.23	1084.37
465.59	1084.37
465.95	1072.43
466.32	1073.14
466.68	1071.50
467.04	1071.50
467.40	1062.37
467.77	1063.31
468.13	1059.56
468.49	1062.14
468.85	1063.77
469.22	1072.20
469.58	1067.28
469.94	1069.16
470.30	1072.67
470.66	1075.71
471.03	1079.69
471.39	1088.12
471.75	1086.48
472.11	1080.39
472.47	1077.58
472.84	1075.24
473.20	1073.14
473.56	1077.58
473.92	1078.99
474.28	1083.67
474.65	1081.80
475.01	1085.77
475.37	1080.16
475.73	1074.07
476.09	1070.80
476.45	1071.97
476.81	1076.65
477.18	1084.37
477.54	1096.54
477.90	1099.35
478.26	1095.60
478.62	1091.86
478.98	1080.86
479.34	1079.22
479.71	1077.11
480.07	1088.12
480.43	1078.99
480.79	1081.33
481.15	1076.41
481.51	1070.09
481.87	1067.05
482.23	1074.31
482.59	1083.90
482.96	1077.35
483.32	1084.84
483.68	1072.43
484.04	1068.92
484.40	1063.77
484.76	1071.97
485.12	1062.84
485.48	1070.56
485.84	1070.80
486.20	1069.16
486.56	1060.50
486.92	1072.90
487.28	1071.73
487.64	1076.65
488.00	1077.82
488.37	1086.01
488.73	1074.54
489.09	1076.41
489.45	1074.31
489.81	1071.26
490.17	1053.01
490.53	1059.09
490.89	1060.26
491.25	1056.05
491.61	1060.50
491.97	1077.58
492.33	1088.35
492.69	1095.14
493.05	1100.05
493.41	1096.54
493.77	1101.46
494.13	1093.50
494.49	1085.31
494.85	1081.56
495.21	1083.67
495.57	1079.46
495.93	1067.05
496.29	1067.99
496.64	1071.03
497.00	1069.62
497.36	1054.41
497.72	1067.75
498.08	1069.39
498.44	1063.07
498.80	1060.50
499.16	1062.60
499.52	1063.54
499.88	1069.39
500.24	1074.31
500.60	1074.77
500.96	1084.37
501.32	1091.16
501.68	1080.63
502.03	1079.22
502.39	1089.05
502.75	1087.18
503.11	1083.67
503.47	1088.12
503.83	1086.94
504.19	1076.88
504.55	1085.54
504.91	1085.54
505.26	1091.63
505.62	1109.18
505.98	1113.86
506.34	1114.33
506.70	1117.37
507.06	1109.65
507.42	1085.77
507.78	1079.92
508.13	1075.01
508.49	1060.26
508.85	1062.14
509.21	1071.50
509.57	1076.18
509.93	1071.26
510.28	1084.84
510.64	1078.05
511.00	1077.11
511.36	1070.80
511.72	1077.11
512.07	1064.94
512.43	1075.24
512.79	1078.28
513.15	1090.46
513.51	1087.88
513.86	1094.67
514.22	1093.50
514.58	1100.99
514.94	1088.82
515.30	1095.60
515.65	1095.37
516.01	1098.41
516.37	1094.20
516.73	1102.16
517.08	1100.99
517.44	1098.65
517.80	1099.82
518.16	1093.50
518.51	1086.01
518.87	1077.35
519.23	1080.39
519.59	1073.60
519.94	1069.86
520.30	1077.11
520.66	1081.33
521.01	1089.75
521.37	1083.90
521.73	1089.99
522.09	1095.14
522.44	1107.78
522.80	1100.52
523.16	1104.03
523.51	1105.90
523.87	1098.65
524.23	1085.07
524.58	1089.99
524.94	1089.99
525.30	1086.48
525.65	1094.20
526.01	1096.54
526.37	1089.99
526.72	1092.09
527.08	1096.07
527.44	1090.92
527.79	1095.60
528.15	1095.37
528.51	1106.84
528.86	1108.48
529.22	1108.95
529.58	1092.09
529.93	1095.14
530.29	1087.88
530.65	1084.37
531.00	1078.28
531.36	1095.60
531.71	1093.73
532.07	1098.65
532.43	1093.03
532.78	1102.86
533.14	1094.43
533.49	1075.01
533.85	1071.03
534.21	1083.43
534.56	1076.18
534.92	1070.33
535.27	1082.50
535.63	1084.37
535.98	1084.14
536.34	1084.84
536.69	1101.69
537.05	1099.58
537.41	1089.99
537.76	1084.37
538.12	1088.58
538.47	1082.50
538.83	1090.46
539.18	1090.92
539.54	1094.43
539.89	1091.16
540.25	1092.80
540.60	1099.35
540.96	1103.56
541.31	1094.20
541.67	1099.58
542.02	1095.60
542.38	1100.52
542.73	1104.97
543.09	1107.31
543.44	1110.82
543.80	1108.24
544.15	1097.48
544.51	1091.63
544.86	1094.67
545.22	1089.29
545.57	1091.16
545.93	1080.16
546.28	1074.77
546.64	1074.54
546.99	1062.37
547.35	1068.22
547.70	1082.26
548.05	1086.48
548.41	1087.88
548.76	1097.71
549.12	1095.84
549.47	1103.56
549.83	1103.09
550.18	1106.14
550.53	1104.97
550.89	1104.50
551.24	1084.14
551.60	1085.77
551.95	1081.80
552.30	1082.26
552.66	1078.99
553.01	1086.24
553.37	1090.92
553.72	1087.65
554.07	1088.58
554.43	1090.22
554.78	1103.09
555.13	1100.75
555.49	1104.50
555.84	1091.86
556.19	1088.82
556.55	1069.39
556.90	1059.79
557.26	1052.77
557.61	1059.56
557.96	1067.28
558.32	1078.99
558.67	1093.03
559.02	1098.65
559.37	1104.97
559.73	1091.63
560.08	1086.01
560.43	1078.52
560.79	1070.09
561.14	1073.60
561.49	1086.94
561.85	1088.12
562.20	1087.65
562.55	1086.24
562.90	1077.58
563.26	1064.71
563.61	1063.07
563.96	1070.56
564.32	1077.82
564.67	1081.80
565.02	1087.18
565.37	1087.18
565.73	1076.65
566.08	1075.94
566.43	1076.18
566.78	1070.33
567.14	1066.58
567.49	1067.52
567.84	1069.39
568.19	1071.26
568.54	1072.90
568.90	1077.11
569.25	1082.73
569.60	1076.88
569.95	1081.33
570.31	1093.73
570.66	1097.01
571.01	1097.71
571.36	1105.90
571.71	1096.07
572.06	1091.63
572.42	1090.22
572.77	1086.94
573.12	1086.94
573.47	1088.35
573.82	1096.07
574.18	1090.69
574.53	1084.14
574.88	1091.16
575.23	1091.16
575.58	1079.92
575.93	1073.84
576.28	1072.20
576.64	1060.96
576.99	1063.54
577.34	1059.79
577.69	1069.16
578.04	1084.14
578.39	1095.14
578.74	1094.90
579.09	1096.07
579.44	1106.14
579.80	1098.88
580.15	1085.07
580.50	1078.75
580.85	1074.07
581.20	1057.69
581.55	1060.50
581.90	1063.54
582.25	1065.18
582.60	1075.24
582.95	1086.94
583.30	1086.01
583.65	1091.86
584.00	1090.22
584.35	1086.48
584.71	1083.67
585.06	1090.92
585.41	1083.20
585.76	1097.95
586.11	1092.80
586.46	1096.54
586.81	1083.43
587.16	1086.71
587.51	1082.73
587.86	1091.63
588.21	1090.46
588.56	1087.41
588.91	1095.84
589.26	1091.16
589.61	1088.82
589.96	1085.54
590.31	1091.86
590.66	1091.86
591.01	1081.09
591.36	1081.56
591.71	1080.39
592.06	1081.33
592.41	1072.67
592.76	1085.31
593.10	1082.73
593.45	1084.14
593.80	1081.09
594.15	1084.84
594.50	1076.18
594.85	1078.28
595.20	1077.82
595.55	1078.28
595.90	1070.09
596.25	1079.69
596.60	1089.52
596.95	1089.75
597.30	1088.12
597.64	1148.50
597.99	1149.20
598.34	1138.67
598.69	1137.97
599.04	1144.99
599.39	1090.46
599.74	1087.88
600.09	1097.01
600.44	1093.03
600.78	1087.65
601.13	1093.97
601.48	1090.46
601.83	1081.56
602.18	1084.84
602.53	1081.80
602.88	1069.39
603.22	1075.24
603.57	1073.60
603.92	1088.12
604.27	1089.75
604.62	1093.73
604.97	1089.99
605.31	1092.09
605.66	1067.75
606.01	1065.18
606.36	1060.50
606.71	1053.01
607.05	1049.96
607.40	1056.52
607.75	1067.75
608.10	1072.43
608.44	1075.01
608.79	1082.73
609.14	1085.31
609.49	1079.46
609.84	1085.31
610.18	1092.33
610.53	1104.03
610.88	1105.44
611.23	1107.07
611.57	1105.44
611.92	1099.82
612.27	1092.09
612.62	1091.86
612.96	1084.37
613.31	1082.26
613.66	1081.80
614.00	1070.80
614.35	1070.09
614.70	1075.94
615.05	1071.97
615.39	1080.63
615.74	1089.52
616.09	1092.80
616.43	1087.88
616.78	1088.35
617.13	1075.01
617.47	1067.99
617.82	1061.43
618.17	1068.92
618.51	1071.73
618.86	1082.97
619.21	1099.58
619.55	1109.88
619.90	1107.78
620.25	1110.58
620.59	1112.22
620.94	1098.41
621.29	1097.71
621.63	1104.50
621.98	1103.09
622.32	1099.82
622.67	1101.69
623.02	1093.03
623.36	1091.39
623.71	1093.26
624.05	1091.63
624.40	1093.50
624.75	1105.90
625.09	1100.05
625.44	1096.07
625.78	1103.33
626.13	1092.56
626.48	1083.67
626.82	1086.71
627.17	1082.03
627.51	1070.09
627.86	1069.16
628.20	1063.07
628.55	1057.45
628.89	1062.37
629.24	1065.41
629.58	1071.50
629.93	1076.41
630.28	1079.46
630.62	1069.39
630.97	1064.94
631.31	1060.96
631.66	1066.58
632.00	1072.20
632.35	1077.82
632.69	1080.16
633.04	1083.67
633.38	1079.22
633.73	1072.20
634.07	1068.92
634.42	1074.77
634.76	1081.56
635.11	1080.63
635.45	1075.94
635.79	1082.73
636.14	1081.09
636.48	1078.28
636.83	1078.05
637.17	1087.41
637.52	1092.56
637.86	1092.33
638.21	1088.12
638.55	1091.63
638.89	1086.24
639.24	1082.97
639.58	1089.05
639.93	1094.20
640.27	1093.03
640.61	1092.09
640.96	1088.58
641.30	1082.97
641.65	1068.22
641.99	1066.35
642.33	1070.33
642.68	1076.41
643.02	1083.20
643.37	1094.67
643.71	1088.58
644.05	1086.71
644.40	1080.86
644.74	1079.69
645.08	1084.37
645.43	1084.60
645.77	1096.07
646.11	1100.05
646.46	1094.90
646.80	1079.22
647.14	1089.99
647.49	1080.16
647.83	1090.69
648.17	1089.99
648.52	1091.39
648.86	1088.82
649.20	1085.77
649.55	1073.37
649.89	1071.50
650.23	1067.99
650.57	1063.54
650.92	1074.07
651.26	1075.94
651.60	1072.90
651.95	1081.56
652.29	1083.20
652.63	1066.82
652.97	1063.07
653.32	1065.88
653.66	1063.07
654.00	1062.84
654.34	1071.26
654.69	1077.11
655.03	1076.18
655.37	1086.24
655.71	1081.56
656.05	1082.50
656.40	1082.73
656.74	1081.80
657.08	1077.58
657.42	1079.22
657.76	1076.41
658.11	1071.97
658.45	1084.14
658.79	1089.52
659.13	1093.03
659.47	1098.41
659.82	1096.07
660.16	1087.41
660.50	1087.65
660.84	1091.63
661.18	1089.05
661.52	1098.18
661.87	1092.33
662.21	1089.05
662.55	1092.56
662.89	1092.33
663.23	1080.63
663.57	1073.84
663.91	1066.82
664.25	1051.84
664.60	1056.05
664.94	1059.56
665.28	1079.22
665.62	1089.75
665.96	1097.95
666.30	1089.99
666.64	1084.14
666.98	1079.22
667.32	1075.01
667.66	1076.88
668.01	1080.39
668.35	1086.24
668.69	1079.92
669.03	1082.03
669.37	1082.50
669.71	1083.43
670.05	1089.75
670.39	1083.90
670.73	1083.67
671.07	1087.88
671.41	1087.88
671.75	1082.50
672.09	1091.63
672.43	1088.35
672.77	1083.20
673.11	1080.39
673.45	1072.43
673.79	1076.88
674.13	1070.56
674.47	1070.33
674.81	1078.05
675.15	1087.88
675.49	1086.94
675.83	1094.43
676.17	1092.56
676.51	1090.46
676.85	1082.50
677.19	1078.28
677.53	1080.39
677.87	1086.01
678.21	1080.63
678.55	1087.65
678.89	1085.07
679.23	1079.46
679.57	1074.07
679.90	1083.43
680.24	1082.50
680.58	1081.09
680.92	1073.14
681.26	1075.24
681.60	1066.35
681.94	1070.56
682.28	1078.05
682.62	1096.54
682.96	1092.09
683.29	1083.90
683.63	1077.58
683.97	1073.14
684.31	1069.86
684.65	1062.60
684.99	1076.88
685.33	1075.71
685.67	1080.39
686.00	1079.92
686.34	1086.94
686.68	1086.71
687.02	1090.46
687.36	1077.82
687.70	1078.52
688.03	1078.52
688.37	1078.28
688.71	1080.86
689.05	1091.63
689.39	1082.03
689.72	1090.46
690.06	1089.05
690.40	1082.97
690.74	1073.84
691.08	1081.09
691.41	1077.35
691.75	1082.73
692.09	1086.94
692.43	1095.60
692.76	1094.20
693.10	1096.78
693.44	1088.12
693.78	1078.99
694.11	1075.01
694.45	1071.97
694.79	1065.18
695.13	1067.05
695.46	1071.26
695.80	1067.28
696.14	1059.56
696.48	1060.26
696.81	1056.28
697.15	1067.99
697.49	1077.82
697.82	1091.16
698.16	1090.46
698.50	1090.69
698.83	1099.12
699.17	1089.75
699.51	1086.01
699.84	1082.97
700.18	1081.56
700.52	1062.37
700.85	1074.31
701.19	1070.09
701.53	1069.16
701.86	1075.48
702.20	1090.22
702.54	1086.24
702.87	1079.46
703.21	1079.92
703.55	1070.33
703.88	1061.43
704.22	1057.92
704.55	1067.75
704.89	1076.65
705.23	1092.09
705.56	1094.43
705.90	1096.54
706.23	1107.31
706.57	1104.50
706.91	1088.58
707.24	1084.37
707.58	1092.33
707.91	1077.11
708.25	1078.28
708.58	1078.99
708.92	1077.58
709.26	1069.39
709.59	1080.63
709.93	1069.62
710.26	1074.54
710.60	1067.05
710.93	1064.24
711.27	1059.09
711.60	1073.37
711.94	1071.97
712.27	1078.75
712.61	1088.12
712.94	1082.03
713.28	1072.43
713.61	1081.56
713.95	1079.46
714.28	1064.71
714.62	1072.20
714.95	1072.43
715.29	1068.92
715.62	1064.24
715.96	1060.73
716.29	1059.33
716.63	1060.50
716.96	1063.31
717.29	1070.09
717.63	1077.35
717.96	1073.60
718.30	1069.86
718.63	1059.79
718.97	1063.54
719.30	1065.41
719.63	1069.39
719.97	1068.92
720.30	1068.92
720.64	1064.48
720.97	1058.86
721.30	1061.43
721.64	1079.92
721.97	1083.20
722.31	1094.20
722.64	1104.03
722.97	1099.58
723.31	1089.99
723.64	1100.52
723.97	1088.35
724.31	1087.41
724.64	1091.86
724.98	1086.24
725.31	1082.50
725.64	1083.67
725.98	1092.09
726.31	1095.37
726.64	1100.52
726.97	1093.03
727.31	1099.12
727.64	1086.94
727.97	1077.35
728.31	1078.28
728.64	1081.80
728.97	1079.69
729.31	1087.65
729.64	1082.73
729.97	1080.63
730.30	1080.86
730.64	1085.07
730.97	1073.84
731.30	1083.43
731.63	1088.58
731.97	1088.82
732.30	1091.16
732.63	1100.52
732.96	1099.35
733.30	1096.07
733.63	1091.16
733.96	1091.39
734.29	1089.29
734.63	1086.94
734.96	1078.28
735.29	1074.31
735.62	1063.07
735.95	1060.96
736.29	1063.77
736.62	1068.22
736.95	1070.80
737.28	1082.73
737.61	1087.41
737.94	1085.77
738.28	1087.41
738.61	1089.75
738.94	1079.92
739.27	1082.97
739.60	1088.58
739.93	1093.73
740.27	1091.63
740.60	1092.80
740.93	1081.80
741.26	1072.20
741.59	1061.67
741.92	1064.71
742.25	1063.07
742.58	1070.80
742.91	1073.37
743.25	1081.33
743.58	1085.07
743.91	1081.80
744.24	1079.22
744.57	1082.50
744.90	1082.03
745.23	1080.86
745.56	1080.39
745.89	1078.75
746.22	1072.20
746.55	1059.79
746.88	1059.09
747.21	1057.69
747.54	1060.26
747.87	1064.71
748.20	1071.50
748.53	1064.48
748.87	1061.43
749.20	1056.52
749.53	1055.11
749.86	1061.20
750.19	1079.69
750.52	1086.94
750.85	1090.92
751.18	1096.07
751.51	1105.67
751.84	1100.52
752.16	1100.52
752.49	1102.39
752.82	1103.80
753.15	1094.67
753.48	1086.71
753.81	1082.26
754.14	1078.28
754.47	1066.35
754.80	1060.50
755.13	1061.90
755.46	1069.86
755.79	1072.20
756.12	1084.37
756.45	1093.73
756.78	1094.20
757.11	1094.43
757.43	1095.84
757.76	1082.50
758.09	1073.37
758.42	1078.75
758.75	1077.82
759.08	1089.29
759.41	1103.09
759.74	1115.27
760.07	1109.41
760.39	1119.95
760.72	1106.14
761.05	1104.97
761.38	1105.67
761.71	1105.67
762.04	1099.35
762.36	1087.88
762.69	1083.67
763.02	1075.94
763.35	1074.07
763.68	1074.54
764.01	1082.26
764.33	1082.03
764.66	1075.94
764.99	1076.88
765.32	1072.20
765.65	1077.35
765.97	1080.16
766.30	1087.88
