SpectraSuite Data File
++++++++++++++++++++++++++++++++++++
Date: Mon Aug 26 10:25:55 PDT 2019
User: corrico
Dark Spectrum Present: No
Reference Spectrum Present: No
Number of Sampled Component Spectra: 1
Spectrometers: USB2+H06089
Integration Time (usec): 10000 (USB2+H06089)
Spectra Averaged: 2 (USB2+H06089)
Boxcar Smoothing: 2 (USB2+H06089)
Correct for Electrical Dark: No (USB2+H06089)
Strobe/Lamp Enabled: No (USB2+H06089)
Correct for Detector Non-linearity: No (USB2+H06089)
Correct for Stray Light: No (USB2+H06089)
Number of Pixels in Processed Spectrum: 2048
>>>>>Begin Processed Spectral Data<<<<<
339.70	1012.28
340.07	1012.28
340.45	989.58
340.82	979.28
341.19	946.75
341.57	922.41
341.94	915.85
342.31	905.79
342.69	888.94
343.06	902.51
343.43	907.66
343.81	898.06
344.18	898.06
344.55	902.74
344.93	902.04
345.30	901.57
345.67	920.06
346.04	935.75
346.42	950.02
346.79	960.56
347.16	968.51
347.54	967.34
347.91	963.83
348.28	966.64
348.65	971.32
349.03	984.90
349.40	993.56
349.77	1010.64
350.14	1022.11
350.52	1028.67
350.89	1027.50
351.26	1035.45
351.63	1031.94
352.01	1038.26
352.38	1044.82
352.75	1047.86
353.12	1052.77
353.50	1064.94
353.87	1064.48
354.24	1067.99
354.61	1076.88
354.98	1075.71
355.36	1075.48
355.73	1075.94
356.10	1071.97
356.47	1071.03
356.84	1067.05
357.22	1068.92
357.59	1072.90
357.96	1079.92
358.33	1091.63
358.70	1101.22
359.08	1093.50
359.45	1090.46
359.82	1097.71
360.19	1086.24
360.56	1084.37
360.94	1084.84
361.31	1077.11
361.68	1060.96
362.05	1061.43
362.42	1065.65
362.79	1061.90
363.16	1067.28
363.54	1072.20
363.91	1067.52
364.28	1064.24
364.65	1056.99
365.02	1061.90
365.39	1069.86
365.76	1073.60
366.14	1071.97
366.51	1079.92
366.88	1077.82
367.25	1079.46
367.62	1072.20
367.99	1075.94
368.36	1077.58
368.73	1073.60
369.10	1062.60
369.48	1066.35
369.85	1058.39
370.22	1056.28
370.59	1060.73
370.96	1064.01
371.33	1065.41
371.70	1067.28
372.07	1075.48
372.44	1075.48
372.81	1069.62
373.18	1070.33
373.55	1066.35
373.93	1064.71
374.30	1069.39
374.67	1070.33
375.04	1078.52
375.41	1081.80
375.78	1081.33
376.15	1074.54
376.52	1077.82
376.89	1075.71
377.26	1080.63
377.63	1075.71
378.00	1076.41
378.37	1074.31
378.74	1072.90
379.11	1064.94
379.48	1062.84
379.85	1058.39
380.22	1066.35
380.59	1063.77
380.96	1057.69
381.33	1053.01
381.70	1060.73
382.07	1062.14
382.44	1066.58
382.81	1092.33
383.18	1102.39
383.55	1094.67
383.92	1086.24
384.29	1089.99
384.66	1082.26
385.03	1084.84
385.40	1095.14
385.77	1092.56
386.14	1084.37
386.51	1076.65
386.88	1070.33
387.25	1071.97
387.62	1077.11
387.99	1071.26
388.36	1066.82
388.73	1067.52
389.10	1064.24
389.46	1057.69
389.83	1059.79
390.20	1063.54
390.57	1071.50
390.94	1059.33
391.31	1060.03
391.68	1071.26
392.05	1068.22
392.42	1064.71
392.79	1071.97
393.16	1072.90
393.53	1063.77
393.89	1074.77
394.26	1075.24
394.63	1086.01
395.00	1091.63
395.37	1086.01
395.74	1079.22
396.11	1080.39
396.48	1068.22
396.84	1053.71
397.21	1057.45
397.58	1063.77
397.95	1067.28
398.32	1070.80
398.69	1089.05
399.06	1088.82
399.42	1086.94
399.79	1080.39
400.16	1075.24
400.53	1058.39
400.90	1059.09
401.27	1050.67
401.64	1053.94
402.00	1050.67
402.37	1055.82
402.74	1064.94
403.11	1067.28
403.48	1069.62
403.84	1074.77
404.21	1074.54
404.58	1061.43
404.95	1067.05
405.32	1066.11
405.68	1061.90
406.05	1071.73
406.42	1075.94
406.79	1069.62
407.16	1068.22
407.52	1069.39
407.89	1059.09
408.26	1047.86
408.63	1050.43
408.99	1043.88
409.36	1047.86
409.73	1071.26
410.10	1086.01
410.47	1088.35
410.83	1093.26
411.20	1089.75
411.57	1071.73
411.94	1075.01
412.30	1072.43
412.67	1062.84
413.04	1064.48
413.40	1068.92
413.77	1060.73
414.14	1055.82
414.51	1058.16
414.87	1062.60
415.24	1058.62
415.61	1059.79
415.97	1070.33
416.34	1074.31
416.71	1070.09
417.08	1066.11
417.44	1064.94
417.81	1056.75
418.18	1063.77
418.54	1057.69
418.91	1060.03
419.28	1060.26
419.64	1068.22
420.01	1060.50
420.38	1077.58
420.74	1085.54
421.11	1104.50
421.48	1097.95
421.84	1103.33
422.21	1094.67
422.58	1087.18
422.94	1075.01
423.31	1077.58
423.68	1072.20
424.04	1074.54
424.41	1075.71
424.77	1080.39
425.14	1082.73
425.51	1076.65
425.87	1077.82
426.24	1079.22
426.61	1067.05
426.97	1066.11
427.34	1076.41
427.70	1079.69
428.07	1086.71
428.44	1089.99
428.80	1082.26
429.17	1087.88
429.53	1084.14
429.90	1076.65
430.27	1085.31
430.63	1090.46
431.00	1088.82
431.36	1081.33
431.73	1087.18
432.09	1091.86
432.46	1092.56
432.83	1084.37
433.19	1085.31
433.56	1078.75
433.92	1070.33
434.29	1074.77
434.65	1080.63
435.02	1088.35
435.38	1082.73
435.75	1070.09
436.11	1067.05
436.48	1067.99
436.84	1067.99
437.21	1073.37
437.57	1078.05
437.94	1075.71
438.30	1068.69
438.67	1070.33
439.03	1078.28
439.40	1082.03
439.76	1072.20
440.13	1073.14
440.49	1062.84
440.86	1044.11
441.22	1044.11
441.59	1045.99
441.95	1055.11
442.32	1060.03
442.68	1080.16
443.05	1070.33
443.41	1080.63
443.78	1076.18
444.14	1071.73
444.51	1065.41
444.87	1070.33
445.24	1072.90
445.60	1072.67
445.96	1082.26
446.33	1083.20
446.69	1089.99
447.06	1094.43
447.42	1093.97
447.79	1089.29
448.15	1083.67
448.51	1081.80
448.88	1076.41
449.24	1084.60
449.61	1081.80
449.97	1085.31
450.33	1086.94
450.70	1100.29
451.06	1097.48
451.43	1098.41
451.79	1098.41
452.15	1096.07
452.52	1080.16
452.88	1077.82
453.24	1074.31
453.61	1076.18
453.97	1077.11
454.34	1083.43
454.70	1080.16
455.06	1080.63
455.43	1075.94
455.79	1082.97
456.15	1076.65
456.52	1081.80
456.88	1092.33
457.24	1101.69
457.61	1095.60
457.97	1099.82
458.33	1088.58
458.70	1076.88
459.06	1079.46
459.42	1071.73
459.79	1069.39
460.15	1076.41
460.51	1080.63
460.88	1072.90
461.24	1081.80
461.60	1078.75
461.96	1077.35
462.33	1078.99
462.69	1067.75
463.05	1063.54
463.42	1072.90
463.78	1067.99
464.14	1059.09
464.50	1072.67
464.87	1079.22
465.23	1070.09
465.59	1074.54
465.95	1088.58
466.32	1089.99
466.68	1079.92
467.04	1081.80
467.40	1076.41
467.77	1067.52
468.13	1064.24
468.49	1073.60
468.85	1063.54
469.22	1067.52
469.58	1079.46
469.94	1086.94
470.30	1084.84
470.66	1093.26
471.03	1095.37
471.39	1085.77
471.75	1079.46
472.11	1075.24
472.47	1081.33
472.84	1077.35
473.20	1087.41
473.56	1087.41
473.92	1094.20
474.28	1090.92
474.65	1092.80
475.01	1079.46
475.37	1066.11
475.73	1066.11
476.09	1062.60
476.45	1055.58
476.81	1063.77
477.18	1072.43
477.54	1064.48
477.90	1068.45
478.26	1081.56
478.62	1082.50
478.98	1085.54
479.34	1086.71
479.71	1086.48
480.07	1076.65
480.43	1069.39
480.79	1064.94
481.15	1070.09
481.51	1067.75
481.87	1072.67
482.23	1072.67
482.59	1070.56
482.96	1072.43
483.32	1072.20
483.68	1072.90
484.04	1075.94
484.40	1080.16
484.76	1075.94
485.12	1067.05
485.48	1070.80
485.84	1076.65
486.20	1085.54
486.56	1094.20
486.92	1104.73
487.28	1101.22
487.64	1096.07
488.00	1086.71
488.37	1068.45
488.73	1064.71
489.09	1061.43
489.45	1070.09
489.81	1070.33
490.17	1087.18
490.53	1094.67
490.89	1101.46
491.25	1096.54
491.61	1099.12
491.97	1088.58
492.33	1087.41
492.69	1079.22
493.05	1068.45
493.41	1072.43
493.77	1083.20
494.13	1093.03
494.49	1102.86
494.85	1107.07
495.21	1098.65
495.57	1099.12
495.93	1087.18
496.29	1078.99
496.64	1079.22
497.00	1080.86
497.36	1068.69
497.72	1059.79
498.08	1058.39
498.44	1065.88
498.80	1070.56
499.16	1075.48
499.52	1077.58
499.88	1085.07
500.24	1076.88
500.60	1075.01
500.96	1072.90
501.32	1077.35
501.68	1068.69
502.03	1064.24
502.39	1052.54
502.75	1054.18
503.11	1053.01
503.47	1064.01
503.83	1070.80
504.19	1088.12
504.55	1088.58
504.91	1089.75
505.26	1079.46
505.62	1088.12
505.98	1083.43
506.34	1078.28
506.70	1075.01
507.06	1082.50
507.42	1070.56
507.78	1064.01
508.13	1071.26
508.49	1073.14
508.85	1075.24
509.21	1083.20
509.57	1089.99
509.93	1097.48
510.28	1095.60
510.64	1087.65
511.00	1085.07
511.36	1090.46
511.72	1086.71
512.07	1085.07
512.43	1089.05
512.79	1090.46
513.15	1085.31
513.51	1081.80
513.86	1086.48
514.22	1085.31
514.58	1074.77
514.94	1070.80
515.30	1071.26
515.65	1071.97
516.01	1085.31
516.37	1091.63
516.73	1095.84
517.08	1098.88
517.44	1110.35
517.80	1103.09
518.16	1103.56
518.51	1096.78
518.87	1095.60
519.23	1093.50
519.59	1083.43
519.94	1086.24
520.30	1096.54
520.66	1101.22
521.01	1093.73
521.37	1109.41
521.73	1106.84
522.09	1103.80
522.44	1097.71
522.80	1097.24
523.16	1082.50
523.51	1082.73
523.87	1081.56
524.23	1084.37
524.58	1078.75
524.94	1084.84
525.30	1089.75
525.65	1084.84
526.01	1084.84
526.37	1098.41
526.72	1100.75
527.08	1106.14
527.44	1107.31
527.79	1107.07
528.15	1093.73
528.51	1079.69
528.86	1066.82
529.22	1075.71
529.58	1068.22
529.93	1065.65
530.29	1070.56
530.65	1078.28
531.00	1067.28
531.36	1069.16
531.71	1082.97
532.07	1088.12
532.43	1086.48
532.78	1097.01
533.14	1104.73
533.49	1098.41
533.85	1096.07
534.21	1089.99
534.56	1090.69
534.92	1081.33
535.27	1086.01
535.63	1086.24
535.98	1084.84
536.34	1087.18
536.69	1099.12
537.05	1086.48
537.41	1084.14
537.76	1085.31
538.12	1074.31
538.47	1071.50
538.83	1086.01
539.18	1082.50
539.54	1083.20
539.89	1077.58
540.25	1070.80
540.60	1063.07
540.96	1078.52
541.31	1080.63
541.67	1089.99
542.02	1097.48
542.38	1101.22
542.73	1100.05
543.09	1098.65
543.44	1094.20
543.80	1083.90
544.15	1085.31
544.51	1075.48
544.86	1076.65
545.22	1086.48
545.57	1096.07
545.93	1099.82
546.28	1102.39
546.64	1102.86
546.99	1098.88
547.35	1097.24
547.70	1094.90
548.05	1102.63
548.41	1104.26
548.76	1103.33
549.12	1103.80
549.47	1099.82
549.83	1091.86
550.18	1090.69
550.53	1091.16
550.89	1080.63
551.24	1086.01
551.60	1082.73
551.95	1073.84
552.30	1079.22
552.66	1098.65
553.01	1095.37
553.37	1104.73
553.72	1110.12
554.07	1109.18
554.43	1099.35
554.78	1102.39
555.13	1093.97
555.49	1097.24
555.84	1087.65
556.19	1086.24
556.55	1081.80
556.90	1081.80
557.26	1091.63
557.61	1088.35
557.96	1092.33
558.32	1093.50
558.67	1091.63
559.02	1080.63
559.37	1084.37
559.73	1072.20
560.08	1067.52
560.43	1071.73
560.79	1073.60
561.14	1077.58
561.49	1073.14
561.85	1087.65
562.20	1101.22
562.55	1098.18
562.90	1102.63
563.26	1109.88
563.61	1095.14
563.96	1081.09
564.32	1086.24
564.67	1082.26
565.02	1094.90
565.37	1091.86
565.73	1095.14
566.08	1089.75
566.43	1090.92
566.78	1089.05
567.14	1082.50
567.49	1074.07
567.84	1073.84
568.19	1074.31
568.54	1074.77
568.90	1085.77
569.25	1096.78
569.60	1100.75
569.95	1089.99
570.31	1073.84
570.66	1075.48
571.01	1068.69
571.36	1068.92
571.71	1073.60
572.06	1075.94
572.42	1074.77
572.77	1078.05
573.12	1071.73
573.47	1077.11
573.82	1074.07
574.18	1075.94
574.53	1071.26
574.88	1083.20
575.23	1073.60
575.58	1079.46
575.93	1068.69
576.28	1063.07
576.64	1054.18
576.99	1067.99
577.34	1064.48
577.69	1073.84
578.04	1074.07
578.39	1076.88
578.74	1076.18
579.09	1085.31
579.44	1086.24
579.80	1096.31
580.15	1094.43
580.50	1096.78
580.85	1091.86
581.20	1085.07
581.55	1081.33
581.90	1085.07
582.25	1076.88
582.60	1076.18
582.95	1082.73
583.30	1092.56
583.65	1090.46
584.00	1087.18
584.35	1085.31
584.71	1077.58
585.06	1062.14
585.41	1069.39
585.76	1069.62
586.11	1072.43
586.46	1079.22
586.81	1080.63
587.16	1075.94
587.51	1081.56
587.86	1088.58
588.21	1086.01
588.56	1093.73
588.91	1080.16
589.26	1072.43
589.61	1067.05
589.96	1067.99
590.31	1070.09
590.66	1084.84
591.01	1092.56
591.36	1092.80
591.71	1094.43
592.06	1096.07
592.41	1093.97
592.76	1089.29
593.10	1084.84
593.45	1082.26
593.80	1082.03
594.15	1077.11
594.50	1075.24
594.85	1082.97
595.20	1088.58
595.55	1082.97
595.90	1086.48
596.25	1089.52
596.60	1085.31
596.95	1083.67
597.30	1079.92
597.64	1144.05
597.99	1152.48
598.34	1156.46
598.69	1150.84
599.04	1150.84
599.39	1092.56
599.74	1085.54
600.09	1076.65
600.44	1079.69
600.78	1083.67
601.13	1068.69
601.48	1067.28
601.83	1074.77
602.18	1071.97
602.53	1063.31
602.88	1062.60
603.22	1064.71
603.57	1068.45
603.92	1074.54
604.27	1083.20
604.62	1089.29
604.97	1080.16
605.31	1069.39
605.66	1069.16
606.01	1061.67
606.36	1056.05
606.71	1067.75
607.05	1065.88
607.40	1069.39
607.75	1075.24
608.10	1087.41
608.44	1089.29
608.79	1079.69
609.14	1085.07
609.49	1093.26
609.84	1092.09
610.18	1091.39
610.53	1115.03
610.88	1100.52
611.23	1101.92
611.57	1100.99
611.92	1097.48
612.27	1092.80
612.62	1098.18
612.96	1093.97
613.31	1098.18
613.66	1097.48
614.00	1091.39
614.35	1079.22
614.70	1068.69
615.05	1070.56
615.39	1074.07
615.74	1087.41
616.09	1093.50
616.43	1107.54
616.78	1093.26
617.13	1088.12
617.47	1077.82
617.82	1074.07
618.17	1069.62
618.51	1084.84
618.86	1078.75
619.21	1070.33
619.55	1087.18
619.90	1081.56
620.25	1062.14
620.59	1058.62
620.94	1067.52
621.29	1064.94
621.63	1061.90
621.98	1072.43
622.32	1082.03
622.67	1083.90
623.02	1080.86
623.36	1084.84
623.71	1088.58
624.05	1093.73
624.40	1096.07
624.75	1092.80
625.09	1097.24
625.44	1093.97
625.78	1089.99
626.13	1081.80
626.48	1087.41
626.82	1084.37
627.17	1081.80
627.51	1084.84
627.86	1094.90
628.20	1100.05
628.55	1092.33
628.89	1092.56
629.24	1093.97
629.58	1083.67
629.93	1075.48
630.28	1084.60
630.62	1091.39
630.97	1076.18
631.31	1084.14
631.66	1073.14
632.00	1072.90
632.35	1075.48
632.69	1087.88
633.04	1086.94
633.38	1087.41
633.73	1083.90
634.07	1069.86
634.42	1071.03
634.76	1069.62
635.11	1081.80
635.45	1083.43
635.79	1091.63
636.14	1090.69
636.48	1091.86
636.83	1080.16
637.17	1072.67
637.52	1073.60
637.86	1067.52
638.21	1063.54
638.55	1069.86
638.89	1078.28
639.24	1072.90
639.58	1075.71
639.93	1075.94
640.27	1083.67
640.61	1082.97
640.96	1091.86
641.30	1095.37
641.65	1096.07
641.99	1091.16
642.33	1086.94
642.68	1075.71
643.02	1075.24
643.37	1075.24
643.71	1074.54
644.05	1085.54
644.40	1089.52
644.74	1088.58
645.08	1093.26
645.43	1095.14
645.77	1091.86
646.11	1089.99
646.46	1091.16
646.80	1082.50
647.14	1083.67
647.49	1078.52
647.83	1071.50
648.17	1071.73
648.52	1072.20
648.86	1078.52
649.20	1091.86
649.55	1106.14
649.89	1101.46
650.23	1113.39
650.57	1102.86
650.92	1094.90
651.26	1093.26
651.60	1096.78
651.95	1086.48
652.29	1088.82
652.63	1082.73
652.97	1075.48
653.32	1084.14
653.66	1081.80
654.00	1079.46
654.34	1071.50
654.69	1078.28
655.03	1055.58
655.37	1055.82
655.71	1060.73
656.05	1082.73
656.40	1083.67
656.74	1101.22
657.08	1111.52
657.42	1105.20
657.76	1090.92
658.11	1090.92
658.45	1098.18
658.79	1092.80
659.13	1093.50
659.47	1097.71
659.82	1098.88
660.16	1085.54
660.50	1095.60
660.84	1093.97
661.18	1088.12
661.52	1082.50
661.87	1080.16
662.21	1082.26
662.55	1083.90
662.89	1089.75
663.23	1091.39
663.57	1088.82
663.91	1071.50
664.25	1069.62
664.60	1068.22
664.94	1067.52
665.28	1069.39
665.62	1075.71
665.96	1073.84
666.30	1078.99
666.64	1086.94
666.98	1097.24
667.32	1103.09
667.66	1095.37
668.01	1092.33
668.35	1079.46
668.69	1072.20
669.03	1070.33
669.37	1090.92
669.71	1097.95
670.05	1096.78
670.39	1105.20
670.73	1099.12
671.07	1085.31
671.41	1080.16
671.75	1087.41
672.09	1084.60
672.43	1078.05
672.77	1079.46
673.11	1071.97
673.45	1071.26
673.79	1066.11
674.13	1080.16
674.47	1078.99
674.81	1081.56
675.15	1081.09
675.49	1076.65
675.83	1061.90
676.17	1064.24
676.51	1062.60
676.85	1064.48
677.19	1067.52
677.53	1069.39
677.87	1070.56
678.21	1075.01
678.55	1073.84
678.89	1073.37
679.23	1078.75
679.57	1084.14
679.90	1084.84
680.24	1086.24
680.58	1086.71
680.92	1088.12
681.26	1086.24
681.60	1090.92
681.94	1091.63
682.28	1089.05
682.62	1087.41
682.96	1090.69
683.29	1087.18
683.63	1083.90
683.97	1088.35
684.31	1082.03
684.65	1079.22
684.99	1072.20
685.33	1067.28
685.67	1058.39
686.00	1060.26
686.34	1052.07
686.68	1054.65
687.02	1064.48
687.36	1075.01
687.70	1075.24
688.03	1082.50
688.37	1079.69
688.71	1072.67
689.05	1075.71
689.39	1074.54
689.72	1077.35
690.06	1079.69
690.40	1084.60
690.74	1080.39
691.08	1082.73
691.41	1082.97
691.75	1088.58
692.09	1087.18
692.43	1084.14
692.76	1093.26
693.10	1082.03
693.44	1088.35
693.78	1087.65
694.11	1095.84
694.45	1090.69
694.79	1101.22
695.13	1089.29
695.46	1097.01
695.80	1086.24
696.14	1083.43
696.48	1083.43
696.81	1080.16
697.15	1069.86
697.49	1064.24
697.82	1068.22
698.16	1057.45
698.50	1060.50
698.83	1066.35
699.17	1071.73
699.51	1071.03
699.84	1077.82
700.18	1078.75
700.52	1068.92
700.85	1077.35
701.19	1071.73
701.53	1077.58
701.86	1073.37
702.20	1076.41
702.54	1067.28
702.87	1076.65
703.21	1069.39
703.55	1078.05
703.88	1072.20
704.22	1075.48
704.55	1064.24
704.89	1065.18
705.23	1055.35
705.56	1061.20
705.90	1053.24
706.23	1061.90
706.57	1057.69
706.91	1060.73
707.24	1066.11
707.58	1089.29
707.91	1084.84
708.25	1098.18
708.58	1103.56
708.92	1110.58
709.26	1097.01
709.59	1090.92
709.93	1079.92
710.26	1075.71
710.60	1064.01
710.93	1058.86
711.27	1073.84
711.60	1078.99
711.94	1080.63
712.27	1086.01
712.61	1092.33
712.94	1090.46
713.28	1086.48
713.61	1091.39
713.95	1089.29
714.28	1081.80
714.62	1077.58
714.95	1076.65
715.29	1070.80
715.62	1068.92
715.96	1069.39
716.29	1065.18
716.63	1074.54
716.96	1081.56
717.29	1085.07
717.63	1088.12
717.96	1092.56
718.30	1087.65
718.63	1085.31
718.97	1076.88
719.30	1075.01
719.63	1072.90
719.97	1069.39
720.30	1059.09
720.64	1059.09
720.97	1063.31
721.30	1060.96
721.64	1072.20
721.97	1078.75
722.31	1086.48
722.64	1092.09
722.97	1097.71
723.31	1099.12
723.64	1101.46
723.97	1098.18
724.31	1106.61
724.64	1103.33
724.98	1083.43
725.31	1081.33
725.64	1089.99
725.98	1072.43
726.31	1078.99
726.64	1098.18
726.97	1090.46
727.31	1075.48
727.64	1079.22
727.97	1065.18
728.31	1049.03
728.64	1055.82
728.97	1064.71
729.31	1067.75
729.64	1069.16
729.97	1083.43
730.30	1090.46
730.64	1088.12
730.97	1080.63
731.30	1091.39
731.63	1083.90
731.97	1074.31
732.30	1075.01
732.63	1075.24
732.96	1074.54
733.30	1072.20
733.63	1080.86
733.96	1083.90
734.29	1090.92
734.63	1080.16
734.96	1079.46
735.29	1077.35
735.62	1074.54
735.95	1065.65
736.29	1075.94
736.62	1078.99
736.95	1072.43
737.28	1069.39
737.61	1084.60
737.94	1084.37
738.28	1072.90
738.61	1075.71
738.94	1069.62
739.27	1061.43
739.60	1053.01
739.93	1058.16
740.27	1061.67
740.60	1072.43
740.93	1063.54
741.26	1063.31
741.59	1077.11
741.92	1076.65
742.25	1075.71
742.58	1075.94
742.91	1077.58
743.25	1071.50
743.58	1065.88
743.91	1066.82
744.24	1071.73
744.57	1074.77
744.90	1068.45
745.23	1071.26
745.56	1068.22
745.89	1070.56
746.22	1063.31
746.55	1060.73
746.88	1052.07
747.21	1057.22
747.54	1054.41
747.87	1062.14
748.20	1071.03
748.53	1087.65
748.87	1083.20
749.20	1086.94
749.53	1077.82
749.86	1079.46
750.19	1076.18
750.52	1073.84
750.85	1076.65
751.18	1089.75
751.51	1085.77
751.84	1079.69
752.16	1084.37
752.49	1079.92
752.82	1080.86
753.15	1076.41
753.48	1076.65
753.81	1084.60
754.14	1083.43
754.47	1082.26
754.80	1087.41
755.13	1082.73
755.46	1074.54
755.79	1067.28
756.12	1066.11
756.45	1061.67
756.78	1060.73
757.11	1054.41
757.43	1069.86
757.76	1063.31
758.09	1066.11
758.42	1067.99
758.75	1079.92
759.08	1070.56
759.41	1074.31
759.74	1070.56
760.07	1068.22
760.39	1064.01
760.72	1070.80
761.05	1071.26
761.38	1075.01
761.71	1066.58
762.04	1060.50
762.36	1063.31
762.69	1056.05
763.02	1055.82
763.35	1077.82
763.68	1086.01
764.01	1080.63
764.33	1088.58
764.66	1094.90
764.99	1085.07
765.32	1087.88
765.65	1084.37
765.97	1074.77
766.30	1071.03
