SpectraSuite Data File
++++++++++++++++++++++++++++++++++++
Date: Mon Aug 26 10:25:57 PDT 2019
User: corrico
Dark Spectrum Present: No
Reference Spectrum Present: No
Number of Sampled Component Spectra: 1
Spectrometers: USB2+H06089
Integration Time (usec): 10000 (USB2+H06089)
Spectra Averaged: 2 (USB2+H06089)
Boxcar Smoothing: 2 (USB2+H06089)
Correct for Electrical Dark: No (USB2+H06089)
Strobe/Lamp Enabled: No (USB2+H06089)
Correct for Detector Non-linearity: No (USB2+H06089)
Correct for Stray Light: No (USB2+H06089)
Number of Pixels in Processed Spectrum: 2048
>>>>>Begin Processed Spectral Data<<<<<
339.70	1016.96
340.07	1016.96
340.45	988.88
340.82	971.79
341.19	948.62
341.57	928.96
341.94	922.64
342.31	908.13
342.69	905.09
343.06	906.49
343.43	910.47
343.81	911.64
344.18	925.45
344.55	924.75
344.93	923.81
345.30	918.43
345.67	925.68
346.04	927.79
346.42	928.26
346.79	942.30
347.16	952.13
347.54	967.58
347.91	974.13
348.28	994.49
348.65	995.66
349.03	1005.26
349.40	994.26
349.77	995.20
350.14	997.77
350.52	1012.28
350.89	1018.13
351.26	1028.90
351.63	1039.43
352.01	1049.26
352.38	1054.18
352.75	1061.90
353.12	1069.86
353.50	1077.82
353.87	1079.22
354.24	1081.09
354.61	1097.24
354.98	1108.48
355.36	1115.97
355.73	1117.84
356.10	1120.18
356.47	1098.88
356.84	1081.33
357.22	1078.05
357.59	1081.80
357.96	1079.92
358.33	1079.92
358.70	1088.82
359.08	1081.09
359.45	1077.82
359.82	1075.94
360.19	1077.58
360.56	1080.16
360.94	1090.69
361.31	1081.80
361.68	1073.14
362.05	1075.94
362.42	1071.97
362.79	1070.80
363.16	1079.46
363.54	1083.90
363.91	1081.56
364.28	1071.73
364.65	1068.45
365.02	1061.67
365.39	1064.48
365.76	1065.65
366.14	1067.52
366.51	1068.69
366.88	1069.62
367.25	1075.94
367.62	1079.92
367.99	1089.29
368.36	1078.05
368.73	1079.46
369.10	1065.41
369.48	1065.88
369.85	1056.28
370.22	1064.71
370.59	1057.22
370.96	1060.50
371.33	1059.79
371.70	1073.14
372.07	1074.31
372.44	1088.12
372.81	1084.60
373.18	1075.48
373.55	1059.79
373.93	1053.71
374.30	1042.71
374.67	1049.26
375.04	1049.96
375.41	1069.16
375.78	1072.67
376.15	1072.90
376.52	1074.31
376.89	1084.84
377.26	1075.94
377.63	1066.35
378.00	1078.52
378.37	1083.43
378.74	1073.60
379.11	1066.58
379.48	1079.92
379.85	1066.58
380.22	1068.22
380.59	1065.41
380.96	1067.99
381.33	1062.14
381.70	1071.73
382.07	1064.01
382.44	1069.39
382.81	1069.62
383.18	1074.77
383.55	1080.16
383.92	1075.94
384.29	1089.75
384.66	1093.26
385.03	1090.69
385.40	1085.31
385.77	1094.90
386.14	1082.50
386.51	1079.46
386.88	1077.35
387.25	1068.22
387.62	1067.52
387.99	1071.73
388.36	1070.09
388.73	1070.33
389.10	1071.03
389.46	1063.31
389.83	1049.96
390.20	1052.54
390.57	1051.37
390.94	1059.56
391.31	1066.11
391.68	1068.92
392.05	1072.67
392.42	1075.48
392.79	1079.46
393.16	1077.35
393.53	1079.92
393.89	1070.09
394.26	1085.31
394.63	1083.43
395.00	1088.12
395.37	1091.16
395.74	1106.61
396.11	1095.14
396.48	1094.20
396.84	1085.54
397.21	1092.80
397.58	1086.71
397.95	1084.60
398.32	1081.33
398.69	1084.60
399.06	1076.65
399.42	1074.77
399.79	1071.03
400.16	1075.71
400.53	1073.84
400.90	1070.80
401.27	1065.41
401.64	1069.62
402.00	1063.07
402.37	1058.86
402.74	1068.22
403.11	1077.58
403.48	1081.09
403.84	1085.07
404.21	1093.73
404.58	1092.33
404.95	1082.97
405.32	1085.31
405.68	1083.20
406.05	1076.88
406.42	1067.99
406.79	1071.26
407.16	1066.82
407.52	1056.99
407.89	1063.31
408.26	1066.58
408.63	1068.22
408.99	1061.43
409.36	1061.90
409.73	1067.28
410.10	1067.28
410.47	1062.14
410.83	1066.58
411.20	1075.48
411.57	1076.88
411.94	1076.65
412.30	1089.75
412.67	1083.90
413.04	1077.82
413.40	1069.39
413.77	1066.11
414.14	1056.28
414.51	1060.96
414.87	1077.58
415.24	1078.99
415.61	1088.12
415.97	1093.50
416.34	1091.39
416.71	1082.73
417.08	1086.48
417.44	1082.26
417.81	1074.54
418.18	1080.86
418.54	1081.33
418.91	1079.22
419.28	1088.82
419.64	1095.60
420.01	1091.39
420.38	1086.71
420.74	1091.63
421.11	1082.03
421.48	1082.97
421.84	1084.37
422.21	1088.82
422.58	1075.94
422.94	1072.43
423.31	1065.88
423.68	1065.41
424.04	1066.58
424.41	1072.43
424.77	1086.71
425.14	1090.22
425.51	1085.77
425.87	1080.86
426.24	1080.86
426.61	1072.90
426.97	1075.01
427.34	1075.71
427.70	1072.90
428.07	1075.01
428.44	1070.33
428.80	1065.88
429.17	1067.75
429.53	1072.67
429.90	1071.73
430.27	1073.84
430.63	1083.67
431.00	1082.26
431.36	1070.80
431.73	1069.16
432.09	1074.77
432.46	1069.39
432.83	1069.39
433.19	1073.84
433.56	1074.54
433.92	1070.80
434.29	1070.80
434.65	1069.62
435.02	1081.80
435.38	1072.20
435.75	1077.11
436.11	1084.37
436.48	1091.16
436.84	1083.20
437.21	1094.90
437.57	1090.92
437.94	1089.29
438.30	1083.43
438.67	1082.73
439.03	1085.54
439.40	1082.73
439.76	1071.26
440.13	1072.20
440.49	1070.56
440.86	1061.90
441.22	1069.16
441.59	1070.09
441.95	1071.50
442.32	1075.94
442.68	1083.20
443.05	1086.24
443.41	1096.54
443.78	1096.31
444.14	1096.54
444.51	1101.46
444.87	1100.29
445.24	1097.95
445.60	1095.84
445.96	1097.24
446.33	1090.22
446.69	1084.37
447.06	1085.07
447.42	1084.60
447.79	1080.63
448.15	1074.54
448.51	1070.80
448.88	1071.50
449.24	1075.24
449.61	1076.18
449.97	1085.54
450.33	1087.88
450.70	1085.07
451.06	1080.63
451.43	1076.88
451.79	1070.56
452.15	1070.80
452.52	1072.20
452.88	1085.77
453.24	1087.18
453.61	1093.50
453.97	1098.65
454.34	1094.67
454.70	1084.14
455.06	1099.58
455.43	1097.71
455.79	1089.99
456.15	1088.58
456.52	1094.90
456.88	1086.24
457.24	1084.37
457.61	1091.39
457.97	1089.99
458.33	1078.99
458.70	1073.37
459.06	1070.56
459.42	1075.01
459.79	1082.03
460.15	1082.26
460.51	1087.18
460.88	1087.41
461.24	1075.24
461.60	1072.90
461.96	1078.28
462.33	1067.99
462.69	1068.22
463.05	1070.80
463.42	1065.65
463.78	1060.96
464.14	1082.97
464.50	1078.75
464.87	1078.99
465.23	1081.33
465.59	1087.88
465.95	1068.92
466.32	1066.11
466.68	1071.73
467.04	1066.82
467.40	1060.50
467.77	1067.28
468.13	1079.22
468.49	1075.94
468.85	1079.22
469.22	1081.80
469.58	1082.26
469.94	1091.63
470.30	1091.86
470.66	1091.86
471.03	1087.65
471.39	1087.41
471.75	1074.77
472.11	1066.58
472.47	1056.05
472.84	1066.11
473.20	1068.92
473.56	1062.14
473.92	1066.11
474.28	1082.50
474.65	1077.82
475.01	1080.16
475.37	1093.03
475.73	1092.56
476.09	1086.48
476.45	1091.86
476.81	1096.31
477.18	1083.43
477.54	1088.12
477.90	1086.01
478.26	1082.73
478.62	1067.99
478.98	1075.94
479.34	1077.58
479.71	1078.99
480.07	1078.99
480.43	1088.12
480.79	1081.09
481.15	1078.52
481.51	1075.71
481.87	1074.31
482.23	1071.97
482.59	1075.94
482.96	1078.28
483.32	1080.63
483.68	1080.16
484.04	1068.69
484.40	1071.03
484.76	1062.84
485.12	1063.31
485.48	1074.54
485.84	1078.99
486.20	1081.56
486.56	1083.67
486.92	1093.97
487.28	1082.26
487.64	1085.54
488.00	1083.90
488.37	1086.48
488.73	1083.90
489.09	1089.75
489.45	1086.48
489.81	1082.73
490.17	1077.58
490.53	1083.43
490.89	1073.84
491.25	1085.77
491.61	1084.14
491.97	1093.26
492.33	1094.20
492.69	1103.33
493.05	1101.69
493.41	1108.95
493.77	1101.92
494.13	1096.31
494.49	1097.01
494.85	1084.84
495.21	1081.09
495.57	1085.54
495.93	1076.65
496.29	1075.24
496.64	1078.05
497.00	1071.73
497.36	1073.37
497.72	1075.24
498.08	1073.37
498.44	1078.05
498.80	1086.48
499.16	1094.20
499.52	1103.33
499.88	1100.29
500.24	1095.84
500.60	1094.67
500.96	1085.07
501.32	1075.24
501.68	1071.73
502.03	1068.45
502.39	1071.03
502.75	1062.60
503.11	1072.43
503.47	1083.90
503.83	1089.99
504.19	1101.69
504.55	1110.12
504.91	1109.88
505.26	1106.37
505.62	1111.52
505.98	1099.58
506.34	1102.16
506.70	1099.58
507.06	1093.26
507.42	1088.12
507.78	1083.20
508.13	1084.60
508.49	1078.28
508.85	1090.22
509.21	1088.58
509.57	1097.95
509.93	1103.09
510.28	1112.92
510.64	1105.90
511.00	1106.61
511.36	1096.54
511.72	1097.24
512.07	1090.22
512.43	1083.43
512.79	1093.97
513.15	1099.35
513.51	1095.37
513.86	1098.65
514.22	1100.29
514.58	1093.26
514.94	1092.80
515.30	1090.69
515.65	1094.67
516.01	1097.01
516.37	1093.50
516.73	1091.63
517.08	1090.46
517.44	1077.58
517.80	1084.37
518.16	1080.63
518.51	1080.63
518.87	1072.90
519.23	1082.50
519.59	1083.20
519.94	1098.65
520.30	1086.48
520.66	1100.29
521.01	1091.86
521.37	1082.97
521.73	1086.24
522.09	1097.24
522.44	1081.80
522.80	1088.12
523.16	1095.37
523.51	1086.48
523.87	1092.80
524.23	1097.95
524.58	1094.43
524.94	1092.33
525.30	1098.88
525.65	1092.56
526.01	1100.52
526.37	1111.52
526.72	1112.92
527.08	1112.69
527.44	1115.27
527.79	1112.22
528.15	1103.33
528.51	1103.33
528.86	1092.33
529.22	1091.63
529.58	1102.16
529.93	1099.12
530.29	1093.03
530.65	1093.73
531.00	1094.67
531.36	1082.73
531.71	1081.80
532.07	1082.73
532.43	1086.01
532.78	1086.01
533.14	1085.07
533.49	1088.12
533.85	1099.58
534.21	1099.82
534.56	1095.37
534.92	1095.37
535.27	1100.05
535.63	1092.80
535.98	1090.22
536.34	1090.46
536.69	1088.35
537.05	1084.14
537.41	1076.41
537.76	1073.84
538.12	1073.14
538.47	1071.26
538.83	1074.54
539.18	1095.60
539.54	1097.01
539.89	1093.73
540.25	1101.46
540.60	1106.14
540.96	1089.05
541.31	1096.78
541.67	1098.18
542.02	1098.65
542.38	1082.73
542.73	1085.77
543.09	1090.46
543.44	1096.31
543.80	1082.73
544.15	1090.22
544.51	1092.56
544.86	1082.03
545.22	1083.43
545.57	1104.03
545.93	1110.12
546.28	1109.18
546.64	1111.99
546.99	1109.41
547.35	1098.65
547.70	1089.75
548.05	1090.92
548.41	1082.73
548.76	1081.56
549.12	1082.97
549.47	1088.12
549.83	1076.88
550.18	1074.77
550.53	1076.18
550.89	1078.99
551.24	1077.35
551.60	1084.14
551.95	1090.22
552.30	1087.18
552.66	1079.46
553.01	1080.86
553.37	1087.41
553.72	1086.71
554.07	1096.31
554.43	1110.12
554.78	1107.07
555.13	1111.75
555.49	1112.92
555.84	1105.44
556.19	1088.58
556.55	1087.18
556.90	1079.69
557.26	1083.43
557.61	1085.07
557.96	1093.97
558.32	1092.09
558.67	1087.41
559.02	1081.33
559.37	1085.31
559.73	1085.07
560.08	1097.71
560.43	1096.31
560.79	1093.73
561.14	1085.07
561.49	1076.18
561.85	1076.88
562.20	1078.99
562.55	1084.84
562.90	1092.09
563.26	1098.88
563.61	1093.73
563.96	1086.71
564.32	1083.20
564.67	1080.39
565.02	1078.75
565.37	1078.28
565.73	1089.75
566.08	1084.37
566.43	1081.56
566.78	1078.52
567.14	1081.33
567.49	1072.20
567.84	1085.07
568.19	1093.97
568.54	1090.92
568.90	1088.12
569.25	1088.58
569.60	1080.86
569.95	1072.43
570.31	1075.71
570.66	1070.33
571.01	1075.24
571.36	1078.05
571.71	1083.20
572.06	1100.99
572.42	1102.63
572.77	1098.41
573.12	1094.67
573.47	1084.84
573.82	1073.60
574.18	1068.22
574.53	1079.92
574.88	1081.80
575.23	1088.35
575.58	1089.29
575.93	1089.75
576.28	1075.71
576.64	1073.60
576.99	1080.86
577.34	1077.11
577.69	1081.09
578.04	1086.48
578.39	1089.29
578.74	1082.97
579.09	1086.24
579.44	1080.39
579.80	1085.77
580.15	1079.92
580.50	1078.52
580.85	1078.99
581.20	1092.56
581.55	1089.75
581.90	1099.58
582.25	1097.01
582.60	1094.43
582.95	1096.31
583.30	1092.56
583.65	1097.71
584.00	1110.35
584.35	1112.69
584.71	1101.92
585.06	1100.29
585.41	1084.14
585.76	1067.52
586.11	1058.62
586.46	1062.60
586.81	1070.56
587.16	1077.82
587.51	1092.33
587.86	1095.84
588.21	1093.97
588.56	1089.52
588.91	1087.88
589.26	1078.52
589.61	1081.33
589.96	1080.86
590.31	1084.60
590.66	1085.31
591.01	1086.01
591.36	1090.46
591.71	1089.99
592.06	1089.05
592.41	1089.05
592.76	1094.90
593.10	1084.37
593.45	1084.60
593.80	1082.03
594.15	1083.90
594.50	1086.71
594.85	1087.18
595.20	1087.65
595.55	1086.94
595.90	1079.92
596.25	1074.07
596.60	1084.37
596.95	1085.77
597.30	1083.20
597.64	1147.56
597.99	1152.95
598.34	1144.76
598.69	1138.67
599.04	1135.86
599.39	1075.71
599.74	1072.90
600.09	1077.58
600.44	1081.56
600.78	1091.63
601.13	1092.56
601.48	1094.67
601.83	1097.95
602.18	1104.73
602.53	1098.18
602.88	1082.97
603.22	1073.37
603.57	1068.22
603.92	1068.45
604.27	1072.90
604.62	1088.58
604.97	1090.92
605.31	1087.88
605.66	1076.65
606.01	1078.05
606.36	1086.94
606.71	1086.71
607.05	1092.09
607.40	1101.92
607.75	1096.54
608.10	1086.48
608.44	1093.03
608.79	1089.75
609.14	1091.86
609.49	1092.09
609.84	1103.33
610.18	1102.39
610.53	1105.44
610.88	1099.35
611.23	1112.46
611.57	1103.33
611.92	1104.26
612.27	1099.12
612.62	1103.09
612.96	1102.39
613.31	1103.80
613.66	1093.73
614.00	1104.26
614.35	1096.78
614.70	1085.54
615.05	1085.07
615.39	1088.35
615.74	1085.54
616.09	1097.95
616.43	1096.31
616.78	1086.48
617.13	1081.80
617.47	1080.63
617.82	1071.97
618.17	1069.62
618.51	1079.92
618.86	1091.39
619.21	1081.80
619.55	1088.35
619.90	1093.03
620.25	1089.05
620.59	1081.56
620.94	1100.05
621.29	1101.22
621.63	1103.33
621.98	1104.50
622.32	1103.09
622.67	1082.50
623.02	1074.54
623.36	1077.58
623.71	1086.24
624.05	1093.26
624.40	1108.24
624.75	1115.03
625.09	1107.54
625.44	1097.24
625.78	1094.90
626.13	1086.24
626.48	1081.56
626.82	1078.52
627.17	1083.43
627.51	1087.41
627.86	1093.03
628.20	1090.92
628.55	1095.14
628.89	1089.75
629.24	1085.07
629.58	1084.37
629.93	1086.24
630.28	1088.82
630.62	1084.14
630.97	1087.88
631.31	1086.94
631.66	1088.58
632.00	1089.29
632.35	1094.67
632.69	1091.39
633.04	1091.63
633.38	1086.71
633.73	1083.20
634.07	1084.37
634.42	1087.65
634.76	1085.07
635.11	1089.05
635.45	1092.33
635.79	1081.09
636.14	1073.84
636.48	1080.16
636.83	1071.03
637.17	1061.43
637.52	1074.54
637.86	1081.56
638.21	1068.92
638.55	1065.41
638.89	1074.77
639.24	1068.22
639.58	1064.48
639.93	1069.39
640.27	1073.60
640.61	1072.43
640.96	1073.84
641.30	1072.90
641.65	1068.69
641.99	1072.43
642.33	1074.54
642.68	1078.28
643.02	1076.88
643.37	1074.54
643.71	1075.94
644.05	1069.16
644.40	1072.20
644.74	1072.43
645.08	1080.86
645.43	1075.24
645.77	1077.82
646.11	1075.71
646.46	1076.18
646.80	1073.37
647.14	1076.18
647.49	1081.80
647.83	1085.07
648.17	1094.67
648.52	1092.33
648.86	1094.90
649.20	1092.56
649.55	1097.01
649.89	1088.58
650.23	1094.43
650.57	1105.67
650.92	1100.99
651.26	1095.37
651.60	1093.26
651.95	1088.35
652.29	1080.39
652.63	1078.75
652.97	1080.39
653.32	1086.48
653.66	1093.97
654.00	1092.80
654.34	1097.95
654.69	1096.31
655.03	1099.82
655.37	1093.73
655.71	1081.09
656.05	1084.84
656.40	1087.88
656.74	1077.82
657.08	1081.80
657.42	1093.97
657.76	1084.60
658.11	1088.35
658.45	1095.37
658.79	1092.09
659.13	1091.63
659.47	1095.37
659.82	1088.12
660.16	1091.16
660.50	1096.31
660.84	1093.03
661.18	1096.54
661.52	1093.73
661.87	1084.37
662.21	1080.63
662.55	1076.41
662.89	1075.94
663.23	1070.33
663.57	1065.65
663.91	1060.73
664.25	1064.01
664.60	1068.92
664.94	1080.39
665.28	1084.84
665.62	1096.54
665.96	1105.90
666.30	1096.07
666.64	1089.05
666.98	1094.90
667.32	1091.39
667.66	1087.65
668.01	1088.82
668.35	1092.33
668.69	1092.09
669.03	1093.03
669.37	1088.82
669.71	1096.78
670.05	1088.35
670.39	1085.31
670.73	1072.20
671.07	1075.71
671.41	1077.82
671.75	1088.12
672.09	1084.60
672.43	1095.60
672.77	1086.71
673.11	1081.33
673.45	1071.50
673.79	1077.11
674.13	1077.11
674.47	1075.94
674.81	1069.62
675.15	1084.84
675.49	1078.52
675.83	1070.33
676.17	1077.35
676.51	1085.31
676.85	1079.92
677.19	1089.99
677.53	1095.14
677.87	1099.12
678.21	1097.95
678.55	1095.14
678.89	1089.75
679.23	1097.71
679.57	1097.24
679.90	1098.65
680.24	1103.09
680.58	1101.69
680.92	1094.20
681.26	1087.88
681.60	1080.39
681.94	1077.11
682.28	1077.35
682.62	1068.22
682.96	1073.60
683.29	1074.31
683.63	1072.67
683.97	1067.52
684.31	1067.75
684.65	1076.65
684.99	1078.05
685.33	1074.77
685.67	1078.52
686.00	1083.20
686.34	1070.80
686.68	1062.60
687.02	1059.33
687.36	1059.33
687.70	1072.90
688.03	1078.05
688.37	1081.33
688.71	1081.33
689.05	1088.35
689.39	1079.69
689.72	1070.33
690.06	1076.18
690.40	1077.58
690.74	1067.28
691.08	1054.18
691.41	1053.94
691.75	1053.48
692.09	1060.73
692.43	1058.62
692.76	1069.62
693.10	1075.94
693.44	1069.62
693.78	1066.35
694.11	1074.54
694.45	1082.73
694.79	1078.52
695.13	1093.03
695.46	1091.63
695.80	1086.24
696.14	1077.35
696.48	1080.86
696.81	1073.14
697.15	1067.75
697.49	1075.01
697.82	1075.94
698.16	1074.54
698.50	1076.18
698.83	1085.31
699.17	1078.99
699.51	1085.07
699.84	1084.14
700.18	1086.48
700.52	1088.12
700.85	1087.18
701.19	1078.99
701.53	1073.84
701.86	1061.67
702.20	1047.39
702.54	1056.28
702.87	1066.58
703.21	1084.60
703.55	1096.54
703.88	1110.58
704.22	1113.63
704.55	1115.50
704.89	1101.69
705.23	1098.18
705.56	1094.43
705.90	1083.90
706.23	1070.56
706.57	1068.69
706.91	1069.86
707.24	1063.77
707.58	1077.35
707.91	1081.09
708.25	1086.01
708.58	1082.97
708.92	1088.12
709.26	1075.24
709.59	1070.56
709.93	1071.73
710.26	1078.75
710.60	1071.97
710.93	1075.48
711.27	1081.33
711.60	1084.14
711.94	1075.48
712.27	1086.01
712.61	1087.65
712.94	1082.97
713.28	1077.35
713.61	1084.60
713.95	1086.71
714.28	1091.86
714.62	1101.22
714.95	1096.54
715.29	1098.88
715.62	1098.88
715.96	1092.80
716.29	1097.01
716.63	1100.52
716.96	1100.29
717.29	1093.73
717.63	1094.67
717.96	1075.01
718.30	1081.56
718.63	1074.07
718.97	1075.48
719.30	1072.20
719.63	1088.58
719.97	1084.37
720.30	1089.52
720.64	1089.75
720.97	1095.60
721.30	1097.71
721.64	1100.99
721.97	1095.84
722.31	1093.26
722.64	1096.07
722.97	1087.65
723.31	1088.12
723.64	1085.77
723.97	1095.60
724.31	1088.35
724.64	1093.03
724.98	1087.18
725.31	1095.84
725.64	1093.03
725.98	1093.26
726.31	1082.26
726.64	1083.20
726.97	1081.09
727.31	1074.31
727.64	1070.09
727.97	1084.84
728.31	1085.54
728.64	1082.50
728.97	1085.77
729.31	1079.46
729.64	1065.41
729.97	1062.60
730.30	1055.35
730.64	1054.88
730.97	1064.01
731.30	1071.26
731.63	1078.52
731.97	1086.24
732.30	1089.29
732.63	1086.94
732.96	1093.03
733.30	1089.99
733.63	1086.71
733.96	1081.56
734.29	1085.54
734.63	1079.22
734.96	1081.09
735.29	1082.26
735.62	1083.20
735.95	1081.09
736.29	1088.12
736.62	1092.09
736.95	1100.05
737.28	1097.48
737.61	1107.07
737.94	1102.86
738.28	1089.52
738.61	1087.88
738.94	1108.71
739.27	1103.33
739.60	1096.07
739.93	1111.29
740.27	1108.48
740.60	1086.24
740.93	1077.58
741.26	1079.92
741.59	1074.77
741.92	1073.60
742.25	1081.09
742.58	1090.92
742.91	1088.82
743.25	1082.73
743.58	1081.56
743.91	1073.14
744.24	1063.07
744.57	1067.75
744.90	1075.94
745.23	1071.26
745.56	1082.50
745.89	1086.71
746.22	1081.80
746.55	1083.43
746.88	1088.35
747.21	1082.97
747.54	1082.03
747.87	1092.56
748.20	1089.52
748.53	1092.80
748.87	1099.35
749.20	1106.37
749.53	1101.46
749.86	1098.88
750.19	1089.75
750.52	1082.26
750.85	1078.05
751.18	1078.75
751.51	1078.52
751.84	1089.05
752.16	1093.73
752.49	1090.46
752.82	1083.43
753.15	1076.65
753.48	1070.56
753.81	1067.05
754.14	1056.75
754.47	1062.84
754.80	1070.33
755.13	1076.41
755.46	1069.86
755.79	1088.12
756.12	1089.75
756.45	1091.86
756.78	1082.50
757.11	1089.75
757.43	1079.22
757.76	1077.11
758.09	1068.92
758.42	1074.77
758.75	1065.41
759.08	1064.48
759.41	1066.35
759.74	1077.58
760.07	1073.60
760.39	1079.46
760.72	1077.11
761.05	1067.99
761.38	1056.52
761.71	1061.67
762.04	1062.14
762.36	1071.97
762.69	1070.33
763.02	1074.54
763.35	1078.05
763.68	1076.88
764.01	1075.71
764.33	1081.33
764.66	1082.97
764.99	1065.65
765.32	1063.77
765.65	1063.77
765.97	1062.60
766.30	1057.45
