SpectraSuite Data File
++++++++++++++++++++++++++++++++++++
Date: Mon Aug 26 10:25:59 PDT 2019
User: corrico
Dark Spectrum Present: No
Reference Spectrum Present: No
Number of Sampled Component Spectra: 1
Spectrometers: USB2+H06089
Integration Time (usec): 10000 (USB2+H06089)
Spectra Averaged: 2 (USB2+H06089)
Boxcar Smoothing: 2 (USB2+H06089)
Correct for Electrical Dark: No (USB2+H06089)
Strobe/Lamp Enabled: No (USB2+H06089)
Correct for Detector Non-linearity: No (USB2+H06089)
Correct for Stray Light: No (USB2+H06089)
Number of Pixels in Processed Spectrum: 2048
>>>>>Begin Processed Spectral Data<<<<<
339.70	1034.52
340.07	1034.52
340.45	992.86
340.82	967.34
341.19	943.24
341.57	913.75
341.94	910.00
342.31	904.62
342.69	902.74
343.06	896.66
343.43	895.96
343.81	888.23
344.18	898.06
344.55	902.28
344.93	907.43
345.30	917.02
345.67	928.26
346.04	922.17
346.42	923.34
346.79	934.58
347.16	940.19
347.54	946.75
347.91	964.07
348.28	980.68
348.65	995.66
349.03	997.54
349.40	999.64
349.77	1001.98
350.14	1001.75
350.52	1007.83
350.89	1028.90
351.26	1038.73
351.63	1046.92
352.01	1061.20
352.38	1058.86
352.75	1048.79
353.12	1054.41
353.50	1062.60
353.87	1070.80
354.24	1077.58
354.61	1095.37
354.98	1098.18
355.36	1093.50
355.73	1075.24
356.10	1071.03
356.47	1062.37
356.84	1067.75
357.22	1078.05
357.59	1086.24
357.96	1086.24
358.33	1081.09
358.70	1074.54
359.08	1074.54
359.45	1079.92
359.82	1081.80
360.19	1091.63
360.56	1091.63
360.94	1090.22
361.31	1087.65
361.68	1082.97
362.05	1075.24
362.42	1075.01
362.79	1076.88
363.16	1073.14
363.54	1071.50
363.91	1071.73
364.28	1069.86
364.65	1052.54
365.02	1056.52
365.39	1059.56
365.76	1057.69
366.14	1054.18
366.51	1064.01
366.88	1061.43
367.25	1057.69
367.62	1067.99
367.99	1071.97
368.36	1070.09
368.73	1079.22
369.10	1085.54
369.48	1080.86
369.85	1075.71
370.22	1071.03
370.59	1060.73
370.96	1047.16
371.33	1047.62
371.70	1057.45
372.07	1063.31
372.44	1061.43
372.81	1074.77
373.18	1069.86
373.55	1061.43
373.93	1061.67
374.30	1057.45
374.67	1063.54
375.04	1072.67
375.41	1082.73
375.78	1081.80
376.15	1085.54
376.52	1073.60
376.89	1068.92
377.26	1066.11
377.63	1056.75
378.00	1059.79
378.37	1063.54
378.74	1057.92
379.11	1053.71
379.48	1060.96
379.85	1060.26
380.22	1062.84
380.59	1071.50
380.96	1076.88
381.33	1078.75
381.70	1077.11
382.07	1077.35
382.44	1072.43
382.81	1076.18
383.18	1073.84
383.55	1079.92
383.92	1079.92
384.29	1080.63
384.66	1074.54
385.03	1077.58
385.40	1079.69
385.77	1074.77
386.14	1070.56
386.51	1080.86
386.88	1076.88
387.25	1078.99
387.62	1080.63
387.99	1079.92
388.36	1072.67
388.73	1083.20
389.10	1074.31
389.46	1074.07
389.83	1079.69
390.20	1075.71
390.57	1066.82
390.94	1068.22
391.31	1057.92
391.68	1050.43
392.05	1056.99
392.42	1058.86
392.79	1060.73
393.16	1073.14
393.53	1084.60
393.89	1078.52
394.26	1074.31
394.63	1071.73
395.00	1067.99
395.37	1064.01
395.74	1060.03
396.11	1056.99
396.48	1058.86
396.84	1059.33
397.21	1062.14
397.58	1062.84
397.95	1064.24
398.32	1059.33
398.69	1060.73
399.06	1052.54
399.42	1050.90
399.79	1055.58
400.16	1056.99
400.53	1055.35
400.90	1062.84
401.27	1080.39
401.64	1083.90
402.00	1091.39
402.37	1096.78
402.74	1091.86
403.11	1079.92
403.48	1087.18
403.84	1078.99
404.21	1072.20
404.58	1079.92
404.95	1076.65
405.32	1061.43
405.68	1079.46
406.05	1089.75
406.42	1082.50
406.79	1082.03
407.16	1091.63
407.52	1081.33
407.89	1070.09
408.26	1076.65
408.63	1076.41
408.99	1072.67
409.36	1057.69
409.73	1065.18
410.10	1061.90
410.47	1068.92
410.83	1067.28
411.20	1077.35
411.57	1077.11
411.94	1085.77
412.30	1076.65
412.67	1083.90
413.04	1081.56
413.40	1083.90
413.77	1077.82
414.14	1089.75
414.51	1079.46
414.87	1072.20
415.24	1065.65
415.61	1066.11
415.97	1050.90
416.34	1053.01
416.71	1071.26
417.08	1072.67
417.44	1069.39
417.81	1075.48
418.18	1082.97
418.54	1075.01
418.91	1077.11
419.28	1072.67
419.64	1068.69
420.01	1077.11
420.38	1069.62
420.74	1077.82
421.11	1083.90
421.48	1089.29
421.84	1081.33
422.21	1094.43
422.58	1083.20
422.94	1083.43
423.31	1085.31
423.68	1077.58
424.04	1063.77
424.41	1069.62
424.77	1069.16
425.14	1068.92
425.51	1076.18
425.87	1088.58
426.24	1089.29
426.61	1085.54
426.97	1085.77
427.34	1076.18
427.70	1075.24
428.07	1073.84
428.44	1076.41
428.80	1085.54
429.17	1089.75
429.53	1088.35
429.90	1089.05
430.27	1088.58
430.63	1076.65
431.00	1071.73
431.36	1068.92
431.73	1060.03
432.09	1059.79
432.46	1059.79
432.83	1063.07
433.19	1060.50
433.56	1064.48
433.92	1065.41
434.29	1066.11
434.65	1064.01
435.02	1067.52
435.38	1057.22
435.75	1046.92
436.11	1047.62
436.48	1063.07
436.84	1071.03
437.21	1084.37
437.57	1096.54
437.94	1105.67
438.30	1093.26
438.67	1083.90
439.03	1093.97
439.40	1084.84
439.76	1075.94
440.13	1083.43
440.49	1081.09
440.86	1064.48
441.22	1070.33
441.59	1071.03
441.95	1064.71
442.32	1066.58
442.68	1081.56
443.05	1087.18
443.41	1089.52
443.78	1093.50
444.14	1093.03
444.51	1077.82
444.87	1075.71
445.24	1069.86
445.60	1069.86
445.96	1072.90
446.33	1076.18
446.69	1077.35
447.06	1078.99
447.42	1076.41
447.79	1073.14
448.15	1074.31
448.51	1069.86
448.88	1069.86
449.24	1066.11
449.61	1071.73
449.97	1070.56
450.33	1067.99
450.70	1072.67
451.06	1075.24
451.43	1075.71
451.79	1078.28
452.15	1082.50
452.52	1085.77
452.88	1087.41
453.24	1090.69
453.61	1087.65
453.97	1091.63
454.34	1084.14
454.70	1075.24
455.06	1071.50
455.43	1072.67
455.79	1073.37
456.15	1083.20
456.52	1090.46
456.88	1082.26
457.24	1087.65
457.61	1074.07
457.97	1061.67
458.33	1062.14
458.70	1067.75
459.06	1062.60
459.42	1064.24
459.79	1067.99
460.15	1070.33
460.51	1074.54
460.88	1075.94
461.24	1080.16
461.60	1081.80
461.96	1090.92
462.33	1096.31
462.69	1093.50
463.05	1090.22
463.42	1084.37
463.78	1071.03
464.14	1061.20
464.50	1063.07
464.87	1071.97
465.23	1086.01
465.59	1089.05
465.95	1095.60
466.32	1097.71
466.68	1092.33
467.04	1085.31
467.40	1085.31
467.77	1065.65
468.13	1074.31
468.49	1075.24
468.85	1075.94
469.22	1079.92
469.58	1090.22
469.94	1079.22
470.30	1081.09
470.66	1080.86
471.03	1074.77
471.39	1082.03
471.75	1071.50
472.11	1070.80
472.47	1071.73
472.84	1071.26
473.20	1058.62
473.56	1074.77
473.92	1066.82
474.28	1061.43
474.65	1068.69
475.01	1080.16
475.37	1073.37
475.73	1083.20
476.09	1084.37
476.45	1075.48
476.81	1062.37
477.18	1059.79
477.54	1061.20
477.90	1059.56
478.26	1060.03
478.62	1070.09
478.98	1082.03
479.34	1079.22
479.71	1085.31
480.07	1087.88
480.43	1102.16
480.79	1101.22
481.15	1102.63
481.51	1100.05
481.87	1093.03
482.23	1082.03
482.59	1075.48
482.96	1081.09
483.32	1084.37
483.68	1085.31
484.04	1080.63
484.40	1076.88
484.76	1067.52
485.12	1064.48
485.48	1070.56
485.84	1071.97
486.20	1078.52
486.56	1085.54
486.92	1089.75
487.28	1095.84
487.64	1103.33
488.00	1103.56
488.37	1086.94
488.73	1082.03
489.09	1071.50
489.45	1069.16
489.81	1060.96
490.17	1076.41
490.53	1069.16
490.89	1077.35
491.25	1077.58
491.61	1086.71
491.97	1082.97
492.33	1099.35
492.69	1095.14
493.05	1091.16
493.41	1084.14
493.77	1089.52
494.13	1077.35
494.49	1071.26
494.85	1076.18
495.21	1082.73
495.57	1074.31
495.93	1077.82
496.29	1084.37
496.64	1071.26
497.00	1066.82
497.36	1066.35
497.72	1064.24
498.08	1067.52
498.44	1076.41
498.80	1073.60
499.16	1081.09
499.52	1092.56
499.88	1090.92
500.24	1085.54
500.60	1091.39
500.96	1084.60
501.32	1074.31
501.68	1079.69
502.03	1089.52
502.39	1082.97
502.75	1084.84
503.11	1084.14
503.47	1081.56
503.83	1071.97
504.19	1076.41
504.55	1076.65
504.91	1076.41
505.26	1068.22
505.62	1066.11
505.98	1069.62
506.34	1080.63
506.70	1089.29
507.06	1085.54
507.42	1098.18
507.78	1092.09
508.13	1081.09
508.49	1076.65
508.85	1084.60
509.21	1080.63
509.57	1094.90
509.93	1099.35
510.28	1106.84
510.64	1113.86
511.00	1114.56
511.36	1105.44
511.72	1099.12
512.07	1092.80
512.43	1082.03
512.79	1079.22
513.15	1081.80
513.51	1085.54
513.86	1081.56
514.22	1086.48
514.58	1089.29
514.94	1088.12
515.30	1092.09
515.65	1093.03
516.01	1093.97
516.37	1087.88
516.73	1087.65
517.08	1088.12
517.44	1088.58
517.80	1082.03
518.16	1086.71
518.51	1087.41
518.87	1091.86
519.23	1090.46
519.59	1097.01
519.94	1100.29
520.30	1098.65
520.66	1094.90
521.01	1103.09
521.37	1099.58
521.73	1106.61
522.09	1111.99
522.44	1108.48
522.80	1106.61
523.16	1115.97
523.51	1103.80
523.87	1101.69
524.23	1103.33
524.58	1097.01
524.94	1096.07
525.30	1089.52
525.65	1085.07
526.01	1085.77
526.37	1084.84
526.72	1077.82
527.08	1086.71
527.44	1082.03
527.79	1072.43
528.15	1075.94
528.51	1076.18
528.86	1076.88
529.22	1077.35
529.58	1080.39
529.93	1078.05
530.29	1085.77
530.65	1077.82
531.00	1083.67
531.36	1085.07
531.71	1093.03
532.07	1089.99
532.43	1104.03
532.78	1104.26
533.14	1105.67
533.49	1105.90
533.85	1109.41
534.21	1106.84
534.56	1103.80
534.92	1107.78
535.27	1097.24
535.63	1090.69
535.98	1096.07
536.34	1092.33
536.69	1086.24
537.05	1078.05
537.41	1075.24
537.76	1065.88
538.12	1072.43
538.47	1081.09
538.83	1088.58
539.18	1087.41
539.54	1089.05
539.89	1094.43
540.25	1090.92
540.60	1090.69
540.96	1106.61
541.31	1101.92
541.67	1105.44
542.02	1094.43
542.38	1093.03
542.73	1083.20
543.09	1080.39
543.44	1071.97
543.80	1081.80
544.15	1088.35
544.51	1093.26
544.86	1095.37
545.22	1094.43
545.57	1093.50
545.93	1085.31
546.28	1077.11
546.64	1083.43
546.99	1083.67
547.35	1077.11
547.70	1086.01
548.05	1084.14
548.41	1077.35
548.76	1070.33
549.12	1085.54
549.47	1079.22
549.83	1086.24
550.18	1092.80
550.53	1106.37
550.89	1104.26
551.24	1100.99
551.60	1094.67
551.95	1100.52
552.30	1099.35
552.66	1089.05
553.01	1100.29
553.37	1098.65
553.72	1083.90
554.07	1079.69
554.43	1093.03
554.78	1089.05
555.13	1088.35
555.49	1090.92
555.84	1093.97
556.19	1077.82
556.55	1078.05
556.90	1083.67
557.26	1088.12
557.61	1083.20
557.96	1089.05
558.32	1089.05
558.67	1089.05
559.02	1090.69
559.37	1095.14
559.73	1096.54
560.08	1098.65
560.43	1094.43
560.79	1092.80
561.14	1089.52
561.49	1085.77
561.85	1076.18
562.20	1072.90
562.55	1085.54
562.90	1082.50
563.26	1091.86
563.61	1096.31
563.96	1099.35
564.32	1083.67
564.67	1081.80
565.02	1067.28
565.37	1073.84
565.73	1071.03
566.08	1074.77
566.43	1080.16
566.78	1084.37
567.14	1082.73
567.49	1084.60
567.84	1082.26
568.19	1066.82
568.54	1066.35
568.90	1066.11
569.25	1069.39
569.60	1066.11
569.95	1082.50
570.31	1074.31
570.66	1065.18
571.01	1063.31
571.36	1070.33
571.71	1072.43
572.06	1091.39
572.42	1101.22
572.77	1112.69
573.12	1108.01
573.47	1106.37
573.82	1095.37
574.18	1096.78
574.53	1090.69
574.88	1094.43
575.23	1086.24
575.58	1090.46
575.93	1089.52
576.28	1082.97
576.64	1077.11
576.99	1081.56
577.34	1081.56
577.69	1073.14
578.04	1070.80
578.39	1082.73
578.74	1081.56
579.09	1083.67
579.44	1093.97
579.80	1105.90
580.15	1099.12
580.50	1100.05
580.85	1104.97
581.20	1103.80
581.55	1101.46
581.90	1097.24
582.25	1087.65
582.60	1080.63
582.95	1073.37
583.30	1063.07
583.65	1071.50
584.00	1079.46
584.35	1076.88
584.71	1079.69
585.06	1082.26
585.41	1073.14
585.76	1074.77
586.11	1081.80
586.46	1079.46
586.81	1086.94
587.16	1079.22
587.51	1076.65
587.86	1059.56
588.21	1062.84
588.56	1062.84
588.91	1068.92
589.26	1071.50
589.61	1085.07
589.96	1088.35
590.31	1083.67
590.66	1089.52
591.01	1094.90
591.36	1090.46
591.71	1090.92
592.06	1094.90
592.41	1091.16
592.76	1094.20
593.10	1091.86
593.45	1082.97
593.80	1081.80
594.15	1083.67
594.50	1082.50
594.85	1091.16
595.20	1100.29
595.55	1095.84
595.90	1093.73
596.25	1082.50
596.60	1082.97
596.95	1075.01
597.30	1073.60
597.64	1127.44
597.99	1139.37
598.34	1133.76
598.69	1132.59
599.04	1132.35
599.39	1081.33
599.74	1077.11
600.09	1080.16
600.44	1081.33
600.78	1085.77
601.13	1087.41
601.48	1089.52
601.83	1079.69
602.18	1075.01
602.53	1067.52
602.88	1056.99
603.22	1055.58
603.57	1065.41
603.92	1073.14
604.27	1069.16
604.62	1076.18
604.97	1069.62
605.31	1078.05
605.66	1071.03
606.01	1081.33
606.36	1087.88
606.71	1093.97
607.05	1074.31
607.40	1075.24
607.75	1073.84
608.10	1063.31
608.44	1056.05
608.79	1061.90
609.14	1073.37
609.49	1071.97
609.84	1076.41
610.18	1075.94
610.53	1084.37
610.88	1077.58
611.23	1078.05
611.57	1083.90
611.92	1096.78
612.27	1095.60
612.62	1095.84
612.96	1089.99
613.31	1086.48
613.66	1079.69
614.00	1082.97
614.35	1083.20
614.70	1091.39
615.05	1087.41
615.39	1081.09
615.74	1073.84
616.09	1074.77
616.43	1077.82
616.78	1087.88
617.13	1093.97
617.47	1098.88
617.82	1108.95
618.17	1104.26
618.51	1094.67
618.86	1094.20
619.21	1089.99
619.55	1081.80
619.90	1086.01
620.25	1092.09
620.59	1094.43
620.94	1083.20
621.29	1080.16
621.63	1079.46
621.98	1067.99
622.32	1059.79
622.67	1078.75
623.02	1081.09
623.36	1075.48
623.71	1085.77
624.05	1082.50
624.40	1075.48
624.75	1079.92
625.09	1084.37
625.44	1083.90
625.78	1089.52
626.13	1081.80
626.48	1073.84
626.82	1076.41
627.17	1066.82
627.51	1074.07
627.86	1082.03
628.20	1085.31
628.55	1081.80
628.89	1087.18
629.24	1085.77
629.58	1087.88
629.93	1097.48
630.28	1096.78
630.62	1097.01
630.97	1089.99
631.31	1081.09
631.66	1066.58
632.00	1072.20
632.35	1064.94
632.69	1070.56
633.04	1084.60
633.38	1082.03
633.73	1077.35
634.07	1082.26
634.42	1081.09
634.76	1068.45
635.11	1077.35
635.45	1076.18
635.79	1071.73
636.14	1073.84
636.48	1083.43
636.83	1083.67
637.17	1080.63
637.52	1089.75
637.86	1086.48
638.21	1082.50
638.55	1083.43
638.89	1088.35
639.24	1071.97
639.58	1072.20
639.93	1073.37
640.27	1067.05
640.61	1067.75
640.96	1078.28
641.30	1071.97
641.65	1071.73
641.99	1069.62
642.33	1071.97
642.68	1079.92
643.02	1082.73
643.37	1074.31
643.71	1085.77
644.05	1079.69
644.40	1071.97
644.74	1076.18
645.08	1079.92
645.43	1078.75
645.77	1083.43
646.11	1087.18
646.46	1089.05
646.80	1087.88
647.14	1078.99
647.49	1066.58
647.83	1066.82
648.17	1071.97
648.52	1087.18
648.86	1101.46
649.20	1112.92
649.55	1102.39
649.89	1090.22
650.23	1075.01
650.57	1059.33
650.92	1056.28
651.26	1062.37
651.60	1066.58
651.95	1069.16
652.29	1081.33
652.63	1076.41
652.97	1085.07
653.32	1081.09
653.66	1082.50
654.00	1075.01
654.34	1074.31
654.69	1069.62
655.03	1081.56
655.37	1077.35
655.71	1077.35
656.05	1078.99
656.40	1087.41
656.74	1085.07
657.08	1079.69
657.42	1082.50
657.76	1087.88
658.11	1081.33
658.45	1077.35
658.79	1085.31
659.13	1088.58
659.47	1092.09
659.82	1093.97
660.16	1093.97
660.50	1079.69
660.84	1075.71
661.18	1073.84
661.52	1062.37
661.87	1063.54
662.21	1072.90
662.55	1072.20
662.89	1071.97
663.23	1077.35
663.57	1077.58
663.91	1081.09
664.25	1075.94
664.60	1074.07
664.94	1073.14
665.28	1081.33
665.62	1082.50
665.96	1093.03
666.30	1098.65
666.64	1105.20
666.98	1092.33
667.32	1081.09
667.66	1090.92
668.01	1088.58
668.35	1085.77
668.69	1086.71
669.03	1099.58
669.37	1082.26
669.71	1084.14
670.05	1092.33
670.39	1089.05
670.73	1081.56
671.07	1090.46
671.41	1084.14
671.75	1075.01
672.09	1078.28
672.43	1090.69
672.77	1086.94
673.11	1089.99
673.45	1098.88
673.79	1103.56
674.13	1103.56
674.47	1093.97
674.81	1092.09
675.15	1078.28
675.49	1079.92
675.83	1080.86
676.17	1082.97
676.51	1082.26
676.85	1088.58
677.19	1075.48
677.53	1065.88
677.87	1075.24
678.21	1077.35
678.55	1079.92
678.89	1092.80
679.23	1094.90
679.57	1094.43
679.90	1102.86
680.24	1107.31
680.58	1110.58
680.92	1116.90
681.26	1114.33
681.60	1100.75
681.94	1092.33
682.28	1083.90
682.62	1077.82
682.96	1081.80
683.29	1097.71
683.63	1096.07
683.97	1088.58
684.31	1083.20
684.65	1072.67
684.99	1048.56
685.33	1058.62
685.67	1071.26
686.00	1082.97
686.34	1091.86
686.68	1107.31
687.02	1106.14
687.36	1103.33
687.70	1100.52
688.03	1089.05
688.37	1085.77
688.71	1074.54
689.05	1061.20
689.39	1051.37
689.72	1050.43
690.06	1054.18
690.40	1053.01
690.74	1061.67
691.08	1078.05
691.41	1083.67
691.75	1082.97
692.09	1091.39
692.43	1093.26
692.76	1088.82
693.10	1093.73
693.44	1092.09
693.78	1090.69
694.11	1089.52
694.45	1074.54
694.79	1067.52
695.13	1066.82
695.46	1062.84
695.80	1060.96
696.14	1059.33
696.48	1061.67
696.81	1063.07
697.15	1069.39
697.49	1071.50
697.82	1077.58
698.16	1071.73
698.50	1068.69
698.83	1064.01
699.17	1069.39
699.51	1072.67
699.84	1072.90
700.18	1074.31
700.52	1081.56
700.85	1076.18
701.19	1080.63
701.53	1091.63
701.86	1094.43
702.20	1087.88
702.54	1095.37
702.87	1094.20
703.21	1082.03
703.55	1073.37
703.88	1073.60
704.22	1056.75
704.55	1057.45
704.89	1061.90
705.23	1069.86
705.56	1078.28
705.90	1097.24
706.23	1096.78
706.57	1099.82
706.91	1098.18
707.24	1094.67
707.58	1075.48
707.91	1073.84
708.25	1075.48
708.58	1077.11
708.92	1074.07
709.26	1086.71
709.59	1090.92
709.93	1088.12
710.26	1086.71
710.60	1082.73
710.93	1088.58
711.27	1084.37
711.60	1086.71
711.94	1077.82
712.27	1075.48
712.61	1064.48
712.94	1062.37
713.28	1060.73
713.61	1067.75
713.95	1076.88
714.28	1080.16
714.62	1076.88
714.95	1078.28
715.29	1073.37
715.62	1068.45
715.96	1068.45
716.29	1072.20
716.63	1071.26
716.96	1089.05
717.29	1091.39
717.63	1082.97
717.96	1093.50
718.30	1098.41
718.63	1089.99
718.97	1086.71
719.30	1095.60
719.63	1088.82
719.97	1072.67
720.30	1064.01
720.64	1061.20
720.97	1056.52
721.30	1062.60
721.64	1072.67
721.97	1084.14
722.31	1086.01
722.64	1089.99
722.97	1085.54
723.31	1082.26
723.64	1085.07
723.97	1081.33
724.31	1078.99
724.64	1082.26
724.98	1080.63
725.31	1075.01
725.64	1077.35
725.98	1085.77
726.31	1084.84
726.64	1098.18
726.97	1089.75
727.31	1089.99
727.64	1082.50
727.97	1076.65
728.31	1069.16
728.64	1071.50
728.97	1076.18
729.31	1092.56
729.64	1100.05
729.97	1102.16
730.30	1112.22
730.64	1126.73
730.97	1111.29
731.30	1103.09
731.63	1094.20
731.97	1084.84
732.30	1074.54
732.63	1070.33
732.96	1062.37
733.30	1071.26
733.63	1084.14
733.96	1075.24
734.29	1080.39
734.63	1097.01
734.96	1095.60
735.29	1085.07
735.62	1086.48
735.95	1097.48
736.29	1096.07
736.62	1089.29
736.95	1093.26
737.28	1089.99
737.61	1082.26
737.94	1069.86
738.28	1067.75
738.61	1060.96
738.94	1066.11
739.27	1057.92
739.60	1063.07
739.93	1074.54
740.27	1068.92
740.60	1067.99
740.93	1069.16
741.26	1074.54
741.59	1069.16
741.92	1076.18
742.25	1081.09
742.58	1082.50
742.91	1068.45
743.25	1070.33
743.58	1076.88
743.91	1071.97
744.24	1083.67
744.57	1091.63
744.90	1097.95
745.23	1092.09
745.56	1092.80
745.89	1077.11
746.22	1083.43
746.55	1074.54
746.88	1075.48
747.21	1074.77
747.54	1084.37
747.87	1076.65
748.20	1085.07
748.53	1079.46
748.87	1072.43
749.20	1067.75
749.53	1068.22
749.86	1061.90
750.19	1068.45
750.52	1084.14
750.85	1089.99
751.18	1091.86
751.51	1092.33
751.84	1089.29
752.16	1086.71
752.49	1083.67
752.82	1084.37
753.15	1086.24
753.48	1089.52
753.81	1087.41
754.14	1094.20
754.47	1090.92
754.80	1085.54
755.13	1079.22
755.46	1072.20
755.79	1060.50
756.12	1063.07
756.45	1060.73
756.78	1067.52
757.11	1074.77
757.43	1085.31
757.76	1092.33
758.09	1100.75
758.42	1094.67
758.75	1093.03
759.08	1084.60
759.41	1074.54
759.74	1082.50
760.07	1087.88
760.39	1087.41
760.72	1093.26
761.05	1093.97
761.38	1081.56
761.71	1081.33
762.04	1081.80
762.36	1083.43
762.69	1085.77
763.02	1092.33
763.35	1097.24
763.68	1102.86
764.01	1096.07
764.33	1095.84
764.66	1096.31
764.99	1091.39
765.32	1080.86
765.65	1077.58
765.97	1081.80
766.30	1072.67
