SpectraSuite Data File
++++++++++++++++++++++++++++++++++++
Date: Mon Aug 26 10:25:57 PDT 2019
User: corrico
Dark Spectrum Present: No
Reference Spectrum Present: No
Number of Sampled Component Spectra: 1
Spectrometers: USB2+H06089
Integration Time (usec): 10000 (USB2+H06089)
Spectra Averaged: 2 (USB2+H06089)
Boxcar Smoothing: 2 (USB2+H06089)
Correct for Electrical Dark: No (USB2+H06089)
Strobe/Lamp Enabled: No (USB2+H06089)
Correct for Detector Non-linearity: No (USB2+H06089)
Correct for Stray Light: No (USB2+H06089)
Number of Pixels in Processed Spectrum: 2048
>>>>>Begin Processed Spectral Data<<<<<
339.70	984.20
340.07	984.20
340.45	971.79
340.82	962.19
341.19	950.73
341.57	930.13
341.94	912.81
342.31	897.36
342.69	889.64
343.06	889.17
343.43	899.00
343.81	897.36
344.18	912.57
344.55	915.38
344.93	911.17
345.30	915.38
345.67	927.09
346.04	927.09
346.42	939.26
346.79	957.28
347.16	964.07
347.54	976.71
347.91	981.39
348.28	986.54
348.65	993.56
349.03	978.81
349.40	984.20
349.77	1002.45
350.14	1013.92
350.52	1009.47
350.89	1030.07
351.26	1031.71
351.63	1034.98
352.01	1032.18
352.38	1042.01
352.75	1057.22
353.12	1071.97
353.50	1085.31
353.87	1089.75
354.24	1090.46
354.61	1089.99
354.98	1081.09
355.36	1076.88
355.73	1081.09
356.10	1085.77
356.47	1087.65
356.84	1103.80
357.22	1095.37
357.59	1085.54
357.96	1086.48
358.33	1077.11
358.70	1065.41
359.08	1064.24
359.45	1070.33
359.82	1067.99
360.19	1071.73
360.56	1068.45
360.94	1062.37
361.31	1069.16
361.68	1069.62
362.05	1064.24
362.42	1057.69
362.79	1058.16
363.16	1059.09
363.54	1066.11
363.91	1081.09
364.28	1097.24
364.65	1098.88
365.02	1086.94
365.39	1085.54
365.76	1080.63
366.14	1080.86
366.51	1086.24
366.88	1091.63
367.25	1088.35
367.62	1088.58
367.99	1077.11
368.36	1082.03
368.73	1078.99
369.10	1066.82
369.48	1060.96
369.85	1060.50
370.22	1055.58
370.59	1067.52
370.96	1067.52
371.33	1072.67
371.70	1081.09
372.07	1073.60
372.44	1059.56
372.81	1066.35
373.18	1062.37
373.55	1045.05
373.93	1038.96
374.30	1039.67
374.67	1034.05
375.04	1037.33
375.41	1050.43
375.78	1069.86
376.15	1068.69
376.52	1079.22
376.89	1082.03
377.26	1082.50
377.63	1083.67
378.00	1083.90
378.37	1080.16
378.74	1067.28
379.11	1058.39
379.48	1057.22
379.85	1064.01
380.22	1063.54
380.59	1074.07
380.96	1072.67
381.33	1065.88
381.70	1064.01
382.07	1059.79
382.44	1058.39
382.81	1068.22
383.18	1068.92
383.55	1071.26
383.92	1077.82
384.29	1078.99
384.66	1089.99
385.03	1089.99
385.40	1083.67
385.77	1076.88
386.14	1079.69
386.51	1071.26
386.88	1070.80
387.25	1067.28
387.62	1070.56
387.99	1056.28
388.36	1049.03
388.73	1051.60
389.10	1068.45
389.46	1069.86
389.83	1075.94
390.20	1079.46
390.57	1076.88
390.94	1066.82
391.31	1062.60
391.68	1063.54
392.05	1060.73
392.42	1055.82
392.79	1056.99
393.16	1059.79
393.53	1057.45
393.89	1058.62
394.26	1061.67
394.63	1063.07
395.00	1075.01
395.37	1081.09
395.74	1086.01
396.11	1092.09
396.48	1093.97
396.84	1086.71
397.21	1083.90
397.58	1086.94
397.95	1074.31
398.32	1072.43
398.69	1067.52
399.06	1068.22
399.42	1071.97
399.79	1084.84
400.16	1085.54
400.53	1088.12
400.90	1084.84
401.27	1072.90
401.64	1076.18
402.00	1071.03
402.37	1075.94
402.74	1085.31
403.11	1085.31
403.48	1076.41
403.84	1072.43
404.21	1058.62
404.58	1043.88
404.95	1044.82
405.32	1042.47
405.68	1043.64
406.05	1062.37
406.42	1066.11
406.79	1064.94
407.16	1062.14
407.52	1067.75
407.89	1060.50
408.26	1069.62
408.63	1078.52
408.99	1087.41
409.36	1085.77
409.73	1083.20
410.10	1085.54
410.47	1075.24
410.83	1079.22
411.20	1080.16
411.57	1076.65
411.94	1069.62
412.30	1074.07
412.67	1062.60
413.04	1065.88
413.40	1073.37
413.77	1066.11
414.14	1067.75
414.51	1073.37
414.87	1066.11
415.24	1068.45
415.61	1071.73
415.97	1077.82
416.34	1079.92
416.71	1078.99
417.08	1067.05
417.44	1069.86
417.81	1075.48
418.18	1075.24
418.54	1083.90
418.91	1088.82
419.28	1091.16
419.64	1074.54
420.01	1072.90
420.38	1072.20
420.74	1072.67
421.11	1074.31
421.48	1074.77
421.84	1077.82
422.21	1079.92
422.58	1078.99
422.94	1078.28
423.31	1086.71
423.68	1075.01
424.04	1065.65
424.41	1067.28
424.77	1062.60
425.14	1066.35
425.51	1074.77
425.87	1083.20
426.24	1079.92
426.61	1083.90
426.97	1077.11
427.34	1066.58
427.70	1055.58
428.07	1067.05
428.44	1064.48
428.80	1062.37
429.17	1078.28
429.53	1081.09
429.90	1075.94
430.27	1074.07
430.63	1072.20
431.00	1066.82
431.36	1072.43
431.73	1073.84
432.09	1070.33
432.46	1066.11
432.83	1068.22
433.19	1066.58
433.56	1075.48
433.92	1082.97
434.29	1099.12
434.65	1095.60
435.02	1103.56
435.38	1091.39
435.75	1089.75
436.11	1083.67
436.48	1073.14
436.84	1074.77
437.21	1071.97
437.57	1064.01
437.94	1062.60
438.30	1078.99
438.67	1068.69
439.03	1069.86
439.40	1080.86
439.76	1082.97
440.13	1066.58
440.49	1074.77
440.86	1082.03
441.22	1083.43
441.59	1082.97
441.95	1087.18
442.32	1081.56
442.68	1079.22
443.05	1069.16
443.41	1074.07
443.78	1080.16
444.14	1078.28
444.51	1078.75
444.87	1079.46
445.24	1071.50
445.60	1075.01
445.96	1074.54
446.33	1083.67
446.69	1093.26
447.06	1089.05
447.42	1082.97
447.79	1083.43
448.15	1068.69
448.51	1060.03
448.88	1065.65
449.24	1067.52
449.61	1070.33
449.97	1068.92
450.33	1073.14
450.70	1074.07
451.06	1078.28
451.43	1071.73
451.79	1065.88
452.15	1063.77
452.52	1063.54
452.88	1055.82
453.24	1065.41
453.61	1076.88
453.97	1085.07
454.34	1080.86
454.70	1085.77
455.06	1090.22
455.43	1089.99
455.79	1091.86
456.15	1100.75
456.52	1100.99
456.88	1091.39
457.24	1081.80
457.61	1082.97
457.97	1078.52
458.33	1078.99
458.70	1074.07
459.06	1074.54
459.42	1064.01
459.79	1060.50
460.15	1064.48
460.51	1074.77
460.88	1080.39
461.24	1083.43
461.60	1096.78
461.96	1091.39
462.33	1082.97
462.69	1097.24
463.05	1086.01
463.42	1073.60
463.78	1071.50
464.14	1079.69
464.50	1064.24
464.87	1075.01
465.23	1072.90
465.59	1087.88
465.95	1089.99
466.32	1105.44
466.68	1101.92
467.04	1109.18
467.40	1094.90
467.77	1089.75
468.13	1080.86
468.49	1078.75
468.85	1077.58
469.22	1081.56
469.58	1093.26
469.94	1096.07
470.30	1108.01
470.66	1089.99
471.03	1087.88
471.39	1071.03
471.75	1062.14
472.11	1052.54
472.47	1059.09
472.84	1054.41
473.20	1057.22
473.56	1053.71
473.92	1049.03
474.28	1059.79
474.65	1064.94
475.01	1076.41
475.37	1078.28
475.73	1089.29
476.09	1092.56
476.45	1082.97
476.81	1073.14
477.18	1083.20
477.54	1089.99
477.90	1079.22
478.26	1089.99
478.62	1089.52
478.98	1080.86
479.34	1072.90
479.71	1081.56
480.07	1084.60
480.43	1085.77
480.79	1088.35
481.15	1080.16
481.51	1066.11
481.87	1060.26
482.23	1053.48
482.59	1052.07
482.96	1064.24
483.32	1069.86
483.68	1079.46
484.04	1096.31
484.40	1097.95
484.76	1101.69
485.12	1104.50
485.48	1093.73
485.84	1083.20
486.20	1086.94
486.56	1078.75
486.92	1082.26
487.28	1084.14
487.64	1084.60
488.00	1080.39
488.37	1081.33
488.73	1076.41
489.09	1086.48
489.45	1094.67
489.81	1096.78
490.17	1090.92
490.53	1096.54
490.89	1092.56
491.25	1084.37
491.61	1082.03
491.97	1090.69
492.33	1094.20
492.69	1094.43
493.05	1093.73
493.41	1100.05
493.77	1100.99
494.13	1097.71
494.49	1096.07
494.85	1100.05
495.21	1090.92
495.57	1090.69
495.93	1086.94
496.29	1075.94
496.64	1065.18
497.00	1082.03
497.36	1087.18
497.72	1084.37
498.08	1090.92
498.44	1099.12
498.80	1078.28
499.16	1062.37
499.52	1062.14
499.88	1060.50
500.24	1057.69
500.60	1063.77
500.96	1070.33
501.32	1081.56
501.68	1091.86
502.03	1087.88
502.39	1094.20
502.75	1092.80
503.11	1083.20
503.47	1081.09
503.83	1077.58
504.19	1068.22
504.55	1069.62
504.91	1070.09
505.26	1068.45
505.62	1076.41
505.98	1073.60
506.34	1064.24
506.70	1064.71
507.06	1055.35
507.42	1053.48
507.78	1061.43
508.13	1068.22
508.49	1070.33
508.85	1076.41
509.21	1075.94
509.57	1074.07
509.93	1087.41
510.28	1088.82
510.64	1091.39
511.00	1092.33
511.36	1090.92
511.72	1080.16
512.07	1085.31
512.43	1083.67
512.79	1089.99
513.15	1092.80
513.51	1089.05
513.86	1084.14
514.22	1077.58
514.58	1073.14
514.94	1068.69
515.30	1074.54
515.65	1080.16
516.01	1091.16
516.37	1096.31
516.73	1100.29
517.08	1099.35
517.44	1091.39
517.80	1095.14
518.16	1094.90
518.51	1090.46
518.87	1092.80
519.23	1096.78
519.59	1086.71
519.94	1085.31
520.30	1093.97
520.66	1093.97
521.01	1099.12
521.37	1107.07
521.73	1115.03
522.09	1110.82
522.44	1112.46
522.80	1109.18
523.16	1104.03
523.51	1091.16
523.87	1090.46
524.23	1093.03
524.58	1094.20
524.94	1097.24
525.30	1104.97
525.65	1117.84
526.01	1113.63
526.37	1111.29
526.72	1107.31
527.08	1112.92
527.44	1094.90
527.79	1095.37
528.15	1089.52
528.51	1096.54
528.86	1087.65
529.22	1098.88
529.58	1101.22
529.93	1107.07
530.29	1103.33
530.65	1104.73
531.00	1102.63
531.36	1096.54
531.71	1103.33
532.07	1103.80
532.43	1102.39
532.78	1095.14
533.14	1098.18
533.49	1092.80
533.85	1090.46
534.21	1091.86
534.56	1107.54
534.92	1099.58
535.27	1097.01
535.63	1092.80
535.98	1089.52
536.34	1078.75
536.69	1080.39
537.05	1083.43
537.41	1093.26
537.76	1095.37
538.12	1095.60
538.47	1099.35
538.83	1098.88
539.18	1096.54
539.54	1099.58
539.89	1099.82
540.25	1109.88
540.60	1094.90
540.96	1087.41
541.31	1097.01
541.67	1093.97
542.02	1078.99
542.38	1089.99
542.73	1092.80
543.09	1081.80
543.44	1082.97
543.80	1077.11
544.15	1073.84
544.51	1072.43
544.86	1078.99
545.22	1072.90
545.57	1086.01
545.93	1082.73
546.28	1088.35
546.64	1080.63
546.99	1084.60
547.35	1080.63
547.70	1087.65
548.05	1076.65
548.41	1072.20
548.76	1075.48
549.12	1070.56
549.47	1072.90
549.83	1080.39
550.18	1081.80
550.53	1081.09
550.89	1086.71
551.24	1076.65
551.60	1067.05
551.95	1066.58
552.30	1068.45
552.66	1064.01
553.01	1069.16
553.37	1076.65
553.72	1078.52
554.07	1080.86
554.43	1090.46
554.78	1098.18
555.13	1097.71
555.49	1092.33
555.84	1092.80
556.19	1089.75
556.55	1088.58
556.90	1089.05
557.26	1088.35
557.61	1079.92
557.96	1069.86
558.32	1064.24
558.67	1065.41
559.02	1077.82
559.37	1074.31
559.73	1073.60
560.08	1076.65
560.43	1075.24
560.79	1060.50
561.14	1071.50
561.49	1083.90
561.85	1082.50
562.20	1074.07
562.55	1078.99
562.90	1075.71
563.26	1071.50
563.61	1074.31
563.96	1085.31
564.32	1092.33
564.67	1102.86
565.02	1105.90
565.37	1106.37
565.73	1108.24
566.08	1101.69
566.43	1089.52
566.78	1086.24
567.14	1078.52
567.49	1074.07
567.84	1071.26
568.19	1074.31
568.54	1074.77
568.90	1083.43
569.25	1083.67
569.60	1087.41
569.95	1086.94
570.31	1090.22
570.66	1084.14
571.01	1089.52
571.36	1092.80
571.71	1088.82
572.06	1092.33
572.42	1087.18
572.77	1078.05
573.12	1073.84
573.47	1064.94
573.82	1056.28
574.18	1062.37
574.53	1068.22
574.88	1071.73
575.23	1085.54
575.58	1093.26
575.93	1091.39
576.28	1089.52
576.64	1090.46
576.99	1085.07
577.34	1072.90
577.69	1077.82
578.04	1083.20
578.39	1078.75
578.74	1079.22
579.09	1084.37
579.44	1077.11
579.80	1065.65
580.15	1069.62
580.50	1074.54
580.85	1067.52
581.20	1060.50
581.55	1066.35
581.90	1066.58
582.25	1061.90
582.60	1070.33
582.95	1074.31
583.30	1075.01
583.65	1075.48
584.00	1075.94
584.35	1068.22
584.71	1077.58
585.06	1071.26
585.41	1070.80
585.76	1075.94
586.11	1082.03
586.46	1083.90
586.81	1094.67
587.16	1098.41
587.51	1091.39
587.86	1094.20
588.21	1095.14
588.56	1085.77
588.91	1077.58
589.26	1080.63
589.61	1075.94
589.96	1065.88
590.31	1073.60
590.66	1076.65
591.01	1081.56
591.36	1086.94
591.71	1090.69
592.06	1086.24
592.41	1084.14
592.76	1078.99
593.10	1082.03
593.45	1090.46
593.80	1094.20
594.15	1089.52
594.50	1089.29
594.85	1094.67
595.20	1085.31
595.55	1090.92
595.90	1095.84
596.25	1094.67
596.60	1076.41
596.95	1071.26
597.30	1072.20
597.64	1129.31
597.99	1133.52
598.34	1142.18
598.69	1145.69
599.04	1130.01
599.39	1083.90
599.74	1093.97
600.09	1085.77
600.44	1086.24
600.78	1087.65
601.13	1081.56
601.48	1068.69
601.83	1074.54
602.18	1077.11
602.53	1087.18
602.88	1073.60
603.22	1078.99
603.57	1082.50
603.92	1084.37
604.27	1083.20
604.62	1082.73
604.97	1083.43
605.31	1084.60
605.66	1084.60
606.01	1082.03
606.36	1097.48
606.71	1096.31
607.05	1092.09
607.40	1095.14
607.75	1089.05
608.10	1082.03
608.44	1081.09
608.79	1084.14
609.14	1082.03
609.49	1087.88
609.84	1094.43
610.18	1089.29
610.53	1093.50
610.88	1103.33
611.23	1112.22
611.57	1102.86
611.92	1102.63
612.27	1096.54
612.62	1087.41
612.96	1077.35
613.31	1090.69
613.66	1102.39
614.00	1096.54
614.35	1100.52
614.70	1105.20
615.05	1091.39
615.39	1085.07
615.74	1086.71
616.09	1075.01
616.43	1068.92
616.78	1068.69
617.13	1069.62
617.47	1070.09
617.82	1074.31
618.17	1069.86
618.51	1070.09
618.86	1067.75
619.21	1080.63
619.55	1086.71
619.90	1097.48
620.25	1101.46
620.59	1097.24
620.94	1095.60
621.29	1089.99
621.63	1086.24
621.98	1087.88
622.32	1087.65
622.67	1079.46
623.02	1079.69
623.36	1081.80
623.71	1080.86
624.05	1082.50
624.40	1086.48
624.75	1087.88
625.09	1085.77
625.44	1088.12
625.78	1098.65
626.13	1101.69
626.48	1102.39
626.82	1099.82
627.17	1093.50
627.51	1084.37
627.86	1074.07
628.20	1064.48
628.55	1062.60
628.89	1071.26
629.24	1064.48
629.58	1074.07
629.93	1087.88
630.28	1086.24
630.62	1087.88
630.97	1089.52
631.31	1083.90
631.66	1082.03
632.00	1093.50
632.35	1086.48
632.69	1084.14
633.04	1080.86
633.38	1075.94
633.73	1075.01
634.07	1078.75
634.42	1085.77
634.76	1094.90
635.11	1096.78
635.45	1086.24
635.79	1079.92
636.14	1077.35
636.48	1065.18
636.83	1067.99
637.17	1074.07
637.52	1074.54
637.86	1077.58
638.21	1081.80
638.55	1068.22
638.89	1076.18
639.24	1082.97
639.58	1078.05
639.93	1074.07
640.27	1089.05
640.61	1087.18
640.96	1086.71
641.30	1091.39
641.65	1104.03
641.99	1105.90
642.33	1097.01
642.68	1090.46
643.02	1087.65
643.37	1076.18
643.71	1062.84
644.05	1067.75
644.40	1068.69
644.74	1063.77
645.08	1064.24
645.43	1071.26
645.77	1065.18
646.11	1068.69
646.46	1076.41
646.80	1078.99
647.14	1077.82
647.49	1079.22
647.83	1076.18
648.17	1070.80
648.52	1061.43
648.86	1053.01
649.20	1066.35
649.55	1067.99
649.89	1073.37
650.23	1083.43
650.57	1099.58
650.92	1095.60
651.26	1103.33
651.60	1100.29
651.95	1103.80
652.29	1092.56
652.63	1076.41
652.97	1071.03
653.32	1077.35
653.66	1073.14
654.00	1073.84
654.34	1078.05
654.69	1069.86
655.03	1060.50
655.37	1059.56
655.71	1065.65
656.05	1063.07
656.40	1067.75
656.74	1065.65
657.08	1069.39
657.42	1068.92
657.76	1070.80
658.11	1072.43
658.45	1082.97
658.79	1090.46
659.13	1091.16
659.47	1093.73
659.82	1097.95
660.16	1100.75
660.50	1092.80
660.84	1094.67
661.18	1093.50
661.52	1089.29
661.87	1082.97
662.21	1078.28
662.55	1071.73
662.89	1074.54
663.23	1074.77
663.57	1070.09
663.91	1074.54
664.25	1076.88
664.60	1088.35
664.94	1094.90
665.28	1103.56
665.62	1102.86
665.96	1099.35
666.30	1084.60
666.64	1077.35
666.98	1071.26
667.32	1059.79
667.66	1060.26
668.01	1060.50
668.35	1064.94
668.69	1072.67
669.03	1086.01
669.37	1094.20
669.71	1099.35
670.05	1093.97
670.39	1096.07
670.73	1092.80
671.07	1097.95
671.41	1100.75
671.75	1097.01
672.09	1083.90
672.43	1081.09
672.77	1069.39
673.11	1063.07
673.45	1069.39
673.79	1078.28
674.13	1082.97
674.47	1078.75
674.81	1080.86
675.15	1082.97
675.49	1082.97
675.83	1089.75
676.17	1097.01
676.51	1090.46
676.85	1087.18
677.19	1082.03
677.53	1076.41
677.87	1075.94
678.21	1078.75
678.55	1075.94
678.89	1086.71
679.23	1086.01
679.57	1081.33
679.90	1086.24
680.24	1081.56
680.58	1076.88
680.92	1081.56
681.26	1076.88
681.60	1070.09
681.94	1069.16
682.28	1068.69
682.62	1060.50
682.96	1067.05
683.29	1076.41
683.63	1084.37
683.97	1078.75
684.31	1083.20
684.65	1087.41
684.99	1082.97
685.33	1087.65
685.67	1088.12
686.00	1092.09
686.34	1086.48
686.68	1084.37
687.02	1084.84
687.36	1091.39
687.70	1088.12
688.03	1087.41
688.37	1085.77
688.71	1079.92
689.05	1076.88
689.39	1074.77
689.72	1070.56
690.06	1076.65
690.40	1082.73
690.74	1084.37
691.08	1075.94
691.41	1075.01
691.75	1069.62
692.09	1058.62
692.43	1053.71
692.76	1060.73
693.10	1068.92
693.44	1074.31
693.78	1082.73
694.11	1086.48
694.45	1092.80
694.79	1095.60
695.13	1089.75
695.46	1085.54
695.80	1081.09
696.14	1079.69
696.48	1088.12
696.81	1088.82
697.15	1102.39
697.49	1101.46
697.82	1096.54
698.16	1086.48
698.50	1097.48
698.83	1088.35
699.17	1094.20
699.51	1095.84
699.84	1086.48
700.18	1077.35
700.52	1072.20
700.85	1066.82
701.19	1064.01
701.53	1071.97
701.86	1066.58
702.20	1060.50
702.54	1069.16
702.87	1059.33
703.21	1060.50
703.55	1074.77
703.88	1077.82
704.22	1073.60
704.55	1093.03
704.89	1085.77
705.23	1078.75
705.56	1084.14
705.90	1083.43
706.23	1072.20
706.57	1082.26
706.91	1082.73
707.24	1083.43
707.58	1080.63
707.91	1086.48
708.25	1073.84
708.58	1064.71
708.92	1061.20
709.26	1060.73
709.59	1063.54
709.93	1065.41
710.26	1073.60
710.60	1074.54
710.93	1077.11
711.27	1077.11
711.60	1078.52
711.94	1088.35
712.27	1089.75
712.61	1089.75
712.94	1084.60
713.28	1101.69
713.61	1093.73
713.95	1102.63
714.28	1101.46
714.62	1096.54
714.95	1085.31
715.29	1084.84
715.62	1075.94
715.96	1071.03
716.29	1067.52
716.63	1061.43
716.96	1061.67
717.29	1060.50
717.63	1062.37
717.96	1070.80
718.30	1073.14
718.63	1065.88
718.97	1074.54
719.30	1070.09
719.63	1068.69
719.97	1057.45
720.30	1066.11
720.64	1057.92
720.97	1069.39
721.30	1069.62
721.64	1076.88
721.97	1076.18
722.31	1075.94
722.64	1075.24
722.97	1074.31
723.31	1080.86
723.64	1082.26
723.97	1095.84
724.31	1097.01
724.64	1097.01
724.98	1103.56
725.31	1100.99
725.64	1086.01
725.98	1091.63
726.31	1094.90
726.64	1089.05
726.97	1088.82
727.31	1091.16
727.64	1077.58
727.97	1082.73
728.31	1074.54
728.64	1076.41
728.97	1075.71
729.31	1078.05
729.64	1068.22
729.97	1072.43
730.30	1078.99
730.64	1081.80
730.97	1078.28
731.30	1087.65
731.63	1094.20
731.97	1092.56
732.30	1096.31
732.63	1104.03
732.96	1094.43
733.30	1086.94
733.63	1081.56
733.96	1070.56
734.29	1065.65
734.63	1069.16
734.96	1074.77
735.29	1077.82
735.62	1086.94
735.95	1088.35
736.29	1090.69
736.62	1096.54
736.95	1097.71
737.28	1090.22
737.61	1094.20
737.94	1101.92
738.28	1088.35
738.61	1080.39
738.94	1078.05
739.27	1076.18
739.60	1071.26
739.93	1076.65
740.27	1083.43
740.60	1093.26
740.93	1097.48
741.26	1097.24
741.59	1097.01
741.92	1088.35
742.25	1088.58
742.58	1084.37
742.91	1080.39
743.25	1084.14
743.58	1091.16
743.91	1088.58
744.24	1089.52
744.57	1093.50
744.90	1094.20
745.23	1093.26
745.56	1096.54
745.89	1101.22
746.22	1105.44
746.55	1115.03
746.88	1109.18
747.21	1106.84
747.54	1092.56
747.87	1078.99
748.20	1062.14
748.53	1071.97
748.87	1078.52
749.20	1076.41
749.53	1072.67
749.86	1073.37
750.19	1065.41
750.52	1059.33
750.85	1066.35
751.18	1069.39
751.51	1074.07
751.84	1071.50
752.16	1070.56
752.49	1074.54
752.82	1076.18
753.15	1076.88
753.48	1086.71
753.81	1085.77
754.14	1094.90
754.47	1104.03
754.80	1098.41
755.13	1086.94
755.46	1089.05
755.79	1081.80
756.12	1074.77
756.45	1078.28
756.78	1084.14
757.11	1081.33
757.43	1086.71
757.76	1090.22
758.09	1088.12
758.42	1085.31
758.75	1086.24
759.08	1074.77
759.41	1071.97
759.74	1071.50
760.07	1070.09
760.39	1078.99
760.72	1075.48
761.05	1077.82
761.38	1081.33
761.71	1086.24
762.04	1073.84
762.36	1082.50
762.69	1079.92
763.02	1085.54
763.35	1088.82
763.68	1086.24
764.01	1082.26
764.33	1075.94
764.66	1072.20
764.99	1061.67
765.32	1065.65
765.65	1072.43
765.97	1077.58
766.30	1070.56
