SpectraSuite Data File
++++++++++++++++++++++++++++++++++++
Date: Mon Aug 26 10:25:59 PDT 2019
User: corrico
Dark Spectrum Present: No
Reference Spectrum Present: No
Number of Sampled Component Spectra: 1
Spectrometers: USB2+H06089
Integration Time (usec): 10000 (USB2+H06089)
Spectra Averaged: 2 (USB2+H06089)
Boxcar Smoothing: 2 (USB2+H06089)
Correct for Electrical Dark: No (USB2+H06089)
Strobe/Lamp Enabled: No (USB2+H06089)
Correct for Detector Non-linearity: No (USB2+H06089)
Correct for Stray Light: No (USB2+H06089)
Number of Pixels in Processed Spectrum: 2048
>>>>>Begin Processed Spectral Data<<<<<
339.70	1023.98
340.07	1023.98
340.45	994.49
340.82	976.47
341.19	957.05
341.57	924.04
341.94	925.21
342.31	905.09
342.69	899.00
343.06	894.32
343.43	904.85
343.81	900.64
344.18	900.87
344.55	909.77
344.93	920.06
345.30	923.11
345.67	929.66
346.04	947.45
346.42	952.13
346.79	961.96
347.16	969.45
347.54	980.22
347.91	986.54
348.28	988.88
348.65	992.62
349.03	1001.05
349.40	1005.96
349.77	1012.28
350.14	1014.15
350.52	1012.28
350.89	1008.30
351.26	1011.11
351.63	1012.05
352.01	1027.03
352.38	1035.22
352.75	1049.03
353.12	1061.20
353.50	1072.20
353.87	1072.90
354.24	1073.14
354.61	1087.41
354.98	1088.58
355.36	1080.86
355.73	1089.75
356.10	1089.05
356.47	1079.46
356.84	1087.18
357.22	1087.18
357.59	1080.63
357.96	1092.33
358.33	1091.86
358.70	1087.41
359.08	1101.22
359.45	1100.29
359.82	1095.84
360.19	1089.05
360.56	1088.35
360.94	1066.11
361.31	1074.77
361.68	1063.54
362.05	1072.67
362.42	1068.22
362.79	1080.39
363.16	1065.88
363.54	1075.01
363.91	1075.71
364.28	1072.43
364.65	1078.28
365.02	1083.20
365.39	1082.97
365.76	1064.71
366.14	1062.60
366.51	1067.28
366.88	1067.05
367.25	1068.22
367.62	1074.77
367.99	1074.07
368.36	1066.35
368.73	1053.48
369.10	1053.24
369.48	1057.45
369.85	1055.35
370.22	1053.71
370.59	1070.56
370.96	1061.20
371.33	1063.31
371.70	1068.22
372.07	1067.75
372.44	1062.14
372.81	1063.54
373.18	1065.65
373.55	1063.54
373.93	1062.60
374.30	1071.03
374.67	1076.41
375.04	1073.60
375.41	1067.05
375.78	1060.03
376.15	1048.56
376.52	1048.09
376.89	1049.73
377.26	1059.09
377.63	1066.35
378.00	1066.35
378.37	1057.92
378.74	1059.79
379.11	1067.52
379.48	1074.31
379.85	1084.37
380.22	1090.69
380.59	1085.77
380.96	1083.67
381.33	1077.58
381.70	1066.35
382.07	1068.22
382.44	1079.69
382.81	1078.52
383.18	1084.60
383.55	1087.41
383.92	1085.54
384.29	1085.07
384.66	1070.33
385.03	1058.39
385.40	1067.99
385.77	1078.52
386.14	1074.07
386.51	1086.94
386.88	1093.97
387.25	1089.52
387.62	1079.69
387.99	1075.94
388.36	1076.18
388.73	1066.58
389.10	1062.37
389.46	1058.39
389.83	1060.26
390.20	1060.26
390.57	1063.77
390.94	1060.96
391.31	1061.90
391.68	1056.52
392.05	1057.45
392.42	1054.41
392.79	1062.60
393.16	1071.03
393.53	1072.67
393.89	1072.43
394.26	1077.82
394.63	1071.03
395.00	1069.86
395.37	1079.22
395.74	1078.52
396.11	1086.24
396.48	1089.29
396.84	1082.26
397.21	1075.24
397.58	1076.41
397.95	1066.11
398.32	1069.39
398.69	1078.52
399.06	1077.82
399.42	1068.45
399.79	1070.56
400.16	1069.62
400.53	1067.28
400.90	1065.65
401.27	1078.99
401.64	1084.60
402.00	1085.54
402.37	1087.18
402.74	1091.39
403.11	1086.48
403.48	1086.24
403.84	1083.90
404.21	1073.37
404.58	1066.35
404.95	1064.24
405.32	1052.54
405.68	1052.77
406.05	1062.14
406.42	1060.73
406.79	1060.96
407.16	1075.01
407.52	1075.71
407.89	1067.75
408.26	1076.65
408.63	1079.92
408.99	1074.77
409.36	1080.86
409.73	1091.63
410.10	1093.26
410.47	1091.63
410.83	1087.18
411.20	1074.77
411.57	1071.03
411.94	1076.88
412.30	1068.69
412.67	1074.31
413.04	1071.50
413.40	1068.22
413.77	1065.88
414.14	1075.24
414.51	1072.67
414.87	1081.56
415.24	1089.52
415.61	1086.24
415.97	1080.63
416.34	1075.94
416.71	1076.18
417.08	1078.52
417.44	1081.80
417.81	1081.80
418.18	1086.01
418.54	1081.33
418.91	1070.33
419.28	1065.88
419.64	1071.50
420.01	1070.33
420.38	1072.20
420.74	1082.97
421.11	1082.73
421.48	1080.63
421.84	1082.26
422.21	1089.29
422.58	1089.05
422.94	1082.03
423.31	1078.75
423.68	1077.82
424.04	1078.99
424.41	1074.77
424.77	1086.48
425.14	1088.12
425.51	1086.24
425.87	1080.86
426.24	1077.82
426.61	1063.77
426.97	1064.01
427.34	1063.77
427.70	1067.52
428.07	1076.41
428.44	1089.52
428.80	1088.82
429.17	1096.78
429.53	1090.46
429.90	1078.05
430.27	1069.39
430.63	1065.18
431.00	1058.39
431.36	1058.86
431.73	1077.58
432.09	1084.37
432.46	1095.37
432.83	1107.31
433.19	1111.52
433.56	1099.58
433.92	1107.07
434.29	1110.12
434.65	1102.63
435.02	1095.37
435.38	1090.22
435.75	1087.41
436.11	1076.41
436.48	1080.16
436.84	1088.12
437.21	1096.31
437.57	1101.46
437.94	1102.16
438.30	1097.48
438.67	1093.97
439.03	1093.97
439.40	1082.26
439.76	1090.22
440.13	1089.52
440.49	1085.07
440.86	1087.18
441.22	1089.52
441.59	1078.05
441.95	1074.07
442.32	1071.50
442.68	1068.22
443.05	1070.56
443.41	1078.05
443.78	1071.97
444.14	1080.39
444.51	1072.90
444.87	1065.65
445.24	1066.58
445.60	1082.97
445.96	1074.77
446.33	1078.75
446.69	1069.86
447.06	1060.73
447.42	1062.37
447.79	1067.52
448.15	1067.99
448.51	1067.52
448.88	1069.16
449.24	1063.77
449.61	1070.80
449.97	1064.71
450.33	1079.69
450.70	1084.60
451.06	1075.01
451.43	1064.94
451.79	1066.82
452.15	1066.58
452.52	1072.43
452.88	1078.52
453.24	1086.24
453.61	1088.12
453.97	1093.73
454.34	1089.52
454.70	1106.37
455.06	1104.03
455.43	1105.44
455.79	1095.37
456.15	1098.41
456.52	1085.54
456.88	1085.54
457.24	1084.37
457.61	1083.90
457.97	1078.99
458.33	1078.75
458.70	1083.90
459.06	1084.14
459.42	1082.97
459.79	1083.43
460.15	1089.05
460.51	1086.71
460.88	1088.12
461.24	1091.16
461.60	1081.56
461.96	1067.99
462.33	1063.31
462.69	1067.05
463.05	1069.62
463.42	1076.18
463.78	1076.41
464.14	1076.88
464.50	1071.03
464.87	1060.96
465.23	1060.50
465.59	1074.54
465.95	1074.07
466.32	1075.71
466.68	1080.16
467.04	1082.03
467.40	1071.26
467.77	1068.69
468.13	1066.11
468.49	1066.11
468.85	1061.20
469.22	1071.26
469.58	1076.65
469.94	1074.31
470.30	1073.60
470.66	1086.48
471.03	1078.99
471.39	1078.75
471.75	1079.69
472.11	1071.50
472.47	1063.54
472.84	1060.26
473.20	1060.03
473.56	1065.88
473.92	1062.84
474.28	1062.37
474.65	1061.43
475.01	1056.99
475.37	1058.16
475.73	1073.60
476.09	1078.52
476.45	1083.43
476.81	1088.35
477.18	1090.46
477.54	1092.56
477.90	1089.52
478.26	1085.54
478.62	1082.03
478.98	1077.35
479.34	1078.05
479.71	1080.63
480.07	1086.71
480.43	1099.58
480.79	1097.48
481.15	1098.18
481.51	1102.63
481.87	1095.84
482.23	1087.65
482.59	1090.92
482.96	1080.86
483.32	1075.94
483.68	1077.11
484.04	1081.09
484.40	1081.80
484.76	1087.18
485.12	1089.99
485.48	1087.65
485.84	1086.48
486.20	1078.05
486.56	1081.09
486.92	1081.09
487.28	1092.33
487.64	1087.88
488.00	1103.56
488.37	1099.82
488.73	1093.50
489.09	1086.48
489.45	1089.05
489.81	1082.50
490.17	1084.37
490.53	1090.46
490.89	1086.48
491.25	1085.31
491.61	1085.77
491.97	1089.52
492.33	1080.86
492.69	1087.65
493.05	1085.07
493.41	1075.94
493.77	1067.75
494.13	1074.54
494.49	1072.20
494.85	1074.07
495.21	1086.48
495.57	1095.84
495.93	1093.03
496.29	1100.99
496.64	1101.69
497.00	1091.63
497.36	1084.14
497.72	1083.67
498.08	1068.22
498.44	1064.01
498.80	1068.92
499.16	1078.28
499.52	1084.37
499.88	1092.09
500.24	1091.86
500.60	1099.58
500.96	1096.07
501.32	1094.43
501.68	1091.63
502.03	1092.33
502.39	1091.16
502.75	1083.43
503.11	1090.22
503.47	1088.35
503.83	1091.63
504.19	1082.50
504.55	1089.29
504.91	1073.14
505.26	1079.22
505.62	1082.26
505.98	1089.75
506.34	1091.39
506.70	1097.24
507.06	1097.71
507.42	1095.84
507.78	1076.65
508.13	1070.56
508.49	1072.20
508.85	1081.56
509.21	1088.58
509.57	1095.60
509.93	1105.20
510.28	1103.80
510.64	1096.54
511.00	1085.54
511.36	1092.33
511.72	1087.41
512.07	1096.31
512.43	1089.52
512.79	1085.54
513.15	1089.75
513.51	1080.86
513.86	1069.86
514.22	1073.60
514.58	1078.52
514.94	1076.88
515.30	1085.07
515.65	1083.20
516.01	1078.28
516.37	1084.37
516.73	1085.54
517.08	1082.97
517.44	1089.05
517.80	1096.54
518.16	1094.67
518.51	1089.29
518.87	1092.09
519.23	1081.80
519.59	1067.99
519.94	1057.69
520.30	1060.03
520.66	1062.37
521.01	1077.58
521.37	1097.48
521.73	1103.33
522.09	1101.22
522.44	1095.14
522.80	1087.88
523.16	1080.16
523.51	1073.84
523.87	1075.24
524.23	1078.99
524.58	1076.18
524.94	1079.46
525.30	1082.73
525.65	1089.52
526.01	1096.31
526.37	1110.35
526.72	1101.92
527.08	1110.58
527.44	1106.14
527.79	1104.26
528.15	1090.22
528.51	1103.33
528.86	1094.43
529.22	1090.69
529.58	1097.71
529.93	1099.58
530.29	1094.20
530.65	1106.61
531.00	1105.20
531.36	1102.86
531.71	1109.18
532.07	1111.52
532.43	1108.01
532.78	1118.07
533.14	1106.84
533.49	1099.12
533.85	1095.37
534.21	1093.03
534.56	1082.73
534.92	1084.60
535.27	1088.35
535.63	1085.77
535.98	1084.14
536.34	1091.86
536.69	1086.01
537.05	1089.05
537.41	1092.56
537.76	1091.63
538.12	1082.50
538.47	1096.31
538.83	1096.07
539.18	1094.43
539.54	1097.71
539.89	1108.48
540.25	1101.92
540.60	1085.77
540.96	1079.69
541.31	1086.48
541.67	1077.58
542.02	1068.69
542.38	1079.92
542.73	1084.60
543.09	1072.90
543.44	1079.46
543.80	1087.88
544.15	1089.29
544.51	1085.54
544.86	1091.86
545.22	1093.50
545.57	1097.95
545.93	1100.05
546.28	1107.07
546.64	1108.71
546.99	1114.80
547.35	1115.03
547.70	1107.31
548.05	1106.61
548.41	1100.29
548.76	1074.77
549.12	1070.09
549.47	1072.67
549.83	1071.73
550.18	1067.75
550.53	1078.28
550.89	1074.07
551.24	1073.14
551.60	1073.14
551.95	1071.03
552.30	1072.43
552.66	1077.82
553.01	1092.33
553.37	1081.80
553.72	1081.56
554.07	1080.16
554.43	1075.48
554.78	1065.18
555.13	1075.01
555.49	1082.73
555.84	1084.60
556.19	1080.63
556.55	1076.18
556.90	1072.90
557.26	1078.05
557.61	1074.54
557.96	1073.60
558.32	1080.39
558.67	1089.05
559.02	1080.63
559.37	1082.97
559.73	1090.22
560.08	1088.82
560.43	1076.65
560.79	1082.50
561.14	1079.22
561.49	1069.86
561.85	1063.54
562.20	1066.11
562.55	1051.13
562.90	1059.56
563.26	1069.16
563.61	1071.73
563.96	1064.01
564.32	1086.01
564.67	1086.48
565.02	1085.31
565.37	1093.97
565.73	1111.75
566.08	1104.26
566.43	1094.90
566.78	1094.20
567.14	1083.20
567.49	1074.31
567.84	1076.65
568.19	1084.37
568.54	1084.60
568.90	1078.52
569.25	1076.18
569.60	1066.58
569.95	1062.60
570.31	1055.58
570.66	1062.60
571.01	1071.26
571.36	1072.20
571.71	1072.67
572.06	1080.63
572.42	1077.35
572.77	1078.52
573.12	1078.99
573.47	1082.97
573.82	1087.18
574.18	1081.33
574.53	1074.31
574.88	1070.09
575.23	1064.01
575.58	1053.71
575.93	1070.56
576.28	1072.43
576.64	1078.75
576.99	1086.48
577.34	1092.09
577.69	1086.01
578.04	1086.24
578.39	1086.94
578.74	1080.39
579.09	1074.31
579.44	1070.33
579.80	1067.05
580.15	1064.48
580.50	1063.54
580.85	1075.01
581.20	1071.50
581.55	1072.43
581.90	1071.26
582.25	1082.97
582.60	1076.88
582.95	1081.80
583.30	1078.75
583.65	1084.37
584.00	1079.22
584.35	1077.82
584.71	1084.37
585.06	1083.90
585.41	1084.84
585.76	1086.48
586.11	1081.56
586.46	1078.99
586.81	1086.48
587.16	1084.84
587.51	1076.88
587.86	1071.73
588.21	1073.84
588.56	1073.37
588.91	1069.86
589.26	1067.28
589.61	1082.26
589.96	1077.35
590.31	1071.50
590.66	1066.58
591.01	1081.09
591.36	1074.54
591.71	1075.71
592.06	1078.05
592.41	1081.80
592.76	1069.16
593.10	1072.90
593.45	1073.60
593.80	1078.28
594.15	1083.90
594.50	1092.09
594.85	1084.60
595.20	1085.07
595.55	1089.52
595.90	1081.33
596.25	1083.67
596.60	1087.65
596.95	1079.46
597.30	1071.97
597.64	1134.46
597.99	1131.65
598.34	1132.12
598.69	1140.78
599.04	1143.59
599.39	1078.28
599.74	1083.20
600.09	1076.65
600.44	1085.07
600.78	1086.94
601.13	1086.48
601.48	1080.86
601.83	1098.18
602.18	1092.56
602.53	1086.01
602.88	1097.71
603.22	1096.07
603.57	1075.94
603.92	1070.33
604.27	1073.84
604.62	1069.86
604.97	1075.94
605.31	1089.75
605.66	1095.60
606.01	1086.94
606.36	1081.80
606.71	1075.01
607.05	1069.86
607.40	1074.54
607.75	1086.48
608.10	1090.92
608.44	1096.54
608.79	1094.20
609.14	1096.78
609.49	1098.88
609.84	1103.33
610.18	1100.05
610.53	1106.61
610.88	1097.71
611.23	1082.26
611.57	1083.43
611.92	1085.31
612.27	1072.20
612.62	1067.52
612.96	1087.65
613.31	1089.29
613.66	1076.41
614.00	1082.73
614.35	1079.69
614.70	1071.97
615.05	1069.39
615.39	1077.11
615.74	1086.48
616.09	1090.69
616.43	1088.82
616.78	1093.26
617.13	1097.01
617.47	1086.71
617.82	1083.43
618.17	1082.03
618.51	1075.94
618.86	1065.41
619.21	1064.48
619.55	1069.16
619.90	1067.99
620.25	1066.11
620.59	1068.92
620.94	1073.37
621.29	1080.39
621.63	1081.80
621.98	1082.97
622.32	1083.43
622.67	1093.26
623.02	1087.88
623.36	1090.22
623.71	1092.09
624.05	1096.54
624.40	1084.84
624.75	1087.41
625.09	1088.82
625.44	1092.56
625.78	1094.43
626.13	1097.48
626.48	1092.80
626.82	1091.86
627.17	1086.94
627.51	1082.03
627.86	1078.28
628.20	1081.80
628.55	1076.18
628.89	1067.52
629.24	1070.09
629.58	1075.48
629.93	1076.88
630.28	1080.63
630.62	1091.86
630.97	1090.92
631.31	1089.99
631.66	1078.28
632.00	1084.60
632.35	1075.01
632.69	1074.31
633.04	1076.88
633.38	1093.50
633.73	1078.75
634.07	1089.52
634.42	1085.07
634.76	1077.11
635.11	1067.05
635.45	1069.62
635.79	1065.88
636.14	1071.26
636.48	1075.24
636.83	1071.26
637.17	1073.84
637.52	1081.56
637.86	1084.14
638.21	1090.92
638.55	1092.80
638.89	1086.71
639.24	1076.88
639.58	1074.77
639.93	1071.03
640.27	1081.80
640.61	1094.43
640.96	1093.97
641.30	1103.56
641.65	1106.14
641.99	1112.92
642.33	1104.97
642.68	1111.29
643.02	1102.16
643.37	1093.03
643.71	1078.05
644.05	1078.05
644.40	1074.54
644.74	1074.77
645.08	1085.54
645.43	1074.77
645.77	1082.03
646.11	1078.28
646.46	1073.14
646.80	1068.69
647.14	1075.48
647.49	1066.82
647.83	1075.94
648.17	1085.54
648.52	1078.99
648.86	1078.52
649.20	1083.90
649.55	1077.82
649.89	1071.73
650.23	1078.28
650.57	1082.26
650.92	1086.48
651.26	1081.09
651.60	1086.71
651.95	1085.77
652.29	1087.41
652.63	1080.39
652.97	1085.31
653.32	1078.28
653.66	1084.60
654.00	1090.69
654.34	1091.39
654.69	1092.33
655.03	1090.22
655.37	1082.26
655.71	1070.09
656.05	1068.92
656.40	1071.26
656.74	1082.50
657.08	1081.33
657.42	1087.88
657.76	1088.12
658.11	1085.77
658.45	1084.84
658.79	1085.77
659.13	1087.88
659.47	1086.71
659.82	1081.09
660.16	1077.11
660.50	1084.60
660.84	1080.16
661.18	1092.80
661.52	1101.69
661.87	1109.18
662.21	1104.50
662.55	1109.88
662.89	1106.61
663.23	1107.78
663.57	1103.33
663.91	1089.75
664.25	1082.73
664.60	1063.77
664.94	1062.60
665.28	1062.37
665.62	1078.52
665.96	1091.16
666.30	1103.56
666.64	1110.12
666.98	1107.54
667.32	1110.58
667.66	1101.69
668.01	1102.16
668.35	1098.65
668.69	1090.22
669.03	1078.75
669.37	1073.84
669.71	1063.31
670.05	1061.90
670.39	1076.88
670.73	1077.35
671.07	1086.71
671.41	1107.78
671.75	1103.09
672.09	1093.26
672.43	1100.75
672.77	1094.43
673.11	1080.63
673.45	1081.56
673.79	1084.84
674.13	1081.80
674.47	1084.60
674.81	1085.77
675.15	1085.77
675.49	1078.99
675.83	1072.90
676.17	1073.37
676.51	1080.16
676.85	1076.41
677.19	1077.11
677.53	1075.71
677.87	1075.01
678.21	1070.56
678.55	1065.41
678.89	1072.90
679.23	1077.58
679.57	1074.07
679.90	1073.14
680.24	1084.14
680.58	1072.20
680.92	1072.43
681.26	1073.60
681.60	1075.71
681.94	1067.99
682.28	1075.48
682.62	1080.86
682.96	1079.69
683.29	1079.46
683.63	1076.65
683.97	1078.28
684.31	1072.67
684.65	1076.88
684.99	1082.97
685.33	1084.37
685.67	1086.01
686.00	1084.60
686.34	1083.43
686.68	1082.03
687.02	1078.52
687.36	1070.80
687.70	1079.69
688.03	1077.58
688.37	1073.60
688.71	1076.18
689.05	1083.43
689.39	1079.92
689.72	1088.82
690.06	1070.56
690.40	1067.52
690.74	1058.39
691.08	1048.09
691.41	1037.09
691.75	1049.26
692.09	1065.18
692.43	1069.86
692.76	1081.80
693.10	1082.03
693.44	1079.22
693.78	1076.41
694.11	1085.54
694.45	1085.77
694.79	1089.52
695.13	1093.26
695.46	1091.63
695.80	1091.16
696.14	1094.90
696.48	1083.90
696.81	1084.60
697.15	1075.71
697.49	1075.24
697.82	1064.24
698.16	1071.73
698.50	1067.52
698.83	1066.35
699.17	1059.33
699.51	1060.96
699.84	1068.69
700.18	1081.80
700.52	1083.43
700.85	1095.84
701.19	1094.90
701.53	1096.31
701.86	1097.95
702.20	1103.09
702.54	1099.58
702.87	1101.92
703.21	1092.80
703.55	1081.09
703.88	1087.41
704.22	1079.22
704.55	1073.14
704.89	1082.50
705.23	1077.35
705.56	1076.18
705.90	1079.92
706.23	1088.82
706.57	1078.99
706.91	1086.94
707.24	1077.82
707.58	1070.56
707.91	1064.01
708.25	1064.01
708.58	1070.09
708.92	1073.84
709.26	1075.24
709.59	1084.60
709.93	1086.01
710.26	1073.60
710.60	1077.35
710.93	1078.75
711.27	1071.73
711.60	1076.88
711.94	1086.48
712.27	1082.26
712.61	1086.24
712.94	1085.07
713.28	1078.75
713.61	1071.26
713.95	1069.16
714.28	1070.33
714.62	1068.45
714.95	1065.65
715.29	1067.75
715.62	1068.22
715.96	1065.65
716.29	1065.18
716.63	1068.92
716.96	1071.50
717.29	1079.22
717.63	1078.52
717.96	1080.63
718.30	1084.14
718.63	1094.67
718.97	1088.82
719.30	1082.50
719.63	1088.35
719.97	1081.80
720.30	1068.22
720.64	1067.75
720.97	1068.45
721.30	1061.43
721.64	1069.39
721.97	1069.86
722.31	1065.18
722.64	1071.50
722.97	1069.16
723.31	1067.28
723.64	1072.67
723.97	1076.18
724.31	1074.31
724.64	1080.39
724.98	1077.58
725.31	1073.60
725.64	1071.97
725.98	1070.33
726.31	1060.96
726.64	1064.71
726.97	1067.52
727.31	1073.84
727.64	1075.48
727.97	1084.60
728.31	1079.22
728.64	1079.69
728.97	1082.73
729.31	1075.01
729.64	1068.92
729.97	1075.24
730.30	1072.20
730.64	1071.97
730.97	1086.71
731.30	1091.63
731.63	1092.33
731.97	1097.71
732.30	1088.58
732.63	1084.84
732.96	1084.37
733.30	1075.71
733.63	1070.80
733.96	1079.22
734.29	1078.52
734.63	1083.67
734.96	1093.26
735.29	1096.31
735.62	1086.94
735.95	1080.39
736.29	1079.69
736.62	1078.28
736.95	1081.56
737.28	1083.90
737.61	1093.97
737.94	1091.39
738.28	1088.82
738.61	1090.46
738.94	1090.22
739.27	1086.48
739.60	1096.07
739.93	1093.03
740.27	1083.90
740.60	1082.73
740.93	1091.16
741.26	1085.31
741.59	1091.86
741.92	1092.80
742.25	1098.18
742.58	1081.80
742.91	1073.14
743.25	1068.45
743.58	1067.75
743.91	1056.75
744.24	1061.67
744.57	1069.62
744.90	1066.58
745.23	1061.20
745.56	1076.88
745.89	1073.60
746.22	1067.99
746.55	1070.09
746.88	1072.90
747.21	1074.54
747.54	1081.80
747.87	1079.69
748.20	1084.84
748.53	1093.03
748.87	1087.88
749.20	1085.07
749.53	1092.80
749.86	1074.31
750.19	1073.84
750.52	1069.16
750.85	1059.33
751.18	1057.92
751.51	1072.20
751.84	1075.01
752.16	1075.24
752.49	1082.03
752.82	1075.71
753.15	1073.37
753.48	1068.22
753.81	1070.56
754.14	1067.99
754.47	1078.05
754.80	1077.82
755.13	1072.43
755.46	1078.75
755.79	1080.63
756.12	1071.73
756.45	1082.26
756.78	1090.22
757.11	1087.88
757.43	1082.50
757.76	1090.69
758.09	1088.12
758.42	1081.56
758.75	1076.65
759.08	1084.14
759.41	1079.92
759.74	1080.86
760.07	1092.09
760.39	1095.37
760.72	1091.86
761.05	1090.69
761.38	1078.52
761.71	1073.37
762.04	1075.71
762.36	1077.35
762.69	1070.56
763.02	1073.60
763.35	1068.69
763.68	1067.99
764.01	1078.52
764.33	1087.41
764.66	1091.86
764.99	1093.73
765.32	1090.46
765.65	1089.05
765.97	1085.31
766.30	1093.73
