SpectraSuite Data File
++++++++++++++++++++++++++++++++++++
Date: Mon Aug 26 10:25:57 PDT 2019
User: corrico
Dark Spectrum Present: No
Reference Spectrum Present: No
Number of Sampled Component Spectra: 1
Spectrometers: USB2+H06089
Integration Time (usec): 10000 (USB2+H06089)
Spectra Averaged: 2 (USB2+H06089)
Boxcar Smoothing: 2 (USB2+H06089)
Correct for Electrical Dark: No (USB2+H06089)
Strobe/Lamp Enabled: No (USB2+H06089)
Correct for Detector Non-linearity: No (USB2+H06089)
Correct for Stray Light: No (USB2+H06089)
Number of Pixels in Processed Spectrum: 2048
>>>>>Begin Processed Spectral Data<<<<<
339.70	1040.37
340.07	1040.37
340.45	1003.62
340.82	979.05
341.19	949.56
341.57	928.72
341.94	915.38
342.31	903.91
342.69	892.68
343.06	889.40
343.43	883.55
343.81	892.45
344.18	897.83
344.55	904.85
344.93	917.96
345.30	921.00
345.67	924.28
346.04	936.92
346.42	944.41
346.79	950.73
347.16	964.30
347.54	963.36
347.91	960.79
348.28	979.28
348.65	988.17
349.03	989.34
349.40	998.00
349.77	1006.20
350.14	1005.73
350.52	1005.49
350.89	1003.62
351.26	1003.62
351.63	1020.24
352.01	1024.22
352.38	1038.03
352.75	1058.16
353.12	1072.67
353.50	1067.99
353.87	1071.73
354.24	1074.31
354.61	1077.58
354.98	1082.03
355.36	1080.86
355.73	1074.31
356.10	1065.88
356.47	1064.94
356.84	1063.31
357.22	1061.20
357.59	1073.60
357.96	1079.69
358.33	1074.54
358.70	1073.37
359.08	1080.63
359.45	1087.41
359.82	1089.99
360.19	1086.01
360.56	1074.31
360.94	1078.99
361.31	1070.80
361.68	1069.86
362.05	1070.09
362.42	1083.90
362.79	1077.35
363.16	1075.94
363.54	1066.82
363.91	1074.77
364.28	1064.71
364.65	1069.62
365.02	1066.58
365.39	1070.56
365.76	1071.50
366.14	1082.73
366.51	1082.26
366.88	1081.80
367.25	1074.07
367.62	1067.99
367.99	1067.05
368.36	1062.60
368.73	1067.99
369.10	1062.84
369.48	1068.69
369.85	1066.58
370.22	1065.88
370.59	1057.45
370.96	1071.73
371.33	1068.45
371.70	1064.71
372.07	1065.65
372.44	1077.35
372.81	1077.11
373.18	1070.09
373.55	1064.71
373.93	1061.90
374.30	1061.43
374.67	1065.65
375.04	1074.77
375.41	1075.01
375.78	1076.65
376.15	1065.18
376.52	1056.52
376.89	1047.62
377.26	1049.03
377.63	1042.71
378.00	1043.41
378.37	1047.16
378.74	1045.99
379.11	1042.94
379.48	1043.88
379.85	1054.18
380.22	1057.45
380.59	1066.82
380.96	1067.99
381.33	1083.43
381.70	1076.18
382.07	1074.77
382.44	1076.88
382.81	1083.20
383.18	1074.54
383.55	1078.05
383.92	1070.09
384.29	1063.31
384.66	1062.60
385.03	1066.58
385.40	1060.26
385.77	1059.79
386.14	1061.20
386.51	1059.09
386.88	1052.54
387.25	1063.07
387.62	1062.37
387.99	1056.52
388.36	1058.16
388.73	1071.03
389.10	1067.05
389.46	1068.22
389.83	1073.14
390.20	1079.22
390.57	1086.24
390.94	1089.29
391.31	1097.71
391.68	1104.73
392.05	1099.35
392.42	1084.60
392.79	1077.82
393.16	1068.45
393.53	1063.31
393.89	1070.33
394.26	1065.65
394.63	1065.41
395.00	1081.80
395.37	1084.60
395.74	1073.37
396.11	1083.67
396.48	1093.26
396.84	1091.16
397.21	1085.54
397.58	1093.26
397.95	1091.16
398.32	1075.71
398.69	1065.41
399.06	1065.41
399.42	1060.26
399.79	1059.09
400.16	1060.96
400.53	1066.35
400.90	1068.22
401.27	1066.82
401.64	1061.43
402.00	1068.22
402.37	1066.58
402.74	1068.69
403.11	1076.65
403.48	1078.75
403.84	1076.41
404.21	1078.52
404.58	1087.41
404.95	1090.69
405.32	1089.05
405.68	1094.90
406.05	1101.46
406.42	1087.88
406.79	1086.48
407.16	1090.69
407.52	1088.35
407.89	1079.69
408.26	1089.52
408.63	1087.65
408.99	1087.18
409.36	1089.75
409.73	1082.03
410.10	1070.09
410.47	1073.37
410.83	1069.86
411.20	1064.94
411.57	1068.22
411.94	1070.80
412.30	1069.39
412.67	1081.09
413.04	1075.71
413.40	1081.33
413.77	1085.54
414.14	1080.86
414.51	1067.05
414.87	1075.48
415.24	1073.37
415.61	1077.11
415.97	1077.11
416.34	1077.35
416.71	1071.97
417.08	1067.75
417.44	1057.92
417.81	1057.69
418.18	1060.96
418.54	1062.84
418.91	1066.11
419.28	1071.73
419.64	1071.97
420.01	1069.39
420.38	1071.50
420.74	1072.43
421.11	1068.45
421.48	1070.33
421.84	1081.33
422.21	1085.07
422.58	1081.56
422.94	1075.24
423.31	1067.99
423.68	1062.37
424.04	1049.73
424.41	1052.30
424.77	1056.52
425.14	1063.54
425.51	1066.58
425.87	1067.52
426.24	1070.09
426.61	1074.77
426.97	1076.18
427.34	1079.69
427.70	1088.12
428.07	1086.71
428.44	1091.16
428.80	1087.18
429.17	1085.54
429.53	1089.52
429.90	1088.35
430.27	1085.07
430.63	1086.01
431.00	1081.09
431.36	1079.92
431.73	1083.43
432.09	1082.97
432.46	1092.80
432.83	1088.82
433.19	1086.71
433.56	1078.75
433.92	1085.54
434.29	1076.65
434.65	1091.39
435.02	1093.03
435.38	1100.99
435.75	1099.82
436.11	1098.88
436.48	1091.63
436.84	1091.39
437.21	1096.07
437.57	1089.05
437.94	1090.22
438.30	1084.14
438.67	1077.35
439.03	1071.97
439.40	1071.97
439.76	1066.11
440.13	1066.11
440.49	1073.14
440.86	1072.20
441.22	1072.67
441.59	1072.90
441.95	1070.33
442.32	1058.62
442.68	1058.86
443.05	1052.30
443.41	1060.26
443.78	1054.18
444.14	1065.18
444.51	1071.26
444.87	1077.82
445.24	1075.94
445.60	1076.88
445.96	1076.41
446.33	1075.94
446.69	1078.05
447.06	1074.77
447.42	1086.71
447.79	1081.09
448.15	1086.71
448.51	1087.65
448.88	1087.88
449.24	1087.65
449.61	1093.97
449.97	1088.12
450.33	1091.16
450.70	1089.05
451.06	1084.14
451.43	1079.46
451.79	1075.94
452.15	1072.20
452.52	1074.31
452.88	1083.20
453.24	1082.73
453.61	1082.97
453.97	1083.67
454.34	1087.65
454.70	1080.39
455.06	1079.69
455.43	1072.20
455.79	1062.84
456.15	1059.33
456.52	1050.43
456.88	1059.09
457.24	1068.69
457.61	1082.50
457.97	1076.41
458.33	1068.92
458.70	1057.69
459.06	1057.92
459.42	1046.92
459.79	1053.24
460.15	1077.11
460.51	1086.94
460.88	1081.80
461.24	1087.18
461.60	1080.86
461.96	1077.35
462.33	1073.84
462.69	1074.54
463.05	1068.22
463.42	1072.20
463.78	1068.22
464.14	1059.09
464.50	1050.67
464.87	1047.39
465.23	1059.09
465.59	1064.94
465.95	1068.22
466.32	1076.41
466.68	1089.52
467.04	1075.01
467.40	1072.43
467.77	1073.60
468.13	1074.77
468.49	1075.48
468.85	1080.16
469.22	1073.60
469.58	1071.73
469.94	1076.18
470.30	1070.56
470.66	1073.60
471.03	1077.35
471.39	1100.29
471.75	1093.97
472.11	1094.20
472.47	1096.07
472.84	1092.56
473.20	1072.67
473.56	1073.84
473.92	1065.41
474.28	1062.37
474.65	1067.99
475.01	1071.73
475.37	1069.86
475.73	1077.11
476.09	1074.77
476.45	1075.94
476.81	1071.26
477.18	1072.20
477.54	1078.75
477.90	1079.46
478.26	1072.43
478.62	1071.26
478.98	1065.65
479.34	1059.79
479.71	1059.56
480.07	1064.24
480.43	1073.60
480.79	1082.73
481.15	1082.26
481.51	1080.63
481.87	1081.80
482.23	1088.58
482.59	1087.88
482.96	1087.18
483.32	1084.37
483.68	1084.84
484.04	1072.20
484.40	1068.92
484.76	1075.24
485.12	1086.48
485.48	1087.65
485.84	1096.78
486.20	1100.75
486.56	1089.52
486.92	1080.63
487.28	1072.43
487.64	1056.75
488.00	1055.58
488.37	1069.39
488.73	1071.97
489.09	1071.26
489.45	1077.35
489.81	1086.71
490.17	1086.94
490.53	1091.16
490.89	1100.52
491.25	1109.65
491.61	1095.60
491.97	1094.67
492.33	1096.54
492.69	1090.69
493.05	1075.94
493.41	1082.73
493.77	1069.62
494.13	1066.58
494.49	1069.86
494.85	1072.20
495.21	1078.05
495.57	1086.01
495.93	1087.41
496.29	1088.35
496.64	1087.18
497.00	1074.07
497.36	1078.05
497.72	1075.48
498.08	1074.54
498.44	1081.33
498.80	1081.09
499.16	1071.73
499.52	1066.82
499.88	1064.71
500.24	1060.03
500.60	1053.24
500.96	1055.58
501.32	1057.45
501.68	1061.43
502.03	1072.43
502.39	1075.71
502.75	1077.35
503.11	1083.20
503.47	1085.54
503.83	1087.65
504.19	1096.07
504.55	1098.88
504.91	1097.95
505.26	1096.31
505.62	1096.07
505.98	1097.71
506.34	1091.86
506.70	1090.22
507.06	1092.09
507.42	1083.20
507.78	1091.63
508.13	1097.24
508.49	1097.71
508.85	1094.90
509.21	1096.07
509.57	1089.75
509.93	1090.69
510.28	1093.50
510.64	1085.54
511.00	1088.82
511.36	1100.52
511.72	1104.97
512.07	1102.16
512.43	1106.61
512.79	1105.44
513.15	1085.07
513.51	1084.60
513.86	1089.52
514.22	1091.16
514.58	1094.20
514.94	1105.67
515.30	1100.52
515.65	1096.54
516.01	1097.71
516.37	1094.20
516.73	1082.26
517.08	1088.35
517.44	1100.52
517.80	1102.86
518.16	1108.71
518.51	1104.73
518.87	1095.84
519.23	1083.67
519.59	1085.07
519.94	1086.24
520.30	1097.48
520.66	1098.41
521.01	1089.99
521.37	1084.60
521.73	1083.20
522.09	1081.56
522.44	1084.60
522.80	1096.31
523.16	1095.60
523.51	1083.20
523.87	1094.20
524.23	1094.67
524.58	1097.01
524.94	1101.46
525.30	1104.26
525.65	1099.58
526.01	1100.05
526.37	1098.18
526.72	1093.50
527.08	1096.07
527.44	1092.09
527.79	1084.60
528.15	1082.73
528.51	1088.58
528.86	1084.14
529.22	1083.67
529.58	1091.63
529.93	1088.82
530.29	1085.31
530.65	1086.48
531.00	1081.33
531.36	1083.67
531.71	1087.18
532.07	1089.29
532.43	1091.39
532.78	1102.63
533.14	1093.50
533.49	1092.33
533.85	1089.29
534.21	1098.88
534.56	1096.78
534.92	1105.67
535.27	1102.16
535.63	1100.52
535.98	1095.37
536.34	1086.71
536.69	1083.20
537.05	1085.54
537.41	1081.56
537.76	1077.35
538.12	1082.26
538.47	1074.54
538.83	1075.24
539.18	1080.16
539.54	1078.28
539.89	1082.97
540.25	1086.48
540.60	1083.90
540.96	1088.58
541.31	1089.99
541.67	1077.58
542.02	1083.67
542.38	1083.90
542.73	1095.60
543.09	1111.75
543.44	1115.27
543.80	1108.95
544.15	1106.37
544.51	1096.31
544.86	1081.33
545.22	1078.05
545.57	1080.16
545.93	1077.35
546.28	1071.97
546.64	1086.01
546.99	1098.41
547.35	1090.69
547.70	1090.92
548.05	1094.20
548.41	1081.80
548.76	1082.50
549.12	1093.03
549.47	1096.07
549.83	1095.84
550.18	1086.01
550.53	1080.63
550.89	1078.52
551.24	1079.46
551.60	1070.56
551.95	1080.39
552.30	1067.75
552.66	1057.69
553.01	1054.88
553.37	1061.67
553.72	1061.67
554.07	1076.41
554.43	1084.37
554.78	1084.37
555.13	1079.69
555.49	1077.35
555.84	1072.43
556.19	1075.71
556.55	1077.11
556.90	1074.07
557.26	1074.77
557.61	1081.80
557.96	1080.16
558.32	1078.52
558.67	1083.67
559.02	1080.86
559.37	1076.88
559.73	1082.26
560.08	1085.31
560.43	1085.54
560.79	1080.86
561.14	1072.90
561.49	1068.45
561.85	1064.71
562.20	1070.56
562.55	1084.14
562.90	1093.50
563.26	1093.03
563.61	1097.95
563.96	1100.05
564.32	1091.39
564.67	1084.14
565.02	1081.80
565.37	1078.52
565.73	1082.73
566.08	1094.90
566.43	1103.09
566.78	1110.35
567.14	1104.97
567.49	1088.82
567.84	1077.11
568.19	1073.84
568.54	1060.96
568.90	1066.82
569.25	1067.05
569.60	1065.88
569.95	1061.20
570.31	1070.09
570.66	1069.16
571.01	1079.92
571.36	1087.18
571.71	1092.33
572.06	1094.43
572.42	1099.82
572.77	1095.14
573.12	1090.46
573.47	1091.86
573.82	1090.69
574.18	1088.12
574.53	1097.01
574.88	1097.95
575.23	1097.01
575.58	1100.05
575.93	1104.73
576.28	1098.41
576.64	1098.65
576.99	1105.67
577.34	1091.39
577.69	1083.20
578.04	1073.84
578.39	1077.82
578.74	1071.26
579.09	1088.12
579.44	1091.63
579.80	1103.33
580.15	1092.56
580.50	1084.84
580.85	1081.33
581.20	1079.46
581.55	1067.28
581.90	1078.75
582.25	1087.88
582.60	1078.99
582.95	1080.86
583.30	1086.71
583.65	1079.92
584.00	1071.97
584.35	1077.58
584.71	1081.80
585.06	1075.48
585.41	1079.22
585.76	1082.03
586.11	1077.82
586.46	1074.54
586.81	1075.48
587.16	1084.14
587.51	1082.50
587.86	1084.37
588.21	1082.50
588.56	1089.52
588.91	1081.56
589.26	1084.84
589.61	1093.73
589.96	1093.97
590.31	1094.43
590.66	1087.65
591.01	1086.94
591.36	1087.65
591.71	1092.56
592.06	1087.88
592.41	1088.82
592.76	1093.26
593.10	1085.31
593.45	1078.05
593.80	1082.50
594.15	1087.88
594.50	1090.22
594.85	1089.05
595.20	1088.12
595.55	1081.09
595.90	1080.16
596.25	1075.94
596.60	1073.14
596.95	1077.58
597.30	1082.26
597.64	1134.46
597.99	1138.20
598.34	1146.86
598.69	1153.88
599.04	1148.97
599.39	1098.18
599.74	1098.65
600.09	1079.46
600.44	1075.48
600.78	1074.54
601.13	1066.58
601.48	1058.39
601.83	1077.11
602.18	1073.37
602.53	1077.35
602.88	1085.31
603.22	1100.52
603.57	1096.07
603.92	1097.71
604.27	1095.14
604.62	1080.16
604.97	1078.05
605.31	1078.75
605.66	1079.69
606.01	1087.41
606.36	1100.29
606.71	1085.31
607.05	1084.84
607.40	1085.77
607.75	1092.56
608.10	1082.03
608.44	1080.86
608.79	1077.11
609.14	1078.52
609.49	1065.88
609.84	1083.43
610.18	1086.24
610.53	1087.88
610.88	1086.01
611.23	1086.71
611.57	1079.46
611.92	1086.24
612.27	1096.78
612.62	1099.82
612.96	1107.31
613.31	1114.80
613.66	1108.24
614.00	1095.37
614.35	1093.73
614.70	1088.82
615.05	1074.31
615.39	1076.41
615.74	1086.24
616.09	1079.92
616.43	1087.65
616.78	1092.56
617.13	1102.16
617.47	1093.73
617.82	1092.09
618.17	1085.07
618.51	1092.33
618.86	1087.88
619.21	1098.41
619.55	1106.84
619.90	1108.71
620.25	1100.05
620.59	1086.48
620.94	1071.73
621.29	1078.05
621.63	1076.41
621.98	1079.69
622.32	1089.99
622.67	1094.90
623.02	1086.01
623.36	1082.26
623.71	1084.60
624.05	1074.07
624.40	1082.03
624.75	1076.41
625.09	1082.26
625.44	1081.80
625.78	1094.90
626.13	1076.18
626.48	1077.58
626.82	1069.16
627.17	1060.26
627.51	1052.54
627.86	1068.22
628.20	1075.24
628.55	1077.11
628.89	1085.31
629.24	1088.82
629.58	1090.69
629.93	1075.71
630.28	1073.84
630.62	1066.58
630.97	1064.48
631.31	1063.31
631.66	1073.14
632.00	1083.20
632.35	1096.07
632.69	1087.18
633.04	1082.26
633.38	1084.60
633.73	1077.35
634.07	1075.01
634.42	1082.73
634.76	1084.60
635.11	1081.80
635.45	1085.07
635.79	1082.73
636.14	1081.09
636.48	1076.88
636.83	1078.05
637.17	1074.77
637.52	1070.80
637.86	1075.71
638.21	1073.37
638.55	1061.20
638.89	1062.14
639.24	1064.94
639.58	1071.03
639.93	1080.16
640.27	1090.22
640.61	1095.14
640.96	1083.43
641.30	1079.69
641.65	1074.07
641.99	1081.56
642.33	1079.22
642.68	1086.48
643.02	1075.94
643.37	1072.90
643.71	1065.88
644.05	1068.45
644.40	1065.88
644.74	1081.56
645.08	1091.39
645.43	1081.33
645.77	1075.94
646.11	1079.69
646.46	1069.86
646.80	1065.65
647.14	1069.62
647.49	1071.73
647.83	1073.37
648.17	1073.60
648.52	1063.77
648.86	1075.71
649.20	1080.39
649.55	1072.90
649.89	1075.94
650.23	1078.75
650.57	1087.18
650.92	1078.75
651.26	1089.05
651.60	1087.88
651.95	1093.03
652.29	1082.03
652.63	1088.58
652.97	1082.26
653.32	1085.54
653.66	1087.18
654.00	1081.56
654.34	1078.99
654.69	1074.54
655.03	1069.16
655.37	1067.99
655.71	1067.28
656.05	1067.05
656.40	1072.90
656.74	1068.22
657.08	1069.16
657.42	1071.97
657.76	1067.75
658.11	1074.07
658.45	1074.07
658.79	1056.52
659.13	1061.90
659.47	1069.86
659.82	1068.22
660.16	1077.35
660.50	1081.33
660.84	1072.90
661.18	1063.77
661.52	1066.35
661.87	1067.05
662.21	1087.41
662.55	1102.16
662.89	1097.71
663.23	1090.69
663.57	1083.20
663.91	1072.90
664.25	1065.41
664.60	1076.18
664.94	1071.97
665.28	1069.86
665.62	1078.99
665.96	1080.16
666.30	1073.84
666.64	1083.20
666.98	1092.80
667.32	1090.22
667.66	1081.33
668.01	1081.33
668.35	1085.31
668.69	1076.18
669.03	1075.24
669.37	1075.48
669.71	1078.52
670.05	1074.31
670.39	1081.56
670.73	1077.82
671.07	1089.99
671.41	1089.29
671.75	1090.92
672.09	1085.77
672.43	1091.86
672.77	1088.12
673.11	1093.26
673.45	1086.94
673.79	1095.60
674.13	1083.67
674.47	1076.65
674.81	1071.97
675.15	1070.80
675.49	1065.18
675.83	1077.35
676.17	1082.97
676.51	1088.58
676.85	1086.01
677.19	1081.56
677.53	1076.18
677.87	1069.16
678.21	1068.45
678.55	1065.41
678.89	1061.90
679.23	1057.92
679.57	1068.45
679.90	1059.56
680.24	1066.82
680.58	1077.58
680.92	1077.35
681.26	1078.05
681.60	1083.90
681.94	1089.99
682.28	1087.65
682.62	1093.03
682.96	1088.82
683.29	1091.63
683.63	1089.05
683.97	1084.60
684.31	1091.86
684.65	1091.39
684.99	1090.92
685.33	1088.35
685.67	1095.14
686.00	1090.92
686.34	1088.12
686.68	1089.99
687.02	1090.69
687.36	1082.97
687.70	1073.60
688.03	1072.90
688.37	1062.84
688.71	1062.37
689.05	1072.20
689.39	1088.35
689.72	1085.77
690.06	1093.03
690.40	1091.63
690.74	1083.67
691.08	1071.50
691.41	1075.48
691.75	1073.37
692.09	1076.41
692.43	1082.97
692.76	1081.09
693.10	1087.88
693.44	1090.46
693.78	1095.14
694.11	1095.84
694.45	1096.54
694.79	1091.16
695.13	1099.12
695.46	1093.03
695.80	1075.01
696.14	1068.45
696.48	1061.90
696.81	1048.09
697.15	1056.05
697.49	1060.50
697.82	1064.48
698.16	1068.22
698.50	1078.05
698.83	1066.58
699.17	1076.18
699.51	1084.37
699.84	1076.65
700.18	1058.86
700.52	1059.09
700.85	1062.84
701.19	1061.67
701.53	1070.80
701.86	1078.75
702.20	1084.84
702.54	1088.12
702.87	1089.75
703.21	1090.46
703.55	1097.01
703.88	1089.99
704.22	1076.88
704.55	1072.43
704.89	1076.41
705.23	1071.03
705.56	1084.37
705.90	1086.94
706.23	1085.54
706.57	1081.09
706.91	1090.92
707.24	1086.71
707.58	1094.90
707.91	1101.69
708.25	1096.54
708.58	1089.52
708.92	1086.71
709.26	1082.97
709.59	1075.71
709.93	1080.16
710.26	1085.77
710.60	1081.33
710.93	1080.16
711.27	1087.18
711.60	1090.46
711.94	1085.31
712.27	1082.26
712.61	1083.20
712.94	1086.48
713.28	1088.58
713.61	1088.35
713.95	1093.97
714.28	1094.43
714.62	1088.82
714.95	1081.33
715.29	1083.90
715.62	1089.99
715.96	1090.46
716.29	1094.67
716.63	1091.63
716.96	1090.22
717.29	1075.94
717.63	1071.26
717.96	1064.48
718.30	1068.45
718.63	1059.09
718.97	1066.82
719.30	1056.99
719.63	1054.88
719.97	1057.22
720.30	1066.82
720.64	1068.69
720.97	1081.80
721.30	1084.84
721.64	1085.77
721.97	1084.14
722.31	1080.39
722.64	1076.65
722.97	1071.97
723.31	1063.77
723.64	1071.73
723.97	1081.80
724.31	1089.05
724.64	1094.67
724.98	1099.82
725.31	1092.09
725.64	1077.58
725.98	1067.99
726.31	1064.94
726.64	1068.69
726.97	1066.35
727.31	1067.75
727.64	1070.56
727.97	1058.62
728.31	1046.69
728.64	1054.65
728.97	1055.58
729.31	1055.35
729.64	1066.58
729.97	1076.18
730.30	1068.45
730.64	1069.39
730.97	1073.14
731.30	1072.43
731.63	1067.99
731.97	1063.07
732.30	1073.84
732.63	1063.77
732.96	1068.92
733.30	1065.88
733.63	1069.16
733.96	1055.35
734.29	1066.11
734.63	1058.62
734.96	1074.07
735.29	1066.35
735.62	1081.09
735.95	1076.65
736.29	1083.90
736.62	1077.11
736.95	1082.26
737.28	1072.20
737.61	1075.24
737.94	1074.77
738.28	1070.80
738.61	1079.22
738.94	1087.88
739.27	1088.35
739.60	1093.73
739.93	1104.26
740.27	1098.18
740.60	1095.84
740.93	1098.88
741.26	1095.37
741.59	1083.20
741.92	1082.26
742.25	1071.73
742.58	1067.52
742.91	1064.01
743.25	1068.69
743.58	1070.09
743.91	1073.14
744.24	1073.84
744.57	1068.45
744.90	1070.09
745.23	1073.37
745.56	1077.82
745.89	1080.39
746.22	1094.20
746.55	1092.80
746.88	1095.60
747.21	1083.67
747.54	1076.18
747.87	1061.43
748.20	1063.54
748.53	1054.18
748.87	1065.41
749.20	1074.31
749.53	1084.37
749.86	1076.18
750.19	1087.18
750.52	1087.41
750.85	1088.58
751.18	1081.33
751.51	1087.18
751.84	1074.31
752.16	1067.99
752.49	1064.48
752.82	1071.50
753.15	1071.03
753.48	1079.69
753.81	1076.88
754.14	1071.97
754.47	1065.88
754.80	1066.35
755.13	1070.80
755.46	1079.46
755.79	1081.09
756.12	1085.31
756.45	1084.84
756.78	1076.18
757.11	1078.52
757.43	1077.82
757.76	1080.39
758.09	1090.46
758.42	1094.67
758.75	1093.73
759.08	1109.88
759.41	1112.22
759.74	1095.14
760.07	1090.69
760.39	1086.01
760.72	1065.41
761.05	1049.73
761.38	1052.30
761.71	1060.26
762.04	1061.43
762.36	1072.90
762.69	1080.63
763.02	1094.20
763.35	1093.03
763.68	1090.46
764.01	1090.69
764.33	1090.22
764.66	1085.54
764.99	1091.39
765.32	1093.50
765.65	1086.48
765.97	1090.46
766.30	1092.56
