SpectraSuite Data File
++++++++++++++++++++++++++++++++++++
Date: Mon Aug 26 10:25:55 PDT 2019
User: corrico
Dark Spectrum Present: No
Reference Spectrum Present: No
Number of Sampled Component Spectra: 1
Spectrometers: USB2+H06089
Integration Time (usec): 10000 (USB2+H06089)
Spectra Averaged: 2 (USB2+H06089)
Boxcar Smoothing: 2 (USB2+H06089)
Correct for Electrical Dark: No (USB2+H06089)
Strobe/Lamp Enabled: No (USB2+H06089)
Correct for Detector Non-linearity: No (USB2+H06089)
Correct for Stray Light: No (USB2+H06089)
Number of Pixels in Processed Spectrum: 2048
>>>>>Begin Processed Spectral Data<<<<<
339.70	1047.39
340.07	1047.39
340.45	1006.66
340.82	980.68
341.19	957.05
341.57	922.87
341.94	904.85
342.31	895.02
342.69	888.94
343.06	887.30
343.43	893.15
343.81	907.89
344.18	912.81
344.55	915.15
344.93	915.62
345.30	926.38
345.67	932.00
346.04	934.58
346.42	953.77
346.79	960.79
347.16	966.88
347.54	959.39
347.91	973.19
348.28	970.39
348.65	976.94
349.03	978.34
349.40	1002.22
349.77	1009.94
350.14	1028.20
350.52	1038.96
350.89	1046.22
351.26	1037.09
351.63	1044.35
352.01	1043.88
352.38	1051.60
352.75	1054.18
353.12	1058.16
353.50	1069.62
353.87	1075.71
354.24	1067.52
354.61	1066.35
354.98	1077.82
355.36	1069.62
355.73	1066.82
356.10	1073.37
356.47	1080.86
356.84	1083.20
357.22	1093.03
357.59	1084.37
357.96	1087.41
358.33	1089.52
358.70	1083.67
359.08	1072.20
359.45	1083.20
359.82	1076.41
360.19	1071.50
360.56	1064.94
360.94	1057.69
361.31	1055.11
361.68	1057.45
362.05	1058.62
362.42	1062.14
362.79	1069.86
363.16	1067.52
363.54	1065.88
363.91	1061.20
364.28	1056.99
364.65	1051.84
365.02	1051.84
365.39	1053.01
365.76	1061.90
366.14	1072.90
366.51	1072.67
366.88	1065.41
367.25	1071.26
367.62	1072.90
367.99	1062.37
368.36	1061.67
368.73	1065.65
369.10	1065.65
369.48	1068.45
369.85	1073.60
370.22	1081.33
370.59	1082.73
370.96	1072.90
371.33	1059.56
371.70	1053.24
372.07	1047.62
372.44	1052.30
372.81	1053.48
373.18	1066.82
373.55	1068.22
373.93	1071.50
374.30	1064.01
374.67	1069.16
375.04	1055.82
375.41	1064.94
375.78	1070.09
376.15	1070.80
376.52	1074.31
376.89	1089.05
377.26	1089.52
377.63	1085.54
378.00	1086.48
378.37	1086.71
378.74	1079.69
379.11	1083.90
379.48	1093.03
379.85	1094.90
380.22	1086.48
380.59	1086.71
380.96	1071.50
381.33	1058.16
381.70	1068.45
382.07	1077.35
382.44	1078.99
382.81	1096.78
383.18	1103.09
383.55	1087.65
383.92	1078.75
384.29	1079.92
384.66	1069.86
385.03	1066.11
385.40	1073.14
385.77	1076.65
386.14	1064.94
386.51	1056.99
386.88	1058.16
387.25	1053.48
387.62	1052.07
387.99	1067.05
388.36	1076.41
388.73	1083.67
389.10	1093.50
389.46	1102.16
389.83	1092.80
390.20	1089.99
390.57	1078.28
390.94	1082.26
391.31	1075.71
391.68	1075.48
392.05	1080.86
392.42	1090.46
392.79	1077.11
393.16	1080.86
393.53	1089.05
393.89	1082.50
394.26	1081.80
394.63	1091.16
395.00	1091.16
395.37	1076.88
395.74	1082.50
396.11	1076.65
396.48	1071.03
396.84	1070.80
397.21	1077.35
397.58	1068.45
397.95	1064.94
398.32	1064.94
398.69	1074.31
399.06	1075.24
399.42	1075.71
399.79	1080.39
400.16	1078.52
400.53	1067.75
400.90	1065.88
401.27	1069.16
401.64	1072.20
402.00	1073.84
402.37	1070.56
402.74	1077.82
403.11	1080.39
403.48	1084.14
403.84	1082.97
404.21	1084.14
404.58	1079.92
404.95	1090.92
405.32	1080.16
405.68	1088.12
406.05	1089.29
406.42	1086.94
406.79	1077.11
407.16	1084.37
407.52	1075.48
407.89	1071.73
408.26	1072.20
408.63	1066.35
408.99	1070.80
409.36	1072.20
409.73	1078.99
410.10	1074.31
410.47	1085.77
410.83	1084.60
411.20	1086.94
411.57	1080.63
411.94	1093.03
412.30	1085.77
412.67	1091.39
413.04	1085.07
413.40	1089.52
413.77	1081.09
414.14	1071.73
414.51	1072.67
414.87	1075.24
415.24	1078.75
415.61	1084.84
415.97	1098.88
416.34	1079.69
416.71	1086.01
417.08	1078.75
417.44	1077.82
417.81	1077.58
418.18	1084.84
418.54	1084.84
418.91	1090.69
419.28	1085.77
419.64	1076.65
420.01	1066.82
420.38	1068.92
420.74	1066.58
421.11	1063.77
421.48	1068.69
421.84	1085.77
422.21	1076.18
422.58	1073.84
422.94	1077.58
423.31	1086.48
423.68	1080.16
424.04	1083.90
424.41	1085.07
424.77	1079.92
425.14	1073.84
425.51	1075.71
425.87	1082.50
426.24	1082.26
426.61	1085.07
426.97	1083.20
427.34	1074.31
427.70	1072.90
428.07	1075.94
428.44	1079.22
428.80	1077.58
429.17	1079.46
429.53	1081.09
429.90	1075.48
430.27	1069.39
430.63	1067.05
431.00	1073.37
431.36	1071.97
431.73	1076.88
432.09	1075.94
432.46	1084.37
432.83	1084.84
433.19	1073.14
433.56	1067.75
433.92	1077.82
434.29	1067.28
434.65	1064.71
435.02	1077.11
435.38	1074.07
435.75	1071.03
436.11	1069.39
436.48	1067.52
436.84	1062.14
437.21	1074.54
437.57	1072.20
437.94	1078.52
438.30	1082.03
438.67	1073.37
439.03	1066.11
439.40	1067.05
439.76	1066.35
440.13	1061.43
440.49	1068.45
440.86	1069.86
441.22	1073.60
441.59	1069.62
441.95	1079.46
442.32	1084.60
442.68	1087.18
443.05	1091.86
443.41	1098.41
443.78	1080.86
444.14	1073.60
444.51	1072.43
444.87	1063.07
445.24	1071.03
445.60	1084.37
445.96	1086.71
446.33	1079.22
446.69	1079.92
447.06	1079.46
447.42	1077.58
447.79	1072.90
448.15	1074.31
448.51	1080.86
448.88	1071.73
449.24	1075.94
449.61	1084.60
449.97	1091.39
450.33	1080.16
450.70	1078.52
451.06	1078.28
451.43	1079.22
451.79	1071.03
452.15	1074.31
452.52	1071.73
452.88	1070.56
453.24	1057.22
453.61	1065.65
453.97	1064.01
454.34	1064.94
454.70	1062.14
455.06	1062.84
455.43	1057.92
455.79	1064.94
456.15	1073.37
456.52	1071.73
456.88	1071.97
457.24	1068.45
457.61	1065.41
457.97	1065.65
458.33	1062.84
458.70	1079.92
459.06	1082.73
459.42	1086.24
459.79	1076.88
460.15	1079.92
460.51	1064.94
460.88	1075.01
461.24	1074.07
461.60	1075.01
461.96	1079.92
462.33	1095.14
462.69	1082.97
463.05	1080.16
463.42	1075.01
463.78	1073.37
464.14	1065.41
464.50	1064.24
464.87	1057.92
465.23	1060.96
465.59	1056.28
465.95	1048.79
466.32	1054.88
466.68	1061.20
467.04	1066.58
467.40	1065.65
467.77	1069.39
468.13	1064.94
468.49	1063.31
468.85	1053.94
469.22	1056.05
469.58	1064.48
469.94	1072.43
470.30	1075.94
470.66	1086.24
471.03	1090.22
471.39	1082.03
471.75	1073.37
472.11	1072.67
472.47	1071.97
472.84	1067.28
473.20	1071.03
473.56	1079.69
473.92	1087.88
474.28	1085.54
474.65	1085.07
475.01	1089.29
475.37	1086.71
475.73	1084.37
476.09	1091.63
476.45	1099.58
476.81	1086.71
477.18	1086.01
477.54	1072.43
477.90	1071.50
478.26	1060.03
478.62	1072.20
478.98	1073.14
479.34	1075.24
479.71	1067.75
480.07	1069.62
480.43	1065.41
480.79	1072.67
481.15	1084.84
481.51	1087.41
481.87	1082.97
482.23	1084.84
482.59	1083.43
482.96	1074.54
483.32	1070.56
483.68	1087.88
484.04	1088.35
484.40	1073.14
484.76	1071.73
485.12	1076.65
485.48	1062.84
485.84	1055.82
486.20	1063.77
486.56	1056.28
486.92	1058.39
487.28	1062.37
487.64	1067.99
488.00	1067.99
488.37	1077.82
488.73	1073.14
489.09	1076.18
489.45	1073.37
489.81	1064.94
490.17	1066.82
490.53	1066.35
490.89	1061.67
491.25	1065.65
491.61	1068.45
491.97	1075.94
492.33	1080.86
492.69	1083.20
493.05	1085.54
493.41	1096.78
493.77	1089.75
494.13	1087.65
494.49	1085.54
494.85	1080.63
495.21	1070.56
495.57	1075.94
495.93	1066.82
496.29	1065.41
496.64	1064.94
497.00	1075.01
497.36	1075.71
497.72	1091.16
498.08	1092.80
498.44	1093.26
498.80	1083.43
499.16	1079.69
499.52	1076.41
499.88	1082.03
500.24	1087.88
500.60	1099.12
500.96	1098.41
501.32	1097.48
501.68	1094.90
502.03	1090.46
502.39	1086.24
502.75	1091.63
503.11	1091.39
503.47	1089.75
503.83	1088.35
504.19	1083.90
504.55	1079.92
504.91	1078.28
505.26	1073.84
505.62	1070.80
505.98	1075.24
506.34	1073.14
506.70	1078.99
507.06	1088.12
507.42	1092.09
507.78	1079.46
508.13	1083.90
508.49	1079.22
508.85	1081.56
509.21	1076.18
509.57	1093.97
509.93	1077.82
510.28	1083.67
510.64	1081.09
511.00	1081.09
511.36	1074.77
511.72	1086.01
512.07	1089.29
512.43	1088.12
512.79	1092.56
513.15	1088.12
513.51	1085.77
513.86	1086.24
514.22	1092.80
514.58	1091.16
514.94	1093.97
515.30	1106.37
515.65	1106.37
516.01	1099.12
516.37	1099.58
516.73	1099.58
517.08	1093.97
517.44	1085.31
517.80	1082.26
518.16	1081.80
518.51	1088.35
518.87	1090.92
519.23	1097.95
519.59	1104.97
519.94	1109.65
520.30	1107.78
520.66	1096.31
521.01	1089.99
521.37	1085.54
521.73	1089.52
522.09	1083.20
522.44	1094.20
522.80	1090.22
523.16	1097.71
523.51	1088.58
523.87	1094.43
524.23	1086.48
524.58	1089.05
524.94	1083.43
525.30	1092.33
525.65	1096.31
526.01	1107.31
526.37	1101.92
526.72	1102.39
527.08	1093.50
527.44	1087.41
527.79	1081.56
528.15	1086.24
528.51	1090.22
528.86	1095.60
529.22	1098.41
529.58	1096.07
529.93	1094.90
530.29	1085.77
530.65	1078.28
531.00	1079.69
531.36	1075.48
531.71	1089.99
532.07	1098.88
532.43	1100.05
532.78	1082.26
533.14	1081.33
533.49	1071.73
533.85	1077.35
534.21	1077.58
534.56	1087.88
534.92	1101.46
535.27	1104.97
535.63	1085.54
535.98	1090.22
536.34	1087.18
536.69	1082.97
537.05	1081.56
537.41	1092.56
537.76	1096.07
538.12	1105.20
538.47	1100.99
538.83	1097.48
539.18	1107.54
539.54	1106.14
539.89	1103.09
540.25	1103.09
540.60	1097.95
540.96	1083.20
541.31	1082.03
541.67	1089.52
542.02	1084.37
542.38	1091.39
542.73	1096.78
543.09	1098.65
543.44	1094.90
543.80	1105.67
544.15	1109.65
544.51	1107.07
544.86	1102.16
545.22	1097.24
545.57	1089.29
545.93	1080.86
546.28	1081.80
546.64	1098.88
546.99	1098.65
547.35	1104.73
547.70	1119.01
548.05	1121.58
548.41	1102.86
548.76	1107.31
549.12	1103.56
549.47	1093.50
549.83	1097.24
550.18	1104.73
550.53	1103.09
550.89	1101.69
551.24	1101.22
551.60	1093.97
551.95	1091.16
552.30	1085.31
552.66	1087.18
553.01	1087.18
553.37	1089.52
553.72	1087.18
554.07	1094.43
554.43	1089.75
554.78	1077.35
555.13	1075.24
555.49	1070.09
555.84	1070.09
556.19	1066.58
556.55	1076.65
556.90	1075.24
557.26	1075.24
557.61	1074.31
557.96	1075.48
558.32	1069.39
558.67	1067.28
559.02	1076.88
559.37	1073.37
559.73	1079.46
560.08	1079.69
560.43	1079.92
560.79	1069.86
561.14	1065.88
561.49	1063.31
561.85	1068.22
562.20	1072.90
562.55	1076.41
562.90	1087.65
563.26	1090.69
563.61	1090.46
563.96	1085.31
564.32	1088.35
564.67	1086.01
565.02	1074.77
565.37	1069.62
565.73	1070.56
566.08	1066.58
566.43	1056.05
566.78	1058.39
567.14	1060.73
567.49	1061.90
567.84	1069.39
568.19	1073.60
568.54	1071.73
568.90	1080.16
569.25	1075.94
569.60	1072.20
569.95	1076.65
570.31	1090.22
570.66	1091.39
571.01	1091.86
571.36	1096.07
571.71	1093.26
572.06	1083.67
572.42	1077.82
572.77	1079.46
573.12	1076.18
573.47	1072.43
573.82	1076.41
574.18	1075.24
574.53	1074.07
574.88	1072.67
575.23	1078.28
575.58	1078.75
575.93	1083.90
576.28	1088.12
576.64	1089.05
576.99	1084.14
577.34	1075.48
577.69	1072.90
578.04	1068.92
578.39	1058.62
578.74	1067.28
579.09	1083.67
579.44	1082.50
579.80	1084.60
580.15	1091.39
580.50	1089.75
580.85	1079.46
581.20	1074.54
581.55	1071.50
581.90	1073.84
582.25	1068.22
582.60	1059.33
582.95	1074.54
583.30	1080.16
583.65	1080.63
584.00	1082.50
584.35	1094.43
584.71	1081.56
585.06	1087.88
585.41	1078.99
585.76	1075.24
586.11	1069.39
586.46	1071.03
586.81	1064.24
587.16	1075.71
587.51	1076.18
587.86	1085.54
588.21	1075.94
588.56	1073.60
588.91	1080.16
589.26	1086.48
589.61	1076.18
589.96	1088.58
590.31	1094.43
590.66	1075.71
591.01	1073.84
591.36	1079.92
591.71	1072.20
592.06	1068.69
592.41	1081.80
592.76	1075.24
593.10	1074.77
593.45	1083.20
593.80	1080.39
594.15	1077.58
594.50	1079.22
594.85	1073.84
595.20	1068.45
595.55	1074.07
595.90	1069.16
596.25	1069.39
596.60	1070.33
596.95	1066.35
597.30	1062.60
597.64	1112.46
597.99	1114.09
598.34	1118.54
598.69	1117.84
599.04	1114.33
599.39	1076.18
599.74	1087.65
600.09	1093.26
600.44	1103.56
600.78	1105.20
601.13	1090.69
601.48	1074.31
601.83	1065.41
602.18	1060.96
602.53	1062.60
602.88	1060.96
603.22	1068.45
603.57	1071.97
603.92	1079.92
604.27	1079.69
604.62	1084.14
604.97	1072.67
605.31	1073.37
605.66	1073.60
606.01	1076.88
606.36	1082.26
606.71	1083.90
607.05	1081.09
607.40	1065.18
607.75	1056.75
608.10	1051.60
608.44	1059.56
608.79	1066.11
609.14	1069.86
609.49	1080.16
609.84	1085.54
610.18	1080.63
610.53	1089.52
610.88	1100.75
611.23	1096.31
611.57	1094.90
611.92	1099.12
612.27	1086.94
612.62	1088.58
612.96	1084.84
613.31	1067.52
613.66	1068.92
614.00	1066.35
614.35	1061.67
614.70	1065.41
615.05	1086.94
615.39	1093.26
615.74	1093.50
616.09	1096.54
616.43	1097.71
616.78	1090.22
617.13	1077.58
617.47	1077.58
617.82	1070.09
618.17	1064.71
618.51	1065.65
618.86	1073.37
619.21	1077.11
619.55	1072.67
619.90	1077.82
620.25	1078.52
620.59	1074.31
620.94	1068.92
621.29	1070.33
621.63	1069.16
621.98	1071.50
622.32	1078.99
622.67	1083.67
623.02	1095.60
623.36	1097.95
623.71	1098.65
624.05	1095.84
624.40	1094.67
624.75	1090.92
625.09	1087.65
625.44	1089.75
625.78	1082.97
626.13	1089.52
626.48	1083.90
626.82	1086.48
627.17	1088.58
627.51	1095.60
627.86	1083.43
628.20	1078.52
628.55	1076.18
628.89	1065.41
629.24	1061.67
629.58	1072.90
629.93	1082.97
630.28	1084.60
630.62	1092.33
630.97	1091.39
631.31	1085.54
631.66	1086.01
632.00	1082.03
632.35	1076.41
632.69	1084.37
633.04	1083.67
633.38	1081.33
633.73	1084.84
634.07	1092.80
634.42	1083.43
634.76	1083.43
635.11	1085.07
635.45	1082.73
635.79	1076.65
636.14	1079.92
636.48	1067.28
636.83	1056.05
637.17	1056.05
637.52	1056.05
637.86	1053.48
638.21	1068.92
638.55	1078.75
638.89	1074.31
639.24	1077.82
639.58	1084.84
639.93	1082.03
640.27	1073.37
640.61	1087.65
640.96	1091.86
641.30	1088.58
641.65	1093.97
641.99	1103.56
642.33	1110.35
642.68	1103.33
643.02	1101.69
643.37	1095.60
643.71	1086.94
644.05	1065.18
644.40	1067.28
644.74	1065.18
645.08	1061.90
645.43	1069.39
645.77	1070.09
646.11	1069.62
646.46	1076.41
646.80	1082.03
647.14	1082.73
647.49	1097.24
647.83	1101.22
648.17	1094.20
648.52	1083.43
648.86	1082.73
649.20	1080.16
649.55	1078.99
649.89	1085.31
650.23	1090.22
650.57	1098.18
650.92	1089.05
651.26	1080.39
651.60	1080.63
651.95	1089.29
652.29	1078.05
652.63	1075.24
652.97	1078.52
653.32	1075.24
653.66	1074.31
654.00	1071.50
654.34	1079.22
654.69	1079.92
655.03	1074.54
655.37	1067.99
655.71	1071.73
656.05	1066.11
656.40	1070.09
656.74	1086.24
657.08	1094.43
657.42	1099.12
657.76	1105.90
658.11	1100.75
658.45	1092.56
658.79	1086.01
659.13	1093.97
659.47	1096.54
659.82	1096.31
660.16	1092.09
660.50	1089.05
660.84	1082.26
661.18	1077.58
661.52	1077.35
661.87	1072.20
662.21	1076.18
662.55	1071.50
662.89	1067.28
663.23	1066.82
663.57	1071.97
663.91	1070.80
664.25	1063.77
664.60	1064.48
664.94	1056.75
665.28	1054.88
665.62	1059.79
665.96	1075.01
666.30	1078.28
666.64	1082.03
666.98	1088.12
667.32	1085.77
667.66	1076.88
668.01	1072.43
668.35	1080.86
668.69	1084.84
669.03	1077.82
669.37	1074.31
669.71	1080.63
670.05	1068.92
670.39	1067.75
670.73	1072.90
671.07	1080.86
671.41	1074.54
671.75	1082.73
672.09	1074.54
672.43	1084.14
672.77	1081.56
673.11	1076.41
673.45	1078.99
673.79	1082.26
674.13	1071.50
674.47	1065.88
674.81	1078.52
675.15	1079.46
675.49	1080.86
675.83	1087.65
676.17	1088.82
676.51	1078.28
676.85	1076.65
677.19	1079.22
677.53	1074.77
677.87	1081.09
678.21	1086.48
678.55	1090.69
678.89	1089.05
679.23	1088.82
679.57	1087.41
679.90	1089.05
680.24	1083.90
680.58	1081.56
680.92	1087.18
681.26	1082.26
681.60	1082.03
681.94	1087.41
682.28	1088.82
682.62	1085.07
682.96	1081.56
683.29	1076.41
683.63	1071.97
683.97	1064.24
684.31	1064.24
684.65	1061.67
684.99	1067.05
685.33	1066.35
685.67	1065.88
686.00	1066.11
686.34	1073.60
686.68	1063.31
687.02	1059.33
687.36	1068.45
687.70	1065.88
688.03	1072.20
688.37	1078.75
688.71	1087.88
689.05	1086.71
689.39	1086.01
689.72	1083.43
690.06	1081.56
690.40	1078.99
690.74	1070.09
691.08	1071.50
691.41	1075.01
691.75	1075.71
692.09	1071.26
692.43	1084.14
692.76	1081.56
693.10	1072.67
693.44	1077.11
693.78	1083.90
694.11	1073.84
694.45	1065.18
694.79	1075.01
695.13	1072.90
695.46	1064.24
695.80	1061.67
696.14	1063.54
696.48	1053.24
696.81	1055.35
697.15	1066.58
697.49	1069.39
697.82	1075.94
698.16	1075.94
698.50	1076.88
698.83	1061.20
699.17	1064.24
699.51	1069.16
699.84	1063.77
700.18	1061.67
700.52	1059.79
700.85	1055.11
701.19	1059.56
701.53	1065.41
701.86	1076.88
702.20	1083.20
702.54	1081.09
702.87	1075.48
703.21	1076.88
703.55	1078.99
703.88	1083.67
704.22	1095.84
704.55	1098.41
704.89	1093.26
705.23	1088.82
705.56	1087.18
705.90	1082.50
706.23	1076.18
706.57	1078.99
706.91	1063.31
707.24	1062.14
707.58	1061.90
707.91	1067.99
708.25	1067.52
708.58	1070.33
708.92	1071.97
709.26	1063.07
709.59	1053.71
709.93	1058.86
710.26	1070.80
710.60	1074.31
710.93	1088.82
711.27	1092.56
711.60	1093.03
711.94	1091.16
712.27	1085.31
712.61	1082.26
712.94	1085.54
713.28	1077.82
713.61	1061.43
713.95	1062.37
714.28	1059.56
714.62	1053.24
714.95	1057.69
715.29	1060.26
715.62	1071.50
715.96	1073.84
716.29	1081.56
716.63	1091.16
716.96	1108.24
717.29	1093.97
717.63	1096.78
717.96	1094.67
718.30	1087.88
718.63	1086.94
718.97	1104.26
719.30	1092.56
719.63	1089.05
719.97	1092.56
720.30	1080.16
720.64	1069.39
720.97	1077.11
721.30	1081.33
721.64	1074.07
721.97	1076.41
722.31	1072.67
722.64	1075.48
722.97	1075.01
723.31	1077.58
723.64	1085.07
723.97	1082.03
724.31	1073.14
724.64	1071.26
724.98	1073.14
725.31	1065.88
725.64	1070.80
725.98	1072.43
726.31	1067.75
726.64	1062.14
726.97	1068.92
727.31	1072.90
727.64	1071.50
727.97	1086.24
728.31	1087.18
728.64	1077.58
728.97	1077.58
729.31	1080.16
729.64	1069.39
729.97	1075.48
730.30	1081.09
730.64	1075.71
730.97	1075.94
731.30	1080.63
731.63	1079.46
731.97	1074.54
732.30	1075.71
732.63	1079.69
732.96	1072.43
733.30	1067.99
733.63	1066.58
733.96	1060.50
734.29	1053.24
734.63	1053.48
734.96	1061.20
735.29	1059.33
735.62	1061.67
735.95	1077.58
736.29	1085.77
736.62	1076.41
736.95	1079.69
737.28	1075.94
737.61	1059.56
737.94	1047.86
738.28	1055.82
738.61	1058.86
738.94	1063.54
739.27	1074.07
739.60	1074.54
739.93	1069.62
740.27	1067.99
740.60	1077.82
740.93	1064.94
741.26	1070.56
741.59	1070.09
741.92	1068.92
742.25	1056.75
742.58	1065.88
742.91	1065.88
743.25	1063.54
743.58	1060.03
743.91	1067.75
744.24	1063.54
744.57	1064.94
744.90	1077.58
745.23	1087.41
745.56	1084.84
745.89	1093.26
746.22	1086.01
746.55	1082.03
746.88	1075.24
747.21	1076.65
747.54	1081.56
747.87	1085.54
748.20	1080.39
748.53	1086.24
748.87	1087.88
749.20	1084.60
749.53	1087.88
749.86	1078.28
750.19	1079.69
750.52	1079.69
750.85	1073.37
751.18	1075.24
751.51	1079.92
751.84	1067.28
752.16	1058.16
752.49	1061.20
752.82	1058.16
753.15	1065.65
753.48	1078.52
753.81	1095.37
754.14	1089.52
754.47	1090.69
754.80	1089.99
755.13	1089.75
755.46	1092.56
755.79	1104.03
756.12	1106.37
756.45	1100.75
756.78	1093.73
757.11	1080.39
757.43	1077.58
757.76	1077.35
758.09	1086.24
758.42	1092.33
758.75	1091.63
759.08	1079.92
759.41	1077.58
759.74	1078.05
760.07	1077.58
760.39	1084.14
760.72	1093.97
761.05	1090.92
761.38	1081.33
761.71	1075.71
762.04	1075.48
762.36	1070.80
762.69	1077.11
763.02	1086.94
763.35	1102.16
763.68	1095.84
764.01	1094.67
764.33	1095.60
764.66	1089.75
764.99	1076.65
765.32	1078.05
765.65	1074.77
765.97	1073.84
766.30	1077.58
