SpectraSuite Data File
++++++++++++++++++++++++++++++++++++
Date: Mon Aug 26 10:25:58 PDT 2019
User: corrico
Dark Spectrum Present: No
Reference Spectrum Present: No
Number of Sampled Component Spectra: 1
Spectrometers: USB2+H06089
Integration Time (usec): 10000 (USB2+H06089)
Spectra Averaged: 2 (USB2+H06089)
Boxcar Smoothing: 2 (USB2+H06089)
Correct for Electrical Dark: No (USB2+H06089)
Strobe/Lamp Enabled: No (USB2+H06089)
Correct for Detector Non-linearity: No (USB2+H06089)
Correct for Stray Light: No (USB2+H06089)
Number of Pixels in Processed Spectrum: 2048
>>>>>Begin Processed Spectral Data<<<<<
339.70	1033.35
340.07	1033.35
340.45	995.66
340.82	977.64
341.19	952.36
341.57	931.07
341.94	911.40
342.31	914.45
342.69	896.89
343.06	891.51
343.43	891.51
343.81	896.19
344.18	896.89
344.55	912.34
344.93	919.60
345.30	931.30
345.67	941.13
346.04	941.60
346.42	946.98
346.79	962.19
347.16	954.00
347.54	956.81
347.91	966.88
348.28	973.43
348.65	979.75
349.03	991.68
349.40	999.64
349.77	1008.30
350.14	1005.96
350.52	1005.26
350.89	1012.05
351.26	1023.75
351.63	1033.58
352.01	1052.30
352.38	1057.22
352.75	1064.71
353.12	1071.73
353.50	1069.86
353.87	1073.14
354.24	1077.35
354.61	1081.33
354.98	1077.82
355.36	1076.65
355.73	1068.22
356.10	1064.01
356.47	1063.31
356.84	1063.31
357.22	1065.41
357.59	1079.69
357.96	1081.33
358.33	1080.63
358.70	1078.75
359.08	1085.54
359.45	1079.69
359.82	1091.16
360.19	1084.84
360.56	1080.63
360.94	1070.09
361.31	1066.58
361.68	1060.50
362.05	1063.07
362.42	1069.86
362.79	1076.88
363.16	1077.35
363.54	1086.01
363.91	1088.58
364.28	1079.22
364.65	1080.86
365.02	1080.16
365.39	1074.77
365.76	1075.48
366.14	1084.84
366.51	1076.41
366.88	1073.84
367.25	1071.97
367.62	1069.86
367.99	1066.11
368.36	1070.33
368.73	1074.07
369.10	1065.18
369.48	1060.96
369.85	1072.20
370.22	1077.35
370.59	1080.39
370.96	1085.07
371.33	1075.71
371.70	1061.43
372.07	1057.45
372.44	1047.39
372.81	1044.82
373.18	1055.82
373.55	1052.54
373.93	1052.07
374.30	1064.94
374.67	1060.26
375.04	1062.14
375.41	1080.16
375.78	1089.29
376.15	1078.99
376.52	1073.84
376.89	1071.50
377.26	1070.09
377.63	1058.39
378.00	1057.45
378.37	1066.11
378.74	1064.48
379.11	1056.75
379.48	1062.14
379.85	1067.99
380.22	1075.71
380.59	1075.24
380.96	1074.77
381.33	1079.92
381.70	1080.39
382.07	1077.11
382.44	1074.77
382.81	1082.50
383.18	1079.22
383.55	1073.37
383.92	1068.92
384.29	1080.86
384.66	1076.18
385.03	1073.60
385.40	1073.60
385.77	1070.56
386.14	1067.99
386.51	1063.31
386.88	1059.79
387.25	1063.77
387.62	1072.90
387.99	1067.75
388.36	1073.37
388.73	1071.73
389.10	1076.88
389.46	1071.73
389.83	1070.09
390.20	1072.43
390.57	1076.65
390.94	1071.26
391.31	1074.07
391.68	1070.80
392.05	1062.37
392.42	1060.50
392.79	1056.28
393.16	1061.90
393.53	1063.77
393.89	1066.35
394.26	1074.07
394.63	1080.86
395.00	1079.22
395.37	1086.71
395.74	1082.73
396.11	1078.05
396.48	1083.67
396.84	1086.24
397.21	1084.14
397.58	1084.14
397.95	1088.12
398.32	1079.69
398.69	1075.24
399.06	1080.86
399.42	1093.97
399.79	1085.31
400.16	1090.69
400.53	1094.20
400.90	1082.03
401.27	1075.48
401.64	1078.05
402.00	1078.52
402.37	1078.52
402.74	1084.14
403.11	1076.18
403.48	1079.46
403.84	1086.01
404.21	1086.24
404.58	1085.54
404.95	1091.16
405.32	1087.88
405.68	1068.69
406.05	1064.01
406.42	1049.73
406.79	1045.28
407.16	1051.84
407.52	1065.41
407.89	1071.97
408.26	1088.58
408.63	1100.75
408.99	1100.52
409.36	1090.92
409.73	1076.65
410.10	1081.80
410.47	1073.84
410.83	1079.69
411.20	1081.09
411.57	1085.54
411.94	1088.12
412.30	1089.05
412.67	1067.99
413.04	1067.75
413.40	1068.92
413.77	1058.16
414.14	1061.43
414.51	1066.58
414.87	1072.43
415.24	1080.39
415.61	1084.14
415.97	1080.39
416.34	1081.33
416.71	1075.01
417.08	1071.50
417.44	1065.88
417.81	1064.48
418.18	1069.16
418.54	1070.56
418.91	1071.50
419.28	1068.45
419.64	1072.90
420.01	1075.71
420.38	1081.80
420.74	1075.24
421.11	1086.24
421.48	1080.86
421.84	1081.80
422.21	1081.09
422.58	1083.20
422.94	1081.56
423.31	1079.69
423.68	1075.01
424.04	1073.60
424.41	1080.63
424.77	1081.09
425.14	1082.97
425.51	1076.41
425.87	1067.52
426.24	1060.96
426.61	1067.99
426.97	1080.63
427.34	1083.20
427.70	1090.46
428.07	1096.31
428.44	1086.71
428.80	1078.75
429.17	1081.09
429.53	1073.37
429.90	1064.94
430.27	1062.37
430.63	1065.88
431.00	1063.07
431.36	1072.43
431.73	1073.84
432.09	1088.12
432.46	1080.16
432.83	1089.05
433.19	1082.73
433.56	1082.26
433.92	1076.41
434.29	1078.99
434.65	1076.88
435.02	1076.18
435.38	1082.50
435.75	1082.50
436.11	1086.71
436.48	1083.90
436.84	1094.90
437.21	1087.65
437.57	1084.84
437.94	1074.77
438.30	1075.24
438.67	1075.24
439.03	1079.46
439.40	1083.20
439.76	1076.88
440.13	1077.35
440.49	1078.28
440.86	1075.71
441.22	1066.58
441.59	1079.46
441.95	1076.65
442.32	1071.26
442.68	1079.22
443.05	1081.80
443.41	1078.28
443.78	1075.48
444.14	1067.99
444.51	1064.94
444.87	1073.37
445.24	1083.43
445.60	1093.26
445.96	1104.73
446.33	1101.46
446.69	1090.46
447.06	1082.73
447.42	1078.99
447.79	1086.24
448.15	1089.52
448.51	1095.60
448.88	1099.58
449.24	1091.86
449.61	1083.43
449.97	1066.35
450.33	1069.86
450.70	1068.45
451.06	1075.24
451.43	1069.62
451.79	1082.03
452.15	1074.54
452.52	1071.50
452.88	1076.65
453.24	1092.33
453.61	1101.69
453.97	1103.33
454.34	1105.20
454.70	1111.29
455.06	1100.52
455.43	1098.88
455.79	1099.82
456.15	1101.22
456.52	1103.33
456.88	1103.56
457.24	1094.67
457.61	1094.43
457.97	1102.16
458.33	1097.71
458.70	1100.29
459.06	1099.82
459.42	1098.88
459.79	1091.39
460.15	1079.92
460.51	1076.41
460.88	1088.82
461.24	1092.33
461.60	1090.92
461.96	1099.58
462.33	1096.31
462.69	1081.80
463.05	1076.18
463.42	1071.26
463.78	1068.92
464.14	1071.97
464.50	1081.56
464.87	1076.88
465.23	1078.52
465.59	1078.52
465.95	1075.48
466.32	1071.03
466.68	1078.52
467.04	1081.80
467.40	1071.50
467.77	1059.09
468.13	1052.77
468.49	1048.56
468.85	1040.13
469.22	1046.69
469.58	1061.67
469.94	1067.75
470.30	1066.82
470.66	1079.92
471.03	1078.52
471.39	1077.35
471.75	1070.09
472.11	1071.26
472.47	1074.54
472.84	1075.24
473.20	1061.90
473.56	1070.33
473.92	1075.01
474.28	1059.33
474.65	1055.11
475.01	1064.71
475.37	1061.90
475.73	1060.73
476.09	1064.01
476.45	1074.07
476.81	1076.65
477.18	1071.03
477.54	1065.41
477.90	1067.05
478.26	1062.37
478.62	1064.71
478.98	1071.26
479.34	1074.54
479.71	1072.90
480.07	1071.03
480.43	1067.52
480.79	1072.67
481.15	1072.90
481.51	1074.07
481.87	1062.37
482.23	1061.90
482.59	1051.37
482.96	1054.18
483.32	1063.54
483.68	1077.35
484.04	1079.46
484.40	1089.75
484.76	1089.75
485.12	1085.31
485.48	1085.31
485.84	1089.52
486.20	1093.97
486.56	1094.20
486.92	1085.54
487.28	1075.01
487.64	1067.28
488.00	1059.79
488.37	1058.16
488.73	1062.60
489.09	1064.48
489.45	1070.80
489.81	1073.37
490.17	1080.16
490.53	1089.29
490.89	1097.24
491.25	1102.16
491.61	1102.86
491.97	1098.65
492.33	1093.50
492.69	1096.54
493.05	1087.88
493.41	1086.24
493.77	1086.24
494.13	1090.69
494.49	1094.90
494.85	1107.31
495.21	1108.95
495.57	1108.24
495.93	1103.56
496.29	1102.86
496.64	1092.80
497.00	1096.07
497.36	1098.18
497.72	1096.31
498.08	1086.94
498.44	1081.33
498.80	1068.92
499.16	1061.43
499.52	1062.14
499.88	1066.58
500.24	1075.94
500.60	1089.29
500.96	1092.56
501.32	1095.84
501.68	1093.97
502.03	1085.31
502.39	1077.11
502.75	1073.60
503.11	1071.03
503.47	1074.54
503.83	1091.63
504.19	1099.58
504.55	1110.35
504.91	1106.84
505.26	1100.05
505.62	1092.09
505.98	1082.03
506.34	1078.52
506.70	1087.41
507.06	1095.37
507.42	1092.80
507.78	1092.80
508.13	1093.26
508.49	1088.58
508.85	1088.35
509.21	1096.78
509.57	1101.92
509.93	1100.52
510.28	1098.65
510.64	1097.24
511.00	1085.77
511.36	1086.24
511.72	1078.05
512.07	1081.56
512.43	1081.56
512.79	1080.63
513.15	1080.39
513.51	1097.95
513.86	1094.67
514.22	1098.18
514.58	1105.90
514.94	1106.37
515.30	1093.97
515.65	1102.16
516.01	1094.67
516.37	1095.14
516.73	1084.60
517.08	1091.39
517.44	1080.39
517.80	1081.33
518.16	1077.58
518.51	1085.07
518.87	1082.26
519.23	1083.43
519.59	1096.07
519.94	1093.50
520.30	1096.54
520.66	1098.18
521.01	1097.95
521.37	1082.73
521.73	1086.01
522.09	1086.24
522.44	1082.26
522.80	1088.58
523.16	1095.37
523.51	1098.18
523.87	1093.50
524.23	1103.80
524.58	1099.82
524.94	1090.69
525.30	1083.90
525.65	1089.29
526.01	1076.65
526.37	1077.58
526.72	1088.35
527.08	1094.90
527.44	1097.95
527.79	1103.56
528.15	1115.03
528.51	1106.37
528.86	1101.69
529.22	1097.24
529.58	1106.37
529.93	1098.41
530.29	1108.48
530.65	1106.84
531.00	1100.05
531.36	1084.84
531.71	1079.69
532.07	1071.26
532.43	1070.33
532.78	1085.31
533.14	1085.77
533.49	1091.86
533.85	1094.67
534.21	1096.07
534.56	1087.41
534.92	1094.43
535.27	1090.92
535.63	1095.84
535.98	1100.52
536.34	1097.71
536.69	1088.35
537.05	1089.75
537.41	1090.92
537.76	1101.22
538.12	1113.16
538.47	1121.12
538.83	1120.18
539.18	1122.29
539.54	1107.78
539.89	1092.09
540.25	1087.18
540.60	1085.77
540.96	1080.86
541.31	1087.18
541.67	1090.69
542.02	1099.12
542.38	1098.41
542.73	1093.26
543.09	1085.31
543.44	1092.33
543.80	1081.33
544.15	1081.09
544.51	1080.86
544.86	1085.77
545.22	1083.43
545.57	1088.58
545.93	1083.90
546.28	1091.39
546.64	1088.58
546.99	1086.48
547.35	1088.12
547.70	1104.26
548.05	1096.78
548.41	1096.78
548.76	1101.22
549.12	1106.14
549.47	1099.35
549.83	1104.26
550.18	1114.33
550.53	1102.16
550.89	1097.95
551.24	1099.82
551.60	1093.73
551.95	1077.58
552.30	1086.94
552.66	1092.80
553.01	1093.97
553.37	1100.99
553.72	1109.88
554.07	1115.97
554.43	1108.01
554.78	1102.63
555.13	1093.03
555.49	1087.41
555.84	1073.84
556.19	1076.18
556.55	1072.90
556.90	1075.24
557.26	1070.09
557.61	1079.46
557.96	1082.50
558.32	1082.03
558.67	1087.88
559.02	1095.14
559.37	1084.37
559.73	1082.97
560.08	1082.50
560.43	1080.63
560.79	1077.82
561.14	1086.71
561.49	1082.26
561.85	1090.92
562.20	1086.01
562.55	1085.77
562.90	1075.24
563.26	1071.97
563.61	1069.62
563.96	1068.92
564.32	1069.16
564.67	1071.26
565.02	1079.22
565.37	1079.69
565.73	1080.86
566.08	1083.20
566.43	1082.97
566.78	1075.48
567.14	1065.65
567.49	1060.96
567.84	1063.54
568.19	1063.54
568.54	1071.03
568.90	1079.92
569.25	1090.46
569.60	1082.03
569.95	1087.65
570.31	1089.29
570.66	1094.20
571.01	1091.39
571.36	1106.84
571.71	1100.52
572.06	1088.12
572.42	1079.92
572.77	1078.05
573.12	1069.86
573.47	1080.39
573.82	1085.07
574.18	1078.52
574.53	1074.77
574.88	1077.58
575.23	1071.50
575.58	1070.09
575.93	1073.60
576.28	1074.31
576.64	1078.28
576.99	1078.28
577.34	1082.73
577.69	1078.05
578.04	1096.07
578.39	1093.50
578.74	1100.05
579.09	1105.44
579.44	1108.48
579.80	1096.54
580.15	1087.88
580.50	1093.03
580.85	1083.43
581.20	1082.26
581.55	1072.43
581.90	1073.37
582.25	1070.33
582.60	1075.48
582.95	1087.65
583.30	1092.56
583.65	1097.01
584.00	1090.69
584.35	1088.12
584.71	1080.16
585.06	1090.46
585.41	1086.71
585.76	1086.48
586.11	1086.48
586.46	1086.48
586.81	1082.73
587.16	1082.73
587.51	1071.03
587.86	1069.86
588.21	1079.92
588.56	1075.24
588.91	1084.14
589.26	1105.20
589.61	1111.52
589.96	1108.48
590.31	1109.88
590.66	1101.22
591.01	1106.37
591.36	1094.90
591.71	1084.60
592.06	1080.86
592.41	1081.80
592.76	1068.22
593.10	1082.97
593.45	1082.50
593.80	1086.71
594.15	1093.50
594.50	1093.26
594.85	1084.60
595.20	1088.12
595.55	1086.71
595.90	1076.41
596.25	1072.43
596.60	1065.18
596.95	1068.69
597.30	1067.28
597.64	1125.80
597.99	1137.73
598.34	1148.03
598.69	1146.86
599.04	1150.37
599.39	1094.20
599.74	1089.52
600.09	1089.29
600.44	1091.39
600.78	1086.24
601.13	1091.86
601.48	1088.12
601.83	1090.92
602.18	1086.94
602.53	1092.56
602.88	1091.63
603.22	1086.01
603.57	1076.18
603.92	1078.05
604.27	1074.07
604.62	1076.65
604.97	1076.88
605.31	1078.52
605.66	1075.24
606.01	1066.82
606.36	1059.09
606.71	1063.77
607.05	1060.26
607.40	1060.26
607.75	1066.58
608.10	1066.58
608.44	1068.69
608.79	1078.99
609.14	1087.65
609.49	1093.03
609.84	1107.31
610.18	1101.92
610.53	1095.14
610.88	1089.05
611.23	1089.99
611.57	1079.92
611.92	1086.94
612.27	1085.54
612.62	1098.65
612.96	1101.92
613.31	1103.09
613.66	1114.56
614.00	1118.31
614.35	1104.26
614.70	1093.73
615.05	1091.39
615.39	1079.46
615.74	1078.75
616.09	1081.09
616.43	1078.75
616.78	1076.18
617.13	1065.88
617.47	1063.54
617.82	1057.92
618.17	1070.56
618.51	1068.69
618.86	1070.56
619.21	1071.73
619.55	1082.73
619.90	1083.43
620.25	1088.12
620.59	1091.63
620.94	1089.99
621.29	1084.60
621.63	1075.48
621.98	1078.75
622.32	1075.94
622.67	1079.69
623.02	1083.20
623.36	1084.14
623.71	1078.75
624.05	1073.84
624.40	1075.48
624.75	1061.67
625.09	1062.14
625.44	1056.52
625.78	1067.75
626.13	1064.24
626.48	1075.71
626.82	1081.09
627.17	1087.88
627.51	1086.71
627.86	1088.82
628.20	1085.77
628.55	1082.50
628.89	1078.99
629.24	1075.01
629.58	1078.05
629.93	1080.86
630.28	1090.92
630.62	1093.97
630.97	1088.12
631.31	1089.29
631.66	1089.75
632.00	1071.03
632.35	1069.16
632.69	1075.71
633.04	1071.50
633.38	1072.67
633.73	1081.56
634.07	1088.35
634.42	1089.75
634.76	1091.86
635.11	1085.77
635.45	1094.43
635.79	1097.01
636.14	1098.18
636.48	1090.92
636.83	1088.12
637.17	1079.22
637.52	1070.33
637.86	1073.84
638.21	1071.50
638.55	1078.75
638.89	1083.90
639.24	1085.31
639.58	1079.69
639.93	1082.73
640.27	1083.20
640.61	1075.48
640.96	1073.37
641.30	1077.58
641.65	1088.58
641.99	1083.67
642.33	1088.58
642.68	1097.71
643.02	1099.35
643.37	1088.58
643.71	1082.73
644.05	1083.67
644.40	1082.73
644.74	1080.16
645.08	1083.67
645.43	1093.03
645.77	1097.95
646.11	1097.24
646.46	1088.58
646.80	1093.03
647.14	1090.92
647.49	1074.31
647.83	1068.22
648.17	1077.58
648.52	1074.07
648.86	1075.48
649.20	1086.71
649.55	1086.48
649.89	1077.35
650.23	1072.20
650.57	1061.20
650.92	1054.88
651.26	1057.69
651.60	1068.22
651.95	1072.90
652.29	1088.35
652.63	1087.41
652.97	1083.43
653.32	1076.41
653.66	1075.48
654.00	1066.35
654.34	1071.26
654.69	1070.09
655.03	1072.67
655.37	1073.84
655.71	1082.50
656.05	1079.69
656.40	1089.75
656.74	1095.37
657.08	1091.39
657.42	1085.54
657.76	1087.41
658.11	1084.84
658.45	1083.67
658.79	1085.07
659.13	1086.48
659.47	1086.71
659.82	1087.41
660.16	1084.60
660.50	1080.16
660.84	1082.03
661.18	1073.37
661.52	1068.22
661.87	1071.50
662.21	1083.90
662.55	1082.73
662.89	1086.71
663.23	1087.41
663.57	1093.97
663.91	1090.92
664.25	1072.43
664.60	1069.86
664.94	1051.37
665.28	1040.13
665.62	1040.60
665.96	1050.90
666.30	1064.48
666.64	1092.33
666.98	1086.24
667.32	1081.80
667.66	1090.46
668.01	1086.48
668.35	1072.90
668.69	1079.22
669.03	1081.33
669.37	1081.80
669.71	1084.84
670.05	1080.63
670.39	1084.60
670.73	1085.77
671.07	1074.77
671.41	1074.31
671.75	1079.46
672.09	1076.88
672.43	1072.43
672.77	1079.46
673.11	1071.73
673.45	1064.71
673.79	1069.16
674.13	1067.05
674.47	1067.75
674.81	1064.71
675.15	1078.52
675.49	1077.35
675.83	1077.35
676.17	1077.82
676.51	1086.71
676.85	1085.07
677.19	1087.41
677.53	1091.63
677.87	1094.90
678.21	1091.63
678.55	1090.69
678.89	1086.71
679.23	1092.56
679.57	1086.71
679.90	1094.90
680.24	1090.22
680.58	1079.92
680.92	1075.24
681.26	1078.28
681.60	1061.67
681.94	1072.43
682.28	1079.69
682.62	1087.18
682.96	1091.63
683.29	1102.63
683.63	1093.97
683.97	1096.07
684.31	1087.41
684.65	1072.20
684.99	1069.86
685.33	1068.45
685.67	1071.03
686.00	1075.24
686.34	1084.60
686.68	1086.48
687.02	1095.37
687.36	1098.41
687.70	1085.77
688.03	1084.84
688.37	1089.29
688.71	1082.73
689.05	1075.01
689.39	1087.41
689.72	1093.26
690.06	1093.50
690.40	1092.09
690.74	1096.54
691.08	1089.75
691.41	1092.33
691.75	1083.90
692.09	1082.97
692.43	1087.65
692.76	1089.05
693.10	1082.97
693.44	1086.71
693.78	1091.39
694.11	1081.56
694.45	1084.84
694.79	1091.39
695.13	1094.43
695.46	1081.80
695.80	1084.84
696.14	1084.37
696.48	1089.52
696.81	1086.94
697.15	1100.29
697.49	1106.61
697.82	1107.78
698.16	1093.97
698.50	1093.50
698.83	1080.86
699.17	1076.18
699.51	1075.48
699.84	1080.39
700.18	1079.46
700.52	1090.22
700.85	1093.26
701.19	1084.84
701.53	1082.97
701.86	1092.09
702.20	1087.65
702.54	1091.16
702.87	1097.01
703.21	1095.60
703.55	1079.69
703.88	1081.80
704.22	1075.71
704.55	1078.99
704.89	1089.29
705.23	1098.18
705.56	1095.60
705.90	1093.03
706.23	1091.16
706.57	1085.07
706.91	1078.52
707.24	1081.80
707.58	1079.22
707.91	1083.67
708.25	1079.69
708.58	1081.33
708.92	1082.97
709.26	1089.52
709.59	1082.73
709.93	1078.75
710.26	1080.63
710.60	1074.77
710.93	1068.92
711.27	1068.45
711.60	1064.71
711.94	1073.14
712.27	1076.18
712.61	1076.65
712.94	1075.94
713.28	1094.90
713.61	1090.69
713.95	1097.95
714.28	1100.05
714.62	1102.39
714.95	1088.82
715.29	1085.31
715.62	1075.71
715.96	1072.67
716.29	1070.56
716.63	1075.48
716.96	1075.24
717.29	1085.54
717.63	1086.24
717.96	1087.88
718.30	1087.65
718.63	1081.56
718.97	1074.77
719.30	1081.33
719.63	1082.26
719.97	1084.60
720.30	1092.33
720.64	1088.82
720.97	1075.01
721.30	1075.01
721.64	1079.22
721.97	1072.43
722.31	1068.69
722.64	1069.16
722.97	1075.24
723.31	1075.71
723.64	1082.97
723.97	1083.90
724.31	1093.50
724.64	1079.46
724.98	1065.18
725.31	1059.79
725.64	1061.20
725.98	1060.96
726.31	1062.37
726.64	1066.58
726.97	1072.20
727.31	1078.05
727.64	1079.69
727.97	1080.16
728.31	1081.80
728.64	1077.35
728.97	1070.09
729.31	1065.88
729.64	1073.60
729.97	1076.41
730.30	1075.71
730.64	1082.26
730.97	1078.52
731.30	1077.11
731.63	1070.09
731.97	1069.39
732.30	1073.60
732.63	1080.16
732.96	1087.41
733.30	1094.90
733.63	1092.56
733.96	1091.63
734.29	1089.05
734.63	1082.26
734.96	1079.46
735.29	1078.99
735.62	1074.54
735.95	1080.16
736.29	1080.86
736.62	1073.84
736.95	1075.48
737.28	1066.11
737.61	1061.90
737.94	1062.84
738.28	1072.20
738.61	1077.35
738.94	1100.05
739.27	1094.20
739.60	1087.65
739.93	1080.39
740.27	1077.11
740.60	1066.82
740.93	1080.39
741.26	1082.26
741.59	1089.05
741.92	1093.26
742.25	1089.75
742.58	1097.95
742.91	1102.63
743.25	1093.97
743.58	1088.82
743.91	1089.99
744.24	1069.62
744.57	1054.88
744.90	1055.58
745.23	1053.01
745.56	1051.84
745.89	1056.05
746.22	1064.24
746.55	1061.20
746.88	1073.84
747.21	1066.35
747.54	1067.75
747.87	1063.54
748.20	1068.45
748.53	1066.35
748.87	1078.05
749.20	1077.11
749.53	1093.50
749.86	1092.80
750.19	1090.92
750.52	1090.46
750.85	1095.37
751.18	1085.54
751.51	1084.37
751.84	1081.09
752.16	1079.92
752.49	1077.82
752.82	1081.09
753.15	1088.12
753.48	1100.29
753.81	1110.12
754.14	1111.99
754.47	1110.58
754.80	1109.41
755.13	1095.60
755.46	1082.97
755.79	1082.26
756.12	1084.37
756.45	1078.28
756.78	1080.86
757.11	1090.22
757.43	1082.73
757.76	1084.37
758.09	1092.33
758.42	1093.03
758.75	1081.09
759.08	1089.99
759.41	1082.73
759.74	1085.07
760.07	1077.11
760.39	1074.07
760.72	1073.14
761.05	1073.60
761.38	1072.43
761.71	1081.80
762.04	1086.48
762.36	1076.88
762.69	1080.63
763.02	1071.73
763.35	1066.11
763.68	1065.18
764.01	1079.46
764.33	1079.92
764.66	1084.14
764.99	1091.16
765.32	1088.58
765.65	1082.26
765.97	1081.80
766.30	1076.65
