SpectraSuite Data File
++++++++++++++++++++++++++++++++++++
Date: Mon Aug 26 10:25:59 PDT 2019
User: corrico
Dark Spectrum Present: No
Reference Spectrum Present: No
Number of Sampled Component Spectra: 1
Spectrometers: USB2+H06089
Integration Time (usec): 10000 (USB2+H06089)
Spectra Averaged: 2 (USB2+H06089)
Boxcar Smoothing: 2 (USB2+H06089)
Correct for Electrical Dark: No (USB2+H06089)
Strobe/Lamp Enabled: No (USB2+H06089)
Correct for Detector Non-linearity: No (USB2+H06089)
Correct for Stray Light: No (USB2+H06089)
Number of Pixels in Processed Spectrum: 2048
>>>>>Begin Processed Spectral Data<<<<<
339.70	1060.26
340.07	1060.26
340.45	1015.09
340.82	987.47
341.19	958.92
341.57	917.96
341.94	913.04
342.31	899.94
342.69	891.98
343.06	888.47
343.43	890.11
343.81	884.72
344.18	889.87
344.55	902.28
344.93	911.17
345.30	925.45
345.67	950.49
346.04	952.36
346.42	957.05
346.79	956.81
347.16	974.37
347.54	969.92
347.91	977.88
348.28	986.54
348.65	995.20
349.03	990.05
349.40	1001.98
349.77	1007.83
350.14	1020.01
350.52	1022.35
350.89	1024.69
351.26	1037.79
351.63	1040.84
352.01	1029.84
352.38	1046.69
352.75	1066.35
353.12	1058.62
353.50	1063.54
353.87	1080.63
354.24	1084.37
354.61	1082.50
354.98	1082.03
355.36	1086.48
355.73	1073.84
356.10	1072.43
356.47	1074.54
356.84	1080.86
357.22	1075.94
357.59	1084.37
357.96	1082.73
358.33	1071.26
358.70	1061.67
359.08	1073.60
359.45	1073.84
359.82	1067.05
360.19	1072.43
360.56	1078.52
360.94	1069.86
361.31	1071.26
361.68	1079.69
362.05	1079.46
362.42	1081.56
362.79	1082.26
363.16	1088.58
363.54	1088.12
363.91	1088.35
364.28	1089.75
364.65	1093.50
365.02	1086.48
365.39	1081.09
365.76	1073.14
366.14	1061.90
366.51	1055.11
366.88	1051.13
367.25	1059.33
367.62	1072.67
367.99	1082.26
368.36	1087.41
368.73	1097.48
369.10	1100.52
369.48	1104.97
369.85	1089.99
370.22	1088.82
370.59	1084.14
370.96	1072.90
371.33	1062.84
371.70	1072.90
372.07	1069.86
372.44	1062.84
372.81	1058.86
373.18	1047.62
373.55	1046.69
373.93	1043.88
374.30	1052.77
374.67	1052.30
375.04	1062.84
375.41	1070.33
375.78	1077.82
376.15	1072.20
376.52	1077.82
376.89	1079.46
377.26	1074.77
377.63	1075.48
378.00	1077.11
378.37	1077.35
378.74	1083.20
379.11	1078.28
379.48	1070.80
379.85	1063.54
380.22	1068.92
380.59	1069.86
380.96	1069.86
381.33	1075.01
381.70	1078.52
382.07	1078.99
382.44	1069.16
382.81	1072.20
383.18	1081.09
383.55	1087.65
383.92	1086.71
384.29	1087.88
384.66	1097.48
385.03	1086.24
385.40	1076.41
385.77	1067.05
386.14	1069.39
386.51	1064.01
386.88	1061.90
387.25	1071.03
387.62	1074.31
387.99	1067.99
388.36	1073.14
388.73	1086.24
389.10	1080.16
389.46	1082.73
389.83	1077.58
390.20	1066.82
390.57	1062.14
390.94	1068.69
391.31	1071.73
391.68	1078.05
392.05	1082.97
392.42	1075.94
392.79	1072.67
393.16	1061.90
393.53	1062.37
393.89	1060.73
394.26	1061.90
394.63	1056.52
395.00	1063.31
395.37	1068.69
395.74	1068.92
396.11	1067.75
396.48	1077.35
396.84	1076.41
397.21	1069.86
397.58	1078.99
397.95	1086.48
398.32	1086.48
398.69	1082.26
399.06	1089.05
399.42	1076.41
399.79	1068.22
400.16	1064.01
400.53	1063.31
400.90	1058.86
401.27	1062.84
401.64	1053.24
402.00	1052.30
402.37	1053.48
402.74	1047.39
403.11	1050.43
403.48	1067.75
403.84	1074.07
404.21	1069.16
404.58	1069.86
404.95	1072.20
405.32	1076.65
405.68	1068.22
406.05	1064.71
406.42	1065.41
406.79	1063.07
407.16	1053.24
407.52	1056.99
407.89	1068.69
408.26	1067.75
408.63	1070.33
408.99	1076.88
409.36	1071.03
409.73	1074.54
410.10	1077.58
410.47	1072.90
410.83	1073.84
411.20	1080.86
411.57	1075.24
411.94	1074.77
412.30	1068.22
412.67	1059.09
413.04	1048.56
413.40	1051.13
413.77	1054.65
414.14	1067.28
414.51	1065.41
414.87	1073.60
415.24	1073.60
415.61	1081.09
415.97	1073.84
416.34	1081.56
416.71	1089.52
417.08	1094.20
417.44	1083.43
417.81	1083.43
418.18	1072.90
418.54	1061.20
418.91	1062.84
419.28	1074.07
419.64	1070.56
420.01	1071.73
420.38	1078.52
420.74	1077.35
421.11	1077.35
421.48	1077.58
421.84	1085.31
422.21	1079.22
422.58	1074.31
422.94	1070.56
423.31	1073.14
423.68	1075.71
424.04	1080.16
424.41	1075.71
424.77	1067.28
425.14	1073.14
425.51	1076.88
425.87	1081.09
426.24	1081.33
426.61	1082.50
426.97	1082.03
427.34	1076.41
427.70	1075.94
428.07	1084.37
428.44	1091.16
428.80	1092.80
429.17	1109.88
429.53	1105.67
429.90	1104.97
430.27	1111.99
430.63	1111.05
431.00	1089.75
431.36	1080.39
431.73	1082.73
432.09	1075.48
432.46	1078.05
432.83	1079.92
433.19	1088.35
433.56	1087.41
433.92	1079.69
434.29	1075.01
434.65	1072.67
435.02	1074.77
435.38	1072.67
435.75	1078.75
436.11	1073.84
436.48	1080.63
436.84	1079.69
437.21	1079.92
437.57	1083.20
437.94	1076.65
438.30	1064.71
438.67	1060.50
439.03	1064.24
439.40	1060.26
439.76	1072.90
440.13	1086.24
440.49	1082.97
440.86	1063.54
441.22	1055.35
441.59	1055.11
441.95	1046.92
442.32	1044.82
442.68	1067.28
443.05	1076.41
443.41	1071.73
443.78	1072.20
444.14	1081.80
444.51	1070.56
444.87	1071.97
445.24	1073.14
445.60	1080.63
445.96	1078.52
446.33	1073.84
446.69	1068.69
447.06	1060.73
447.42	1050.43
447.79	1050.67
448.15	1060.26
448.51	1055.35
448.88	1058.39
449.24	1070.56
449.61	1076.88
449.97	1073.84
450.33	1077.11
450.70	1086.48
451.06	1081.09
451.43	1075.24
451.79	1075.24
452.15	1082.73
452.52	1084.84
452.88	1087.88
453.24	1087.18
453.61	1081.33
453.97	1086.01
454.34	1078.75
454.70	1071.50
455.06	1075.94
455.43	1081.56
455.79	1071.26
456.15	1067.28
456.52	1075.94
456.88	1073.14
457.24	1071.26
457.61	1082.50
457.97	1093.26
458.33	1090.92
458.70	1091.39
459.06	1096.07
459.42	1087.18
459.79	1087.65
460.15	1096.07
460.51	1095.60
460.88	1099.58
461.24	1099.58
461.60	1092.09
461.96	1091.86
462.33	1093.97
462.69	1090.22
463.05	1089.75
463.42	1087.41
463.78	1080.63
464.14	1089.29
464.50	1087.65
464.87	1090.22
465.23	1090.92
465.59	1087.41
465.95	1086.01
466.32	1090.22
466.68	1092.80
467.04	1084.37
467.40	1081.33
467.77	1071.03
468.13	1059.56
468.49	1047.86
468.85	1065.18
469.22	1071.03
469.58	1069.16
469.94	1078.28
470.30	1091.39
470.66	1088.35
471.03	1079.92
471.39	1079.22
471.75	1080.16
472.11	1076.18
472.47	1073.84
472.84	1071.03
473.20	1070.09
473.56	1071.03
473.92	1077.35
474.28	1071.26
474.65	1082.50
475.01	1080.63
475.37	1070.33
475.73	1062.37
476.09	1073.37
476.45	1070.09
476.81	1078.52
477.18	1090.69
477.54	1092.56
477.90	1086.71
478.26	1088.35
478.62	1076.41
478.98	1067.75
479.34	1067.75
479.71	1067.05
480.07	1064.94
480.43	1075.94
480.79	1079.69
481.15	1078.99
481.51	1086.48
481.87	1086.24
482.23	1091.16
482.59	1084.14
482.96	1079.92
483.32	1074.54
483.68	1071.50
484.04	1066.11
484.40	1062.60
484.76	1064.94
485.12	1069.16
485.48	1071.26
485.84	1072.90
486.20	1084.60
486.56	1081.09
486.92	1073.14
487.28	1071.26
487.64	1061.43
488.00	1061.90
488.37	1069.62
488.73	1077.82
489.09	1083.43
489.45	1091.63
489.81	1094.90
490.17	1102.63
490.53	1095.37
490.89	1095.60
491.25	1104.03
491.61	1100.29
491.97	1092.80
492.33	1095.37
492.69	1086.48
493.05	1079.69
493.41	1071.50
493.77	1067.99
494.13	1068.92
494.49	1076.41
494.85	1076.41
495.21	1083.90
495.57	1089.29
495.93	1091.86
496.29	1084.84
496.64	1083.90
497.00	1086.71
497.36	1087.88
497.72	1079.92
498.08	1084.84
498.44	1089.05
498.80	1083.43
499.16	1079.22
499.52	1076.41
499.88	1078.52
500.24	1068.45
500.60	1073.60
500.96	1071.03
501.32	1074.54
501.68	1076.65
502.03	1083.67
502.39	1080.86
502.75	1089.52
503.11	1093.50
503.47	1088.82
503.83	1090.22
504.19	1092.80
504.55	1083.90
504.91	1086.01
505.26	1087.88
505.62	1087.18
505.98	1075.48
506.34	1077.11
506.70	1074.07
507.06	1071.26
507.42	1069.16
507.78	1078.75
508.13	1069.16
508.49	1071.97
508.85	1079.46
509.21	1086.48
509.57	1089.75
509.93	1096.78
510.28	1095.14
510.64	1088.12
511.00	1083.20
511.36	1077.58
511.72	1082.26
512.07	1082.50
512.43	1091.63
512.79	1089.52
513.15	1092.33
513.51	1091.39
513.86	1096.31
514.22	1090.22
514.58	1088.35
514.94	1086.01
515.30	1082.97
515.65	1079.92
516.01	1093.73
516.37	1096.54
516.73	1087.65
517.08	1084.37
517.44	1082.73
517.80	1068.22
518.16	1071.97
518.51	1082.26
518.87	1086.48
519.23	1086.71
519.59	1092.09
519.94	1086.71
520.30	1081.33
520.66	1081.33
521.01	1076.18
521.37	1075.01
521.73	1073.37
522.09	1079.22
522.44	1089.05
522.80	1093.03
523.16	1087.41
523.51	1093.50
523.87	1093.03
524.23	1085.31
524.58	1090.22
524.94	1088.58
525.30	1086.48
525.65	1078.75
526.01	1081.80
526.37	1078.99
526.72	1089.75
527.08	1090.69
527.44	1094.67
527.79	1083.43
528.15	1085.77
528.51	1084.14
528.86	1086.94
529.22	1090.92
529.58	1099.82
529.93	1097.01
530.29	1088.12
530.65	1097.01
531.00	1103.33
531.36	1102.39
531.71	1105.20
532.07	1116.20
532.43	1106.14
532.78	1110.35
533.14	1116.44
533.49	1113.86
533.85	1107.07
534.21	1100.99
534.56	1096.31
534.92	1086.24
535.27	1092.56
535.63	1100.52
535.98	1105.20
536.34	1103.33
536.69	1106.37
537.05	1099.35
537.41	1095.60
537.76	1082.26
538.12	1072.90
538.47	1067.52
538.83	1067.05
539.18	1059.09
539.54	1069.16
539.89	1084.60
540.25	1096.31
540.60	1097.71
540.96	1103.09
541.31	1098.65
541.67	1092.33
542.02	1082.73
542.38	1086.48
542.73	1082.73
543.09	1079.92
543.44	1076.41
543.80	1085.07
544.15	1079.22
544.51	1075.71
544.86	1086.71
545.22	1084.37
545.57	1080.63
545.93	1084.60
546.28	1089.99
546.64	1086.48
546.99	1089.05
547.35	1084.37
547.70	1081.56
548.05	1084.37
548.41	1091.86
548.76	1088.12
549.12	1099.35
549.47	1082.73
549.83	1075.01
550.18	1069.62
550.53	1066.11
550.89	1052.07
551.24	1062.14
551.60	1074.07
551.95	1071.03
552.30	1082.03
552.66	1089.29
553.01	1101.46
553.37	1099.58
553.72	1100.99
554.07	1103.80
554.43	1105.90
554.78	1101.46
555.13	1095.60
555.49	1092.80
555.84	1087.41
556.19	1087.41
556.55	1084.84
556.90	1086.24
557.26	1085.07
557.61	1086.48
557.96	1081.33
558.32	1084.14
558.67	1086.94
559.02	1093.03
559.37	1086.71
559.73	1079.46
560.08	1070.09
560.43	1072.90
560.79	1069.39
561.14	1072.20
561.49	1075.24
561.85	1077.11
562.20	1073.14
562.55	1069.62
562.90	1075.94
563.26	1079.92
563.61	1081.09
563.96	1074.77
564.32	1073.60
564.67	1073.84
565.02	1065.41
565.37	1074.77
565.73	1075.01
566.08	1078.05
566.43	1069.39
566.78	1075.01
567.14	1066.58
567.49	1076.18
567.84	1083.20
568.19	1084.84
568.54	1074.31
568.90	1081.56
569.25	1072.20
569.60	1077.58
569.95	1083.90
570.31	1099.35
570.66	1097.71
571.01	1099.82
571.36	1092.33
571.71	1091.39
572.06	1088.82
572.42	1082.97
572.77	1080.86
573.12	1077.82
573.47	1080.63
573.82	1079.46
574.18	1087.41
574.53	1088.35
574.88	1090.22
575.23	1083.90
575.58	1091.16
575.93	1086.94
576.28	1088.82
576.64	1085.07
576.99	1084.60
577.34	1083.20
577.69	1078.28
578.04	1081.56
578.39	1089.75
578.74	1084.84
579.09	1075.01
579.44	1081.80
579.80	1081.09
580.15	1079.22
580.50	1086.71
580.85	1095.84
581.20	1094.90
581.55	1099.12
581.90	1101.22
582.25	1100.05
582.60	1095.60
582.95	1096.07
583.30	1080.86
583.65	1078.52
584.00	1071.73
584.35	1083.20
584.71	1075.71
585.06	1083.90
585.41	1065.65
585.76	1069.16
586.11	1061.67
586.46	1071.26
586.81	1073.84
587.16	1096.78
587.51	1104.97
587.86	1101.46
588.21	1099.58
588.56	1100.29
588.91	1088.35
589.26	1085.31
589.61	1087.41
589.96	1087.88
590.31	1085.77
590.66	1095.14
591.01	1093.26
591.36	1090.46
591.71	1089.52
592.06	1083.67
592.41	1081.56
592.76	1075.48
593.10	1078.05
593.45	1076.65
593.80	1085.54
594.15	1081.56
594.50	1094.20
594.85	1095.60
595.20	1093.26
595.55	1094.43
595.90	1097.01
596.25	1091.63
596.60	1100.52
596.95	1116.20
597.30	1106.84
597.64	1150.84
597.99	1146.39
598.34	1138.90
598.69	1131.88
599.04	1147.80
599.39	1099.58
599.74	1103.33
600.09	1096.78
600.44	1089.52
600.78	1076.18
601.13	1074.54
601.48	1067.05
601.83	1071.97
602.18	1072.67
602.53	1074.77
602.88	1075.94
603.22	1076.88
603.57	1079.92
603.92	1084.60
604.27	1080.16
604.62	1088.58
604.97	1090.69
605.31	1086.01
605.66	1086.71
606.01	1087.65
606.36	1075.94
606.71	1081.80
607.05	1089.05
607.40	1087.18
607.75	1090.22
608.10	1085.77
608.44	1081.33
608.79	1072.20
609.14	1074.31
609.49	1073.14
609.84	1077.82
610.18	1080.86
610.53	1079.46
610.88	1075.24
611.23	1086.71
611.57	1092.80
611.92	1079.92
612.27	1085.31
612.62	1075.71
612.96	1064.01
613.31	1064.48
613.66	1066.82
614.00	1062.60
614.35	1064.71
614.70	1072.67
615.05	1079.69
615.39	1090.69
615.74	1093.03
616.09	1104.50
616.43	1105.90
616.78	1100.99
617.13	1097.24
617.47	1088.82
617.82	1082.50
618.17	1077.82
618.51	1075.48
618.86	1078.75
619.21	1083.67
619.55	1080.16
619.90	1080.39
620.25	1075.94
620.59	1075.94
620.94	1076.41
621.29	1080.39
621.63	1080.16
621.98	1080.16
622.32	1072.67
622.67	1070.09
623.02	1072.43
623.36	1061.90
623.71	1065.88
624.05	1073.14
624.40	1086.94
624.75	1084.84
625.09	1099.58
625.44	1112.92
625.78	1110.35
626.13	1101.69
626.48	1103.09
626.82	1092.80
627.17	1085.07
627.51	1086.71
627.86	1087.88
628.20	1083.67
628.55	1089.52
628.89	1079.46
629.24	1074.54
629.58	1076.41
629.93	1079.22
630.28	1076.88
630.62	1084.60
630.97	1086.24
631.31	1081.80
631.66	1091.63
632.00	1092.56
632.35	1086.48
632.69	1090.92
633.04	1091.39
633.38	1076.18
633.73	1071.50
634.07	1071.73
634.42	1075.24
634.76	1078.75
635.11	1085.77
635.45	1090.92
635.79	1087.18
636.14	1092.09
636.48	1089.99
636.83	1089.29
637.17	1092.09
637.52	1091.63
637.86	1075.71
638.21	1075.94
638.55	1079.46
638.89	1082.97
639.24	1090.46
639.58	1086.48
639.93	1082.26
640.27	1083.67
640.61	1067.28
640.96	1065.88
641.30	1067.99
641.65	1068.45
641.99	1063.07
642.33	1068.22
642.68	1065.41
643.02	1075.94
643.37	1079.46
643.71	1081.56
644.05	1083.67
644.40	1087.18
644.74	1080.63
645.08	1079.69
645.43	1074.54
645.77	1080.16
646.11	1076.88
646.46	1080.63
646.80	1074.54
647.14	1072.90
647.49	1068.45
647.83	1066.82
648.17	1065.88
648.52	1071.97
648.86	1075.01
649.20	1081.09
649.55	1078.99
649.89	1078.28
650.23	1082.03
650.57	1084.37
650.92	1077.58
651.26	1078.28
651.60	1078.05
651.95	1070.56
652.29	1062.60
652.63	1064.24
652.97	1066.11
653.32	1063.77
653.66	1077.11
654.00	1082.03
654.34	1081.09
654.69	1086.71
655.03	1086.94
655.37	1079.46
655.71	1085.07
656.05	1078.28
656.40	1069.16
656.74	1076.18
657.08	1066.82
657.42	1056.75
657.76	1058.39
658.11	1059.09
658.45	1058.62
658.79	1064.94
659.13	1071.50
659.47	1075.48
659.82	1080.39
660.16	1080.86
660.50	1083.67
660.84	1085.31
661.18	1091.39
661.52	1099.82
661.87	1095.84
662.21	1097.48
662.55	1096.78
662.89	1092.80
663.23	1091.63
663.57	1092.56
663.91	1090.69
664.25	1081.33
664.60	1073.14
664.94	1069.39
665.28	1067.75
665.62	1063.54
665.96	1083.20
666.30	1092.09
666.64	1082.26
666.98	1082.50
667.32	1082.73
667.66	1068.45
668.01	1067.75
668.35	1082.73
668.69	1081.80
669.03	1087.65
669.37	1088.58
669.71	1083.90
670.05	1083.43
670.39	1091.16
670.73	1090.46
671.07	1089.29
671.41	1093.26
671.75	1085.31
672.09	1078.52
672.43	1072.20
672.77	1071.03
673.11	1079.22
673.45	1084.14
673.79	1084.60
674.13	1095.14
674.47	1097.01
674.81	1094.67
675.15	1082.26
675.49	1082.50
675.83	1070.09
676.17	1070.80
676.51	1066.58
676.85	1075.94
677.19	1078.52
677.53	1082.03
677.87	1085.07
678.21	1083.67
678.55	1086.48
678.89	1077.11
679.23	1080.16
679.57	1073.60
679.90	1064.71
680.24	1052.07
680.58	1058.16
680.92	1057.69
681.26	1061.90
681.60	1066.35
681.94	1071.97
682.28	1074.31
682.62	1063.07
682.96	1070.80
683.29	1074.54
683.63	1071.73
683.97	1069.62
684.31	1081.80
684.65	1075.94
684.99	1074.77
685.33	1084.14
685.67	1078.75
686.00	1073.84
686.34	1078.75
686.68	1077.35
687.02	1071.50
687.36	1083.20
687.70	1088.35
688.03	1080.39
688.37	1080.63
688.71	1080.39
689.05	1071.03
689.39	1072.43
689.72	1076.88
690.06	1071.97
690.40	1074.07
690.74	1084.84
691.08	1082.26
691.41	1086.01
691.75	1094.67
692.09	1090.46
692.43	1092.09
692.76	1093.73
693.10	1085.31
693.44	1090.69
693.78	1102.63
694.11	1098.88
694.45	1096.31
694.79	1097.48
695.13	1085.31
695.46	1081.09
695.80	1074.77
696.14	1072.20
696.48	1082.73
696.81	1082.03
697.15	1076.41
697.49	1081.09
697.82	1083.43
698.16	1074.07
698.50	1088.35
698.83	1082.97
699.17	1077.58
699.51	1078.28
699.84	1075.71
700.18	1065.41
700.52	1072.90
700.85	1069.16
701.19	1072.20
701.53	1068.92
701.86	1068.69
702.20	1074.07
702.54	1071.50
702.87	1059.09
703.21	1064.48
703.55	1067.28
703.88	1065.41
704.22	1070.09
704.55	1076.18
704.89	1076.41
705.23	1069.86
705.56	1059.09
705.90	1060.73
706.23	1070.09
706.57	1070.09
706.91	1073.14
707.24	1077.82
707.58	1082.26
707.91	1078.99
708.25	1081.09
708.58	1085.77
708.92	1084.84
709.26	1083.67
709.59	1075.24
709.93	1079.92
710.26	1078.52
710.60	1083.20
710.93	1081.33
711.27	1089.29
711.60	1089.05
711.94	1089.99
712.27	1082.26
712.61	1082.73
712.94	1081.56
713.28	1069.39
713.61	1060.26
713.95	1067.99
714.28	1067.99
714.62	1067.52
714.95	1065.88
715.29	1071.73
715.62	1057.22
715.96	1058.39
716.29	1062.37
716.63	1063.77
716.96	1070.80
717.29	1090.92
717.63	1100.52
717.96	1099.82
718.30	1104.26
718.63	1097.24
718.97	1093.97
719.30	1082.73
719.63	1082.50
719.97	1087.65
720.30	1086.24
720.64	1084.14
720.97	1068.22
721.30	1064.71
721.64	1066.11
721.97	1071.03
722.31	1077.11
722.64	1090.69
722.97	1083.20
723.31	1080.39
723.64	1088.35
723.97	1090.92
724.31	1097.01
724.64	1099.35
724.98	1102.16
725.31	1088.35
725.64	1078.52
725.98	1074.54
726.31	1079.69
726.64	1076.18
726.97	1078.99
727.31	1082.26
727.64	1079.92
727.97	1078.28
728.31	1078.28
728.64	1072.90
728.97	1072.20
729.31	1064.71
729.64	1067.28
729.97	1067.28
730.30	1077.82
730.64	1079.22
730.97	1096.78
731.30	1106.14
731.63	1109.41
731.97	1103.33
732.30	1102.39
732.63	1089.75
732.96	1083.90
733.30	1071.97
733.63	1074.54
733.96	1062.84
734.29	1068.45
734.63	1065.65
734.96	1079.22
735.29	1072.20
735.62	1087.65
735.95	1075.71
736.29	1075.71
736.62	1071.50
736.95	1077.58
737.28	1069.86
737.61	1081.56
737.94	1078.05
738.28	1075.01
738.61	1080.39
738.94	1081.80
739.27	1085.07
739.60	1083.67
739.93	1082.50
740.27	1077.35
740.60	1072.67
740.93	1070.09
741.26	1071.97
741.59	1071.03
741.92	1068.45
742.25	1072.20
742.58	1068.69
742.91	1061.90
743.25	1061.43
743.58	1065.65
743.91	1077.82
744.24	1082.50
744.57	1100.99
744.90	1112.22
745.23	1104.50
745.56	1098.41
745.89	1099.12
746.22	1076.41
746.55	1073.60
746.88	1082.73
747.21	1072.67
747.54	1071.26
747.87	1085.77
748.20	1081.33
748.53	1080.39
748.87	1082.03
749.20	1083.20
749.53	1093.97
749.86	1100.75
750.19	1087.41
750.52	1082.03
750.85	1076.65
751.18	1065.65
751.51	1058.62
751.84	1066.82
752.16	1080.63
752.49	1073.84
752.82	1070.33
753.15	1076.88
753.48	1076.88
753.81	1081.09
754.14	1092.80
754.47	1102.63
754.80	1091.39
755.13	1097.71
755.46	1092.56
755.79	1090.22
756.12	1086.48
756.45	1086.24
756.78	1085.77
757.11	1074.77
757.43	1072.90
757.76	1064.24
758.09	1064.48
758.42	1062.84
758.75	1064.94
759.08	1064.94
759.41	1072.67
759.74	1077.82
760.07	1075.71
760.39	1078.52
760.72	1089.05
761.05	1094.43
761.38	1087.41
761.71	1081.33
762.04	1081.09
762.36	1080.16
762.69	1079.22
763.02	1084.14
763.35	1087.88
763.68	1095.37
764.01	1082.73
764.33	1071.03
764.66	1066.11
764.99	1070.56
765.32	1069.16
765.65	1069.16
765.97	1078.99
766.30	1084.14
