SpectraSuite Data File
++++++++++++++++++++++++++++++++++++
Date: Mon Aug 26 10:25:57 PDT 2019
User: corrico
Dark Spectrum Present: No
Reference Spectrum Present: No
Number of Sampled Component Spectra: 1
Spectrometers: USB2+H06089
Integration Time (usec): 10000 (USB2+H06089)
Spectra Averaged: 2 (USB2+H06089)
Boxcar Smoothing: 2 (USB2+H06089)
Correct for Electrical Dark: No (USB2+H06089)
Strobe/Lamp Enabled: No (USB2+H06089)
Correct for Detector Non-linearity: No (USB2+H06089)
Correct for Stray Light: No (USB2+H06089)
Number of Pixels in Processed Spectrum: 2048
>>>>>Begin Processed Spectral Data<<<<<
339.70	988.88
340.07	988.88
340.45	972.96
340.82	961.26
341.19	953.53
341.57	939.73
341.94	925.45
342.31	916.09
342.69	912.11
343.06	899.47
343.43	896.66
343.81	905.79
344.18	906.49
344.55	913.04
344.93	921.23
345.30	928.26
345.67	923.58
346.04	921.70
346.42	919.36
346.79	929.19
347.16	931.07
347.54	944.41
347.91	973.43
348.28	991.45
348.65	999.64
349.03	1014.86
349.40	1021.41
349.77	1020.24
350.14	1018.84
350.52	1023.05
350.89	1027.96
351.26	1041.54
351.63	1053.48
352.01	1063.31
352.38	1070.09
352.75	1077.35
353.12	1077.58
353.50	1066.11
353.87	1075.94
354.24	1073.84
354.61	1072.43
354.98	1066.11
355.36	1077.58
355.73	1075.71
356.10	1079.92
356.47	1084.84
356.84	1103.56
357.22	1098.41
357.59	1094.43
357.96	1090.22
358.33	1080.86
358.70	1075.71
359.08	1081.33
359.45	1087.18
359.82	1084.14
360.19	1085.31
360.56	1073.84
360.94	1062.84
361.31	1050.43
361.68	1052.77
362.05	1053.24
362.42	1052.54
362.79	1056.75
363.16	1058.39
363.54	1060.50
363.91	1060.03
364.28	1062.37
364.65	1056.05
365.02	1051.84
365.39	1051.37
365.76	1046.22
366.14	1052.07
366.51	1057.45
366.88	1056.52
367.25	1053.71
367.62	1064.01
367.99	1065.65
368.36	1071.03
368.73	1086.01
369.10	1091.63
369.48	1081.56
369.85	1079.92
370.22	1078.05
370.59	1077.11
370.96	1078.05
371.33	1081.56
371.70	1082.73
372.07	1084.84
372.44	1068.69
372.81	1067.52
373.18	1071.73
373.55	1064.48
373.93	1067.28
374.30	1070.09
374.67	1067.28
375.04	1066.11
375.41	1082.97
375.78	1069.39
376.15	1072.43
376.52	1079.22
376.89	1078.52
377.26	1065.65
377.63	1075.94
378.00	1077.11
378.37	1079.46
378.74	1081.09
379.11	1081.56
379.48	1080.16
379.85	1084.84
380.22	1072.43
380.59	1065.18
380.96	1064.48
381.33	1063.54
381.70	1054.41
382.07	1064.48
382.44	1080.63
382.81	1070.80
383.18	1072.90
383.55	1079.22
383.92	1071.73
384.29	1073.14
384.66	1090.22
385.03	1086.24
385.40	1090.92
385.77	1093.26
386.14	1070.56
386.51	1065.88
386.88	1064.48
387.25	1053.94
387.62	1052.30
387.99	1055.82
388.36	1056.52
388.73	1061.67
389.10	1067.99
389.46	1075.24
389.83	1083.43
390.20	1073.60
390.57	1068.45
390.94	1074.77
391.31	1061.20
391.68	1063.07
392.05	1071.26
392.42	1076.88
392.79	1069.86
393.16	1075.94
393.53	1071.50
393.89	1065.18
394.26	1064.01
394.63	1066.58
395.00	1070.09
395.37	1070.56
395.74	1081.56
396.11	1087.18
396.48	1081.56
396.84	1073.60
397.21	1078.28
397.58	1074.31
397.95	1067.28
398.32	1074.54
398.69	1074.07
399.06	1066.35
399.42	1057.45
399.79	1055.11
400.16	1064.01
400.53	1068.69
400.90	1070.56
401.27	1077.35
401.64	1084.37
402.00	1070.09
402.37	1074.31
402.74	1084.60
403.11	1080.63
403.48	1081.56
403.84	1078.05
404.21	1072.20
404.58	1061.20
404.95	1059.09
405.32	1055.35
405.68	1062.14
406.05	1068.92
406.42	1075.01
406.79	1072.20
407.16	1075.24
407.52	1071.03
407.89	1065.18
408.26	1062.37
408.63	1066.35
408.99	1063.77
409.36	1062.60
409.73	1064.94
410.10	1061.67
410.47	1065.18
410.83	1060.50
411.20	1066.35
411.57	1073.37
411.94	1080.86
412.30	1080.86
412.67	1082.03
413.04	1083.90
413.40	1079.46
413.77	1076.65
414.14	1076.65
414.51	1073.60
414.87	1073.37
415.24	1071.73
415.61	1074.31
415.97	1071.97
416.34	1068.69
416.71	1065.18
417.08	1061.90
417.44	1066.11
417.81	1068.22
418.18	1078.75
418.54	1074.07
418.91	1084.84
419.28	1078.28
419.64	1080.63
420.01	1070.33
420.38	1075.71
420.74	1065.41
421.11	1062.60
421.48	1069.62
421.84	1079.46
422.21	1082.26
422.58	1085.54
422.94	1091.86
423.31	1100.05
423.68	1095.60
424.04	1093.97
424.41	1086.01
424.77	1089.05
425.14	1073.37
425.51	1075.48
425.87	1077.11
426.24	1083.90
426.61	1075.01
426.97	1078.52
427.34	1086.71
427.70	1083.20
428.07	1089.05
428.44	1079.46
428.80	1081.33
429.17	1069.39
429.53	1078.28
429.90	1077.82
430.27	1086.24
430.63	1080.39
431.00	1086.01
431.36	1080.39
431.73	1078.99
432.09	1085.07
432.46	1080.16
432.83	1067.52
433.19	1063.31
433.56	1062.60
433.92	1068.45
434.29	1076.88
434.65	1082.50
435.02	1086.48
435.38	1090.22
435.75	1080.39
436.11	1066.82
436.48	1065.18
436.84	1063.31
437.21	1060.50
437.57	1064.94
437.94	1070.09
438.30	1076.41
438.67	1088.82
439.03	1087.41
439.40	1087.41
439.76	1091.16
440.13	1091.39
440.49	1073.37
440.86	1059.56
441.22	1050.67
441.59	1058.62
441.95	1060.50
442.32	1071.03
442.68	1079.69
443.05	1077.35
443.41	1063.07
443.78	1066.82
444.14	1066.58
444.51	1068.69
444.87	1072.67
445.24	1081.33
445.60	1076.41
445.96	1071.73
446.33	1068.45
446.69	1074.54
447.06	1070.56
447.42	1076.18
447.79	1079.69
448.15	1076.41
448.51	1072.67
448.88	1082.97
449.24	1079.69
449.61	1082.03
449.97	1089.99
450.33	1093.26
450.70	1084.84
451.06	1075.94
451.43	1073.14
451.79	1068.69
452.15	1060.50
452.52	1061.90
452.88	1067.99
453.24	1067.99
453.61	1080.86
453.97	1089.52
454.34	1091.39
454.70	1092.80
455.06	1082.73
455.43	1078.28
455.79	1071.50
456.15	1064.71
456.52	1066.58
456.88	1071.97
457.24	1066.11
457.61	1068.69
457.97	1076.18
458.33	1078.05
458.70	1087.65
459.06	1087.65
459.42	1086.01
459.79	1083.20
460.15	1082.50
460.51	1076.41
460.88	1085.31
461.24	1090.22
461.60	1098.65
461.96	1097.95
462.33	1095.60
462.69	1097.95
463.05	1097.95
463.42	1096.31
463.78	1095.60
464.14	1096.54
464.50	1083.90
464.87	1084.37
465.23	1089.99
465.59	1097.95
465.95	1104.03
466.32	1109.88
466.68	1108.48
467.04	1095.60
467.40	1082.26
467.77	1066.11
468.13	1059.33
468.49	1064.71
468.85	1061.67
469.22	1064.71
469.58	1071.03
469.94	1078.05
470.30	1086.24
470.66	1090.22
471.03	1091.16
471.39	1095.60
471.75	1094.67
472.11	1082.03
472.47	1082.50
472.84	1076.18
473.20	1074.77
473.56	1071.50
473.92	1068.69
474.28	1073.60
474.65	1074.31
475.01	1077.58
475.37	1077.58
475.73	1072.43
476.09	1067.75
476.45	1075.48
476.81	1076.18
477.18	1081.80
477.54	1077.58
477.90	1077.11
478.26	1075.24
478.62	1076.88
478.98	1071.26
479.34	1084.60
479.71	1083.20
480.07	1080.39
480.43	1078.75
480.79	1080.86
481.15	1077.82
481.51	1077.35
481.87	1077.82
482.23	1078.99
482.59	1078.05
482.96	1084.37
483.32	1087.65
483.68	1088.58
484.04	1083.20
484.40	1081.80
484.76	1072.67
485.12	1073.14
485.48	1071.26
485.84	1070.09
486.20	1073.14
486.56	1078.52
486.92	1078.99
487.28	1087.88
487.64	1086.48
488.00	1089.52
488.37	1091.16
488.73	1095.37
489.09	1094.20
489.45	1099.35
489.81	1096.54
490.17	1088.35
490.53	1087.41
490.89	1079.92
491.25	1086.48
491.61	1095.14
491.97	1096.54
492.33	1087.41
492.69	1094.90
493.05	1085.54
493.41	1077.82
493.77	1076.65
494.13	1071.73
494.49	1071.50
494.85	1076.65
495.21	1079.92
495.57	1088.35
495.93	1095.84
496.29	1096.31
496.64	1098.88
497.00	1088.58
497.36	1083.43
497.72	1086.24
498.08	1076.18
498.44	1067.28
498.80	1063.77
499.16	1058.39
499.52	1052.30
499.88	1056.28
500.24	1054.18
500.60	1062.60
500.96	1064.48
501.32	1074.07
501.68	1089.29
502.03	1095.14
502.39	1096.31
502.75	1096.78
503.11	1094.43
503.47	1078.52
503.83	1080.86
504.19	1064.24
504.55	1070.56
504.91	1066.82
505.26	1072.90
505.62	1068.45
505.98	1093.50
506.34	1091.86
506.70	1100.05
507.06	1102.16
507.42	1107.31
507.78	1093.50
508.13	1103.56
508.49	1097.48
508.85	1087.41
509.21	1084.84
509.57	1079.22
509.93	1074.31
510.28	1080.16
510.64	1087.41
511.00	1088.58
511.36	1101.92
511.72	1096.07
512.07	1084.14
512.43	1092.56
512.79	1092.56
513.15	1087.41
513.51	1084.60
513.86	1084.37
514.22	1073.14
514.58	1071.73
514.94	1078.99
515.30	1086.24
515.65	1095.84
516.01	1102.16
516.37	1101.22
516.73	1099.58
517.08	1097.95
517.44	1096.78
517.80	1088.82
518.16	1089.52
518.51	1092.09
518.87	1090.69
519.23	1091.16
519.59	1092.33
519.94	1097.01
520.30	1099.58
520.66	1107.54
521.01	1107.31
521.37	1101.92
521.73	1101.69
522.09	1096.31
522.44	1084.84
522.80	1084.37
523.16	1091.63
523.51	1084.84
523.87	1089.99
524.23	1091.86
524.58	1087.18
524.94	1094.20
525.30	1089.75
525.65	1085.07
526.01	1089.05
526.37	1094.20
526.72	1078.75
527.08	1091.86
527.44	1093.26
527.79	1097.48
528.15	1100.52
528.51	1114.80
528.86	1101.92
529.22	1097.24
529.58	1093.03
529.93	1084.60
530.29	1074.31
530.65	1086.01
531.00	1086.94
531.36	1088.58
531.71	1094.90
532.07	1099.35
532.43	1097.71
532.78	1106.37
533.14	1097.24
533.49	1089.29
533.85	1088.35
534.21	1090.92
534.56	1088.12
534.92	1086.48
535.27	1094.90
535.63	1096.54
535.98	1083.43
536.34	1082.03
536.69	1091.63
537.05	1088.35
537.41	1092.33
537.76	1096.31
538.12	1097.48
538.47	1104.97
538.83	1103.09
539.18	1098.88
539.54	1097.24
539.89	1089.05
540.25	1079.46
540.60	1078.05
540.96	1072.20
541.31	1077.58
541.67	1072.43
542.02	1075.01
542.38	1083.67
542.73	1102.16
543.09	1109.88
543.44	1114.80
543.80	1122.52
544.15	1109.65
544.51	1097.48
544.86	1086.48
545.22	1089.29
545.57	1087.18
545.93	1101.22
546.28	1104.50
546.64	1118.78
546.99	1113.16
547.35	1105.20
547.70	1093.73
548.05	1096.54
548.41	1079.46
548.76	1071.73
549.12	1072.90
549.47	1070.33
549.83	1067.28
550.18	1065.18
550.53	1077.82
550.89	1066.11
551.24	1076.88
551.60	1068.22
551.95	1076.18
552.30	1085.54
552.66	1095.84
553.01	1090.22
553.37	1094.90
553.72	1102.16
554.07	1101.92
554.43	1103.33
554.78	1107.54
555.13	1103.80
555.49	1097.01
555.84	1087.65
556.19	1086.01
556.55	1080.16
556.90	1081.09
557.26	1073.14
557.61	1063.31
557.96	1071.26
558.32	1071.50
558.67	1069.62
559.02	1078.75
559.37	1090.92
559.73	1087.18
560.08	1084.60
560.43	1084.84
560.79	1081.33
561.14	1083.67
561.49	1082.03
561.85	1089.99
562.20	1088.82
562.55	1087.41
562.90	1080.86
563.26	1076.18
563.61	1075.71
563.96	1071.03
564.32	1073.84
564.67	1082.73
565.02	1082.50
565.37	1075.48
565.73	1081.33
566.08	1079.22
566.43	1080.39
566.78	1078.99
567.14	1073.14
567.49	1079.69
567.84	1088.12
568.19	1089.05
568.54	1082.97
568.90	1093.03
569.25	1092.80
569.60	1089.05
569.95	1082.73
570.31	1086.94
570.66	1086.48
571.01	1085.07
571.36	1071.50
571.71	1058.39
572.06	1068.22
572.42	1072.90
572.77	1071.26
573.12	1079.22
573.47	1094.67
573.82	1080.63
574.18	1073.37
574.53	1077.11
574.88	1078.05
575.23	1072.20
575.58	1084.60
575.93	1095.60
576.28	1088.82
576.64	1086.94
576.99	1090.46
577.34	1075.71
577.69	1067.52
578.04	1072.90
578.39	1082.50
578.74	1083.90
579.09	1100.05
579.44	1109.65
579.80	1102.39
580.15	1097.95
580.50	1092.56
580.85	1091.39
581.20	1082.26
581.55	1089.29
581.90	1086.24
582.25	1086.71
582.60	1082.73
582.95	1080.39
583.30	1073.14
583.65	1065.88
584.00	1064.48
584.35	1059.79
584.71	1051.60
585.06	1060.03
585.41	1065.18
585.76	1071.73
586.11	1079.69
586.46	1092.56
586.81	1084.60
587.16	1082.73
587.51	1082.73
587.86	1076.18
588.21	1069.86
588.56	1074.54
588.91	1079.69
589.26	1076.18
589.61	1082.26
589.96	1087.41
590.31	1090.69
590.66	1082.03
591.01	1086.94
591.36	1083.67
591.71	1083.90
592.06	1080.16
592.41	1086.94
592.76	1087.18
593.10	1090.92
593.45	1087.88
593.80	1083.67
594.15	1088.58
594.50	1075.71
594.85	1080.39
595.20	1087.18
595.55	1089.99
595.90	1094.43
596.25	1093.97
596.60	1090.69
596.95	1087.18
597.30	1086.01
597.64	1130.01
597.99	1130.71
598.34	1132.35
598.69	1131.65
599.04	1130.71
599.39	1079.22
599.74	1088.58
600.09	1076.41
600.44	1072.90
600.78	1081.09
601.13	1079.69
601.48	1075.01
601.83	1091.39
602.18	1094.43
602.53	1089.75
602.88	1092.33
603.22	1101.22
603.57	1093.03
603.92	1083.20
604.27	1077.58
604.62	1069.16
604.97	1063.77
605.31	1054.88
605.66	1062.60
606.01	1068.92
606.36	1071.73
606.71	1063.54
607.05	1073.37
607.40	1079.92
607.75	1079.92
608.10	1073.37
608.44	1079.69
608.79	1079.69
609.14	1068.45
609.49	1072.43
609.84	1088.12
610.18	1084.14
610.53	1076.88
610.88	1094.67
611.23	1090.22
611.57	1088.12
611.92	1091.16
612.27	1101.46
612.62	1093.97
612.96	1085.77
613.31	1085.07
613.66	1088.35
614.00	1082.03
614.35	1079.69
614.70	1088.82
615.05	1080.86
615.39	1071.97
615.74	1076.88
616.09	1083.43
616.43	1085.77
616.78	1083.20
617.13	1095.37
617.47	1088.35
617.82	1075.94
618.17	1079.92
618.51	1091.16
618.86	1087.41
619.21	1083.43
619.55	1086.01
619.90	1083.20
620.25	1078.52
620.59	1081.33
620.94	1080.39
621.29	1080.39
621.63	1082.50
621.98	1086.48
622.32	1077.58
622.67	1081.80
623.02	1077.82
623.36	1066.11
623.71	1068.22
624.05	1078.75
624.40	1078.28
624.75	1094.67
625.09	1102.39
625.44	1104.26
625.78	1101.92
626.13	1103.56
626.48	1093.50
626.82	1090.46
627.17	1088.82
627.51	1084.60
627.86	1076.18
628.20	1078.52
628.55	1076.65
628.89	1073.84
629.24	1077.82
629.58	1097.01
629.93	1092.80
630.28	1088.82
630.62	1101.22
630.97	1104.97
631.31	1091.63
631.66	1095.84
632.00	1103.09
632.35	1081.56
632.69	1077.35
633.04	1077.11
633.38	1074.54
633.73	1079.46
634.07	1076.65
634.42	1077.58
634.76	1084.37
635.11	1082.97
635.45	1077.82
635.79	1085.31
636.14	1084.14
636.48	1084.60
636.83	1085.31
637.17	1091.63
637.52	1093.50
637.86	1086.71
638.21	1084.60
638.55	1084.84
638.89	1076.18
639.24	1081.80
639.58	1091.39
639.93	1098.18
640.27	1098.88
640.61	1099.58
640.96	1099.58
641.30	1092.33
641.65	1087.41
641.99	1093.50
642.33	1096.54
642.68	1090.92
643.02	1089.75
643.37	1088.58
643.71	1083.90
644.05	1085.77
644.40	1093.50
644.74	1092.09
645.08	1093.73
645.43	1092.09
645.77	1084.84
646.11	1082.50
646.46	1084.84
646.80	1083.20
647.14	1083.20
647.49	1079.22
647.83	1068.22
648.17	1066.35
648.52	1058.62
648.86	1055.35
649.20	1066.11
649.55	1076.18
649.89	1073.60
650.23	1084.84
650.57	1088.58
650.92	1093.50
651.26	1096.54
651.60	1096.31
651.95	1096.07
652.29	1095.60
652.63	1090.46
652.97	1090.92
653.32	1094.67
653.66	1093.03
654.00	1085.77
654.34	1078.52
654.69	1068.92
655.03	1070.09
655.37	1067.99
655.71	1072.67
656.05	1067.52
656.40	1077.58
656.74	1085.31
657.08	1084.37
657.42	1086.24
657.76	1103.09
658.11	1091.16
658.45	1080.63
658.79	1087.88
659.13	1097.71
659.47	1092.56
659.82	1095.60
660.16	1089.05
660.50	1081.56
660.84	1076.18
661.18	1071.73
661.52	1075.48
661.87	1086.01
662.21	1085.77
662.55	1089.05
662.89	1095.60
663.23	1089.75
663.57	1095.84
663.91	1095.14
664.25	1089.05
664.60	1080.39
664.94	1079.22
665.28	1075.01
665.62	1079.22
665.96	1078.52
666.30	1078.05
666.64	1077.35
666.98	1072.90
667.32	1070.80
667.66	1063.54
668.01	1070.09
668.35	1072.43
668.69	1075.94
669.03	1077.82
669.37	1084.84
669.71	1083.43
670.05	1091.16
670.39	1084.37
670.73	1096.07
671.07	1096.31
671.41	1089.75
671.75	1089.99
672.09	1098.88
672.43	1082.50
672.77	1077.82
673.11	1083.67
673.45	1087.18
673.79	1079.46
674.13	1085.31
674.47	1096.78
674.81	1094.90
675.15	1090.46
675.49	1092.09
675.83	1085.77
676.17	1079.22
676.51	1074.31
676.85	1066.58
677.19	1075.94
677.53	1078.75
677.87	1074.54
678.21	1087.41
678.55	1102.16
678.89	1096.07
679.23	1090.69
679.57	1091.16
679.90	1083.67
680.24	1069.16
680.58	1078.28
680.92	1078.99
681.26	1075.48
681.60	1067.28
681.94	1072.90
682.28	1068.69
682.62	1073.37
682.96	1074.77
683.29	1089.75
683.63	1088.12
683.97	1078.99
684.31	1086.24
684.65	1099.58
684.99	1086.48
685.33	1089.29
685.67	1089.99
686.00	1072.43
686.34	1058.16
686.68	1059.33
687.02	1050.43
687.36	1056.05
687.70	1067.99
688.03	1073.60
688.37	1079.92
688.71	1078.75
689.05	1074.77
689.39	1078.99
689.72	1084.60
690.06	1084.60
690.40	1090.92
690.74	1091.39
691.08	1086.71
691.41	1079.22
691.75	1070.09
692.09	1071.26
692.43	1073.14
692.76	1070.80
693.10	1070.09
693.44	1083.43
693.78	1081.09
694.11	1080.63
694.45	1077.35
694.79	1075.48
695.13	1074.31
695.46	1078.99
695.80	1076.41
696.14	1080.86
696.48	1089.75
696.81	1095.84
697.15	1093.50
697.49	1105.67
697.82	1103.80
698.16	1095.14
698.50	1088.82
698.83	1082.50
699.17	1072.90
699.51	1063.31
699.84	1058.39
700.18	1046.92
700.52	1048.09
700.85	1046.69
701.19	1054.88
701.53	1068.92
701.86	1077.58
702.20	1079.46
702.54	1082.73
702.87	1079.46
703.21	1074.31
703.55	1071.03
703.88	1075.71
704.22	1067.28
704.55	1075.24
704.89	1066.82
705.23	1066.82
705.56	1063.07
705.90	1062.14
706.23	1059.33
706.57	1070.56
706.91	1078.52
707.24	1075.71
707.58	1074.54
707.91	1074.31
708.25	1070.56
708.58	1060.73
708.92	1071.97
709.26	1079.92
709.59	1078.05
709.93	1075.71
710.26	1084.14
710.60	1075.01
710.93	1065.18
711.27	1067.75
711.60	1076.41
711.94	1073.14
712.27	1077.58
712.61	1088.12
712.94	1084.84
713.28	1077.35
713.61	1081.09
713.95	1078.52
714.28	1077.11
714.62	1082.97
714.95	1092.09
715.29	1094.67
715.62	1091.16
715.96	1092.80
716.29	1089.75
716.63	1075.24
716.96	1070.80
717.29	1070.09
717.63	1078.28
717.96	1075.71
718.30	1086.48
718.63	1080.39
718.97	1091.39
719.30	1081.56
719.63	1082.50
719.97	1085.07
720.30	1078.99
720.64	1070.56
720.97	1073.37
721.30	1073.60
721.64	1072.43
721.97	1082.03
722.31	1083.67
722.64	1084.60
722.97	1092.56
723.31	1083.67
723.64	1088.12
723.97	1089.52
724.31	1090.92
724.64	1086.71
724.98	1090.92
725.31	1083.43
725.64	1076.65
725.98	1070.80
726.31	1068.92
726.64	1067.05
726.97	1067.75
727.31	1077.82
727.64	1075.48
727.97	1070.33
728.31	1063.07
728.64	1065.65
728.97	1064.94
729.31	1073.84
729.64	1077.58
729.97	1091.16
730.30	1087.88
730.64	1088.58
730.97	1075.94
731.30	1088.82
731.63	1088.58
731.97	1084.37
732.30	1086.24
732.63	1093.26
732.96	1092.33
733.30	1097.24
733.63	1104.97
733.96	1105.90
734.29	1107.07
734.63	1097.95
734.96	1085.07
735.29	1088.12
735.62	1074.77
735.95	1072.43
736.29	1066.82
736.62	1068.92
736.95	1071.26
737.28	1071.50
737.61	1076.41
737.94	1083.43
738.28	1088.35
738.61	1082.97
738.94	1097.01
739.27	1101.22
739.60	1097.95
739.93	1089.52
740.27	1093.03
740.60	1086.71
740.93	1074.54
741.26	1076.88
741.59	1078.05
741.92	1074.07
742.25	1068.92
742.58	1076.18
742.91	1069.86
743.25	1076.18
743.58	1072.43
743.91	1077.11
744.24	1076.88
744.57	1085.31
744.90	1074.31
745.23	1081.56
745.56	1076.41
745.89	1080.86
746.22	1076.88
746.55	1078.99
746.88	1077.58
747.21	1084.84
747.54	1074.31
747.87	1083.90
748.20	1091.16
748.53	1088.12
748.87	1085.77
749.20	1088.12
749.53	1087.65
749.86	1091.39
750.19	1095.84
750.52	1094.90
750.85	1088.58
751.18	1076.18
751.51	1072.67
751.84	1076.18
752.16	1081.80
752.49	1089.75
752.82	1101.46
753.15	1106.61
753.48	1100.99
753.81	1089.05
754.14	1090.22
754.47	1076.18
754.80	1066.58
755.13	1064.48
755.46	1070.09
755.79	1060.03
756.12	1066.11
756.45	1066.35
756.78	1071.50
757.11	1064.48
757.43	1069.39
757.76	1068.22
758.09	1067.05
758.42	1068.22
758.75	1077.11
759.08	1082.50
759.41	1085.54
759.74	1091.86
760.07	1095.60
760.39	1096.78
760.72	1092.09
761.05	1088.35
761.38	1098.65
761.71	1086.94
762.04	1084.60
762.36	1083.43
762.69	1088.12
763.02	1078.75
763.35	1082.50
763.68	1080.63
764.01	1078.05
764.33	1078.99
764.66	1068.92
764.99	1069.16
765.32	1063.07
765.65	1068.45
765.97	1062.14
766.30	1070.80
