SpectraSuite Data File
++++++++++++++++++++++++++++++++++++
Date: Mon Aug 26 10:25:59 PDT 2019
User: corrico
Dark Spectrum Present: No
Reference Spectrum Present: No
Number of Sampled Component Spectra: 1
Spectrometers: USB2+H06089
Integration Time (usec): 10000 (USB2+H06089)
Spectra Averaged: 2 (USB2+H06089)
Boxcar Smoothing: 2 (USB2+H06089)
Correct for Electrical Dark: No (USB2+H06089)
Strobe/Lamp Enabled: No (USB2+H06089)
Correct for Detector Non-linearity: No (USB2+H06089)
Correct for Stray Light: No (USB2+H06089)
Number of Pixels in Processed Spectrum: 2048
>>>>>Begin Processed Spectral Data<<<<<
339.70	1067.28
340.07	1067.28
340.45	1004.79
340.82	973.90
341.19	940.19
341.57	906.26
341.94	903.68
342.31	903.91
342.69	906.26
343.06	907.19
343.43	902.51
343.81	903.21
344.18	908.13
344.55	902.04
344.93	902.51
345.30	908.60
345.67	909.30
346.04	917.49
346.42	935.51
346.79	954.94
347.16	959.15
347.54	973.66
347.91	980.22
348.28	974.60
348.65	969.92
349.03	988.64
349.40	998.71
349.77	1003.15
350.14	1027.26
350.52	1037.33
350.89	1039.20
351.26	1042.94
351.63	1050.43
352.01	1051.60
352.38	1053.94
352.75	1057.92
353.12	1061.67
353.50	1065.88
353.87	1065.88
354.24	1072.67
354.61	1076.65
354.98	1074.77
355.36	1085.54
355.73	1081.80
356.10	1081.56
356.47	1080.16
356.84	1085.07
357.22	1076.41
357.59	1084.37
357.96	1089.52
358.33	1100.99
358.70	1097.71
359.08	1095.60
359.45	1089.05
359.82	1085.31
360.19	1070.80
360.56	1078.75
360.94	1079.22
361.31	1081.56
361.68	1079.46
362.05	1085.77
362.42	1086.71
362.79	1077.82
363.16	1071.26
363.54	1063.07
363.91	1055.82
364.28	1045.05
364.65	1049.26
365.02	1049.03
365.39	1058.86
365.76	1071.97
366.14	1076.18
366.51	1077.11
366.88	1079.69
367.25	1076.18
367.62	1082.50
367.99	1072.90
368.36	1065.88
368.73	1057.22
369.10	1064.24
369.48	1054.65
369.85	1065.65
370.22	1084.60
370.59	1093.03
370.96	1089.05
371.33	1093.26
371.70	1078.75
372.07	1063.31
372.44	1073.37
372.81	1073.14
373.18	1059.09
373.55	1075.94
373.93	1079.69
374.30	1074.31
374.67	1071.03
375.04	1070.80
375.41	1061.67
375.78	1057.22
376.15	1052.07
376.52	1052.30
376.89	1062.14
377.26	1063.31
377.63	1061.43
378.00	1056.99
378.37	1057.69
378.74	1045.75
379.11	1042.94
379.48	1047.86
379.85	1060.96
380.22	1063.77
380.59	1071.73
380.96	1073.14
381.33	1075.94
381.70	1068.45
382.07	1071.03
382.44	1080.39
382.81	1082.73
383.18	1085.31
383.55	1084.14
383.92	1082.03
384.29	1069.16
384.66	1072.43
385.03	1067.75
385.40	1070.80
385.77	1075.01
386.14	1073.37
386.51	1072.90
386.88	1075.71
387.25	1078.28
387.62	1070.09
387.99	1079.46
388.36	1079.92
388.73	1073.84
389.10	1057.69
389.46	1067.75
389.83	1053.94
390.20	1043.88
390.57	1045.99
390.94	1060.73
391.31	1053.24
391.68	1059.33
392.05	1063.31
392.42	1058.62
392.79	1062.84
393.16	1063.31
393.53	1071.26
393.89	1081.33
394.26	1089.75
394.63	1089.99
395.00	1092.56
395.37	1096.78
395.74	1086.71
396.11	1084.37
396.48	1081.56
396.84	1078.52
397.21	1065.18
397.58	1075.24
397.95	1082.97
398.32	1079.69
398.69	1079.46
399.06	1084.84
399.42	1082.73
399.79	1072.90
400.16	1074.77
400.53	1080.39
400.90	1077.35
401.27	1074.54
401.64	1080.63
402.00	1080.86
402.37	1069.39
402.74	1074.77
403.11	1075.24
403.48	1081.56
403.84	1073.84
404.21	1085.77
404.58	1076.88
404.95	1070.33
405.32	1062.84
405.68	1074.07
406.05	1071.26
406.42	1078.75
406.79	1083.90
407.16	1083.90
407.52	1071.97
407.89	1072.20
408.26	1082.26
408.63	1086.01
408.99	1084.84
409.36	1088.35
409.73	1081.09
410.10	1072.67
410.47	1069.86
410.83	1066.82
411.20	1067.28
411.57	1071.03
411.94	1056.75
412.30	1048.33
412.67	1056.05
413.04	1060.50
413.40	1062.84
413.77	1077.35
414.14	1082.97
414.51	1080.86
414.87	1081.56
415.24	1082.50
415.61	1084.84
415.97	1080.39
416.34	1068.45
416.71	1060.50
417.08	1053.94
417.44	1032.41
417.81	1031.01
418.18	1041.30
418.54	1045.75
418.91	1047.39
419.28	1064.48
419.64	1064.01
420.01	1064.24
420.38	1067.99
420.74	1071.97
421.11	1075.24
421.48	1087.18
421.84	1085.54
422.21	1076.18
422.58	1071.73
422.94	1061.67
423.31	1060.50
423.68	1059.79
424.04	1072.43
424.41	1081.80
424.77	1086.01
425.14	1087.18
425.51	1087.65
425.87	1089.52
426.24	1087.88
426.61	1109.41
426.97	1104.73
427.34	1107.78
427.70	1092.80
428.07	1082.03
428.44	1061.90
428.80	1071.26
429.17	1078.75
429.53	1090.46
429.90	1101.92
430.27	1108.24
430.63	1107.54
431.00	1093.26
431.36	1085.77
431.73	1084.84
432.09	1074.54
432.46	1067.28
432.83	1070.56
433.19	1075.24
433.56	1067.05
433.92	1068.45
434.29	1071.73
434.65	1071.03
435.02	1072.90
435.38	1084.14
435.75	1089.05
436.11	1093.03
436.48	1103.80
436.84	1102.16
437.21	1087.88
437.57	1092.33
437.94	1076.65
438.30	1064.71
438.67	1061.67
439.03	1075.01
439.40	1073.14
439.76	1069.86
440.13	1074.77
440.49	1079.69
440.86	1075.71
441.22	1078.05
441.59	1090.69
441.95	1092.09
442.32	1086.48
442.68	1087.41
443.05	1079.92
443.41	1083.90
443.78	1080.86
444.14	1081.80
444.51	1086.48
444.87	1085.31
445.24	1089.29
445.60	1092.56
445.96	1093.73
446.33	1088.58
446.69	1093.73
447.06	1078.28
447.42	1077.82
447.79	1069.39
448.15	1068.69
448.51	1069.62
448.88	1073.60
449.24	1070.09
449.61	1076.65
449.97	1073.37
450.33	1079.46
450.70	1086.01
451.06	1091.16
451.43	1088.58
451.79	1097.01
452.15	1086.94
452.52	1089.75
452.88	1078.52
453.24	1076.65
453.61	1070.56
453.97	1071.26
454.34	1067.28
454.70	1072.20
455.06	1084.37
455.43	1077.82
455.79	1072.20
456.15	1064.48
456.52	1066.58
456.88	1053.71
457.24	1069.86
457.61	1080.86
457.97	1092.33
458.33	1096.54
458.70	1108.71
459.06	1100.05
459.42	1090.92
459.79	1086.24
460.15	1088.82
460.51	1080.86
460.88	1076.88
461.24	1086.94
461.60	1086.01
461.96	1082.03
462.33	1081.56
462.69	1076.18
463.05	1071.03
463.42	1072.20
463.78	1069.16
464.14	1071.73
464.50	1082.50
464.87	1091.16
465.23	1090.22
465.59	1086.48
465.95	1088.35
466.32	1087.88
466.68	1081.09
467.04	1084.60
467.40	1093.26
467.77	1099.12
468.13	1099.58
468.49	1101.46
468.85	1088.58
469.22	1081.56
469.58	1075.71
469.94	1062.14
470.30	1064.24
470.66	1078.75
471.03	1082.50
471.39	1083.67
471.75	1092.09
472.11	1085.54
472.47	1074.07
472.84	1077.58
473.20	1081.33
473.56	1082.03
473.92	1083.90
474.28	1093.50
474.65	1090.22
475.01	1091.63
475.37	1094.67
475.73	1094.20
476.09	1090.22
476.45	1088.58
476.81	1086.48
477.18	1086.01
477.54	1084.14
477.90	1083.67
478.26	1088.35
478.62	1075.48
478.98	1068.22
479.34	1072.20
479.71	1070.80
480.07	1068.45
480.43	1074.77
480.79	1085.31
481.15	1079.69
481.51	1078.05
481.87	1067.28
482.23	1067.75
482.59	1068.22
482.96	1070.09
483.32	1076.18
483.68	1085.54
484.04	1087.65
484.40	1081.56
484.76	1083.67
485.12	1081.33
485.48	1080.16
485.84	1076.88
486.20	1073.84
486.56	1072.90
486.92	1074.54
487.28	1080.39
487.64	1083.90
488.00	1078.75
488.37	1068.92
488.73	1070.33
489.09	1062.60
489.45	1063.54
489.81	1067.52
490.17	1071.50
490.53	1071.26
490.89	1071.50
491.25	1067.52
491.61	1064.71
491.97	1074.54
492.33	1072.90
492.69	1076.41
493.05	1078.28
493.41	1078.99
493.77	1071.50
494.13	1063.54
494.49	1063.31
494.85	1067.75
495.21	1075.24
495.57	1066.11
495.93	1067.75
496.29	1062.60
496.64	1059.33
497.00	1062.84
497.36	1083.43
497.72	1082.73
498.08	1083.90
498.44	1076.41
498.80	1078.05
499.16	1071.03
499.52	1084.37
499.88	1092.56
500.24	1106.37
500.60	1099.35
500.96	1092.56
501.32	1089.52
501.68	1092.80
502.03	1082.50
502.39	1090.22
502.75	1092.09
503.11	1080.63
503.47	1071.03
503.83	1076.41
504.19	1077.58
504.55	1071.50
504.91	1074.31
505.26	1070.80
505.62	1060.96
505.98	1059.56
506.34	1078.75
506.70	1080.63
507.06	1088.12
507.42	1092.33
507.78	1086.71
508.13	1076.65
508.49	1078.52
508.85	1067.52
509.21	1070.09
509.57	1066.58
509.93	1073.60
510.28	1070.80
510.64	1082.26
511.00	1084.37
511.36	1092.09
511.72	1097.71
512.07	1105.20
512.43	1102.16
512.79	1110.35
513.15	1105.44
513.51	1086.01
513.86	1079.69
514.22	1080.86
514.58	1072.20
514.94	1076.41
515.30	1089.05
515.65	1087.88
516.01	1088.12
516.37	1091.39
516.73	1089.05
517.08	1082.50
517.44	1083.67
517.80	1084.84
518.16	1082.26
518.51	1093.03
518.87	1097.71
519.23	1101.46
519.59	1094.90
519.94	1095.37
520.30	1084.84
520.66	1082.50
521.01	1084.37
521.37	1096.07
521.73	1098.18
522.09	1099.35
522.44	1097.95
522.80	1100.99
523.16	1097.24
523.51	1091.39
523.87	1087.88
524.23	1095.37
524.58	1092.80
524.94	1086.01
525.30	1092.56
525.65	1099.82
526.01	1090.69
526.37	1089.75
526.72	1096.54
527.08	1097.95
527.44	1097.24
527.79	1105.90
528.15	1108.01
528.51	1111.75
528.86	1101.22
529.22	1099.12
529.58	1109.41
529.93	1114.80
530.29	1110.82
530.65	1119.48
531.00	1118.54
531.36	1096.78
531.71	1089.52
532.07	1084.60
532.43	1085.07
532.78	1075.94
533.14	1085.54
533.49	1091.39
533.85	1103.56
534.21	1101.92
534.56	1102.39
534.92	1097.95
535.27	1093.03
535.63	1086.24
535.98	1083.67
536.34	1096.07
536.69	1091.63
537.05	1083.43
537.41	1076.88
537.76	1085.31
538.12	1079.46
538.47	1081.80
538.83	1081.80
539.18	1088.35
539.54	1077.58
539.89	1085.77
540.25	1095.37
540.60	1103.80
540.96	1100.29
541.31	1106.84
541.67	1102.63
542.02	1084.14
542.38	1082.03
542.73	1097.01
543.09	1094.43
543.44	1087.65
543.80	1103.56
544.15	1096.54
544.51	1082.50
544.86	1080.39
545.22	1075.01
545.57	1074.31
545.93	1080.39
546.28	1085.77
546.64	1087.65
546.99	1099.35
547.35	1103.56
547.70	1093.97
548.05	1086.48
548.41	1086.24
548.76	1084.60
549.12	1072.43
549.47	1084.37
549.83	1091.16
550.18	1097.71
550.53	1092.80
550.89	1100.05
551.24	1098.41
551.60	1091.39
551.95	1078.99
552.30	1077.82
552.66	1070.80
553.01	1066.82
553.37	1074.54
553.72	1077.11
554.07	1085.54
554.43	1091.63
554.78	1093.03
555.13	1087.88
555.49	1098.88
555.84	1096.31
556.19	1088.58
556.55	1087.41
556.90	1085.54
557.26	1082.73
557.61	1087.88
557.96	1099.35
558.32	1100.29
558.67	1105.44
559.02	1095.14
559.37	1082.03
559.73	1081.33
560.08	1075.71
560.43	1080.63
560.79	1082.26
561.14	1089.52
561.49	1091.86
561.85	1106.14
562.20	1097.71
562.55	1100.99
562.90	1098.41
563.26	1090.69
563.61	1088.35
563.96	1094.90
564.32	1095.60
564.67	1094.43
565.02	1094.43
565.37	1085.54
565.73	1078.99
566.08	1075.01
566.43	1079.46
566.78	1089.05
567.14	1084.84
567.49	1080.86
567.84	1087.18
568.19	1084.60
568.54	1068.45
568.90	1069.16
569.25	1072.90
569.60	1066.82
569.95	1061.43
570.31	1064.48
570.66	1075.48
571.01	1078.75
571.36	1074.07
571.71	1081.56
572.06	1093.03
572.42	1081.80
572.77	1072.90
573.12	1079.22
573.47	1084.84
573.82	1077.82
574.18	1086.24
574.53	1093.50
574.88	1091.16
575.23	1082.73
575.58	1078.75
575.93	1078.52
576.28	1068.92
576.64	1077.35
576.99	1080.39
577.34	1078.99
577.69	1081.56
578.04	1091.16
578.39	1087.41
578.74	1086.24
579.09	1091.63
579.44	1091.16
579.80	1090.46
580.15	1090.46
580.50	1095.60
580.85	1093.26
581.20	1083.20
581.55	1087.88
581.90	1090.22
582.25	1082.26
582.60	1083.90
582.95	1085.07
583.30	1085.07
583.65	1075.01
584.00	1071.97
584.35	1069.86
584.71	1071.03
585.06	1066.58
585.41	1075.71
585.76	1089.52
586.11	1091.39
586.46	1097.71
586.81	1096.54
587.16	1097.24
587.51	1088.12
587.86	1084.60
588.21	1087.65
588.56	1092.80
588.91	1088.82
589.26	1093.73
589.61	1101.92
589.96	1096.31
590.31	1083.90
590.66	1073.84
591.01	1067.99
591.36	1066.35
591.71	1062.84
592.06	1063.54
592.41	1072.67
592.76	1082.97
593.10	1078.52
593.45	1089.29
593.80	1096.31
594.15	1092.33
594.50	1083.43
594.85	1078.28
595.20	1082.26
595.55	1088.12
595.90	1099.58
596.25	1103.80
596.60	1107.78
596.95	1086.24
597.30	1075.24
597.64	1119.95
597.99	1115.03
598.34	1119.24
598.69	1128.14
599.04	1126.50
599.39	1073.14
599.74	1078.28
600.09	1073.37
600.44	1067.05
600.78	1073.60
601.13	1074.07
601.48	1063.07
601.83	1070.80
602.18	1081.56
602.53	1080.16
602.88	1068.92
603.22	1076.18
603.57	1068.45
603.92	1059.56
604.27	1059.56
604.62	1073.60
604.97	1067.28
605.31	1069.62
605.66	1080.86
606.01	1071.97
606.36	1064.94
606.71	1065.18
607.05	1073.14
607.40	1069.86
607.75	1086.48
608.10	1093.03
608.44	1091.63
608.79	1080.39
609.14	1084.84
609.49	1088.58
609.84	1096.31
610.18	1107.31
610.53	1118.31
610.88	1116.44
611.23	1112.46
611.57	1106.14
611.92	1113.86
612.27	1116.67
612.62	1113.86
612.96	1103.33
613.31	1097.71
613.66	1090.92
614.00	1086.24
614.35	1081.80
614.70	1091.86
615.05	1107.07
615.39	1105.44
615.74	1100.29
616.09	1112.69
616.43	1102.86
616.78	1098.88
617.13	1092.09
617.47	1091.16
617.82	1090.69
618.17	1089.99
618.51	1083.90
618.86	1086.24
619.21	1083.67
619.55	1069.86
619.90	1070.33
620.25	1072.43
620.59	1071.50
620.94	1078.75
621.29	1091.16
621.63	1101.22
621.98	1095.37
622.32	1098.18
622.67	1098.65
623.02	1095.60
623.36	1097.95
623.71	1106.14
624.05	1099.58
624.40	1099.12
624.75	1090.22
625.09	1080.16
625.44	1075.71
625.78	1083.67
626.13	1083.20
626.48	1085.07
626.82	1093.26
627.17	1099.82
627.51	1092.56
627.86	1091.16
628.20	1086.94
628.55	1082.26
628.89	1074.77
629.24	1080.39
629.58	1071.26
629.93	1082.26
630.28	1069.39
630.62	1067.75
630.97	1064.01
631.31	1065.65
631.66	1067.05
632.00	1074.54
632.35	1073.60
632.69	1081.56
633.04	1083.67
633.38	1081.56
633.73	1083.90
634.07	1086.48
634.42	1094.20
634.76	1098.41
635.11	1097.71
635.45	1093.73
635.79	1097.95
636.14	1080.16
636.48	1077.82
636.83	1073.37
637.17	1079.46
637.52	1080.16
637.86	1088.82
638.21	1087.41
638.55	1089.52
638.89	1081.33
639.24	1067.99
639.58	1053.24
639.93	1053.48
640.27	1050.90
640.61	1055.35
640.96	1059.56
641.30	1067.52
641.65	1076.41
641.99	1075.71
642.33	1082.97
642.68	1087.18
643.02	1086.71
643.37	1082.97
643.71	1097.01
644.05	1102.39
644.40	1101.69
644.74	1107.54
645.08	1102.16
645.43	1086.71
645.77	1072.20
646.11	1067.05
646.46	1067.75
646.80	1071.97
647.14	1077.82
647.49	1085.07
647.83	1082.73
648.17	1074.77
648.52	1075.01
648.86	1077.58
649.20	1073.60
649.55	1081.56
649.89	1081.09
650.23	1077.82
650.57	1069.39
650.92	1067.05
651.26	1070.56
651.60	1079.46
651.95	1085.07
652.29	1086.24
652.63	1092.56
652.97	1082.03
653.32	1078.52
653.66	1078.05
654.00	1074.54
654.34	1074.77
654.69	1084.60
655.03	1091.39
655.37	1085.54
655.71	1089.52
656.05	1085.31
656.40	1085.54
656.74	1074.54
657.08	1083.67
657.42	1080.16
657.76	1085.07
658.11	1086.24
658.45	1101.69
658.79	1093.03
659.13	1098.41
659.47	1093.97
659.82	1086.71
660.16	1077.35
660.50	1075.01
660.84	1071.26
661.18	1069.16
661.52	1076.65
661.87	1076.18
662.21	1085.07
662.55	1090.22
662.89	1097.48
663.23	1099.82
663.57	1110.58
663.91	1109.41
664.25	1111.52
664.60	1101.92
664.94	1093.97
665.28	1089.05
665.62	1092.33
665.96	1092.80
666.30	1101.69
666.64	1110.58
666.98	1108.01
667.32	1101.92
667.66	1102.16
668.01	1100.05
668.35	1095.84
668.69	1094.90
669.03	1095.60
669.37	1096.54
669.71	1093.26
670.05	1089.99
670.39	1086.94
670.73	1093.50
671.07	1090.69
671.41	1085.31
671.75	1094.43
672.09	1096.07
672.43	1089.75
672.77	1094.90
673.11	1106.37
673.45	1099.35
673.79	1107.31
674.13	1103.80
674.47	1094.90
674.81	1091.39
675.15	1085.54
675.49	1082.03
675.83	1076.41
676.17	1083.43
676.51	1082.50
676.85	1080.39
677.19	1082.03
677.53	1084.37
677.87	1082.97
678.21	1084.14
678.55	1086.01
678.89	1078.05
679.23	1085.54
679.57	1086.94
679.90	1084.37
680.24	1090.22
680.58	1087.65
680.92	1082.03
681.26	1081.80
681.60	1092.56
681.94	1098.65
682.28	1099.58
682.62	1104.50
682.96	1103.33
683.29	1093.50
683.63	1084.14
683.97	1093.50
684.31	1086.71
684.65	1080.86
684.99	1078.99
685.33	1078.75
685.67	1075.48
686.00	1083.67
686.34	1085.31
686.68	1088.58
687.02	1088.12
687.36	1087.18
687.70	1079.22
688.03	1084.14
688.37	1089.52
688.71	1089.52
689.05	1093.50
689.39	1095.84
689.72	1085.31
690.06	1077.11
690.40	1070.56
690.74	1061.43
691.08	1065.41
691.41	1070.09
691.75	1072.90
692.09	1086.94
692.43	1095.84
692.76	1097.01
693.10	1099.35
693.44	1092.09
693.78	1090.22
694.11	1087.88
694.45	1086.71
694.79	1081.56
695.13	1089.29
695.46	1082.73
695.80	1074.31
696.14	1077.11
696.48	1088.58
696.81	1090.69
697.15	1099.35
697.49	1109.65
697.82	1099.35
698.16	1094.20
698.50	1086.48
698.83	1082.97
699.17	1079.46
699.51	1086.24
699.84	1088.35
700.18	1093.97
700.52	1099.58
700.85	1092.33
701.19	1098.18
701.53	1102.16
701.86	1094.20
702.20	1090.69
702.54	1095.60
702.87	1093.03
703.21	1088.82
703.55	1087.18
703.88	1081.80
704.22	1076.18
704.55	1071.73
704.89	1068.45
705.23	1082.03
705.56	1086.24
705.90	1088.82
706.23	1094.43
706.57	1092.80
706.91	1094.20
707.24	1094.43
707.58	1096.31
707.91	1087.18
708.25	1092.09
708.58	1078.99
708.92	1061.90
709.26	1053.48
709.59	1067.28
709.93	1064.48
710.26	1058.39
710.60	1061.67
710.93	1065.18
711.27	1050.43
711.60	1049.96
711.94	1062.84
712.27	1064.71
712.61	1068.69
712.94	1071.03
713.28	1065.18
713.61	1055.82
713.95	1050.20
714.28	1046.92
714.62	1051.84
714.95	1056.75
715.29	1060.26
715.62	1071.97
715.96	1080.63
716.29	1080.86
716.63	1073.14
716.96	1073.37
717.29	1067.05
717.63	1059.33
717.96	1051.13
718.30	1066.35
718.63	1076.18
718.97	1079.46
719.30	1082.03
719.63	1097.48
719.97	1095.84
720.30	1092.09
720.64	1096.07
720.97	1092.56
721.30	1080.63
721.64	1076.41
721.97	1081.33
722.31	1078.75
722.64	1078.05
722.97	1082.50
723.31	1087.88
723.64	1086.48
723.97	1090.69
724.31	1095.14
724.64	1096.78
724.98	1088.58
725.31	1089.75
725.64	1088.35
725.98	1084.84
726.31	1075.48
726.64	1077.35
726.97	1070.09
727.31	1074.77
727.64	1077.35
727.97	1087.18
728.31	1075.94
728.64	1084.37
728.97	1079.46
729.31	1079.69
729.64	1075.71
729.97	1097.48
730.30	1092.56
730.64	1088.82
730.97	1090.46
731.30	1086.01
731.63	1070.56
731.97	1057.69
732.30	1069.39
732.63	1067.28
732.96	1062.60
733.30	1070.09
733.63	1078.28
733.96	1071.50
734.29	1076.88
734.63	1086.94
734.96	1085.77
735.29	1094.20
735.62	1091.39
735.95	1089.99
736.29	1090.92
736.62	1082.03
736.95	1073.37
737.28	1078.99
737.61	1072.20
737.94	1069.86
738.28	1080.39
738.61	1081.56
738.94	1077.58
739.27	1081.80
739.60	1078.99
739.93	1077.82
740.27	1078.28
740.60	1079.92
740.93	1084.60
741.26	1093.03
741.59	1091.39
741.92	1088.58
742.25	1084.37
742.58	1079.69
742.91	1071.97
743.25	1069.16
743.58	1063.54
743.91	1060.73
744.24	1058.62
744.57	1061.20
744.90	1058.86
745.23	1069.62
745.56	1083.67
745.89	1084.60
746.22	1078.05
746.55	1071.73
746.88	1075.94
747.21	1069.39
747.54	1062.84
747.87	1061.43
748.20	1067.28
748.53	1064.71
748.87	1065.88
749.20	1072.90
749.53	1075.71
749.86	1069.62
750.19	1067.52
750.52	1067.28
750.85	1067.75
751.18	1080.39
751.51	1090.92
751.84	1094.90
752.16	1088.35
752.49	1091.63
752.82	1091.86
753.15	1092.33
753.48	1090.46
753.81	1090.46
754.14	1090.22
754.47	1086.24
754.80	1091.39
755.13	1088.12
755.46	1094.43
755.79	1098.65
756.12	1097.24
756.45	1101.69
756.78	1103.56
757.11	1106.61
757.43	1097.48
757.76	1094.43
758.09	1089.52
758.42	1087.18
758.75	1081.09
759.08	1091.39
759.41	1103.09
759.74	1096.07
760.07	1089.52
760.39	1083.43
760.72	1068.45
761.05	1057.92
761.38	1062.84
761.71	1062.37
762.04	1067.75
762.36	1068.22
762.69	1070.33
763.02	1066.58
763.35	1064.01
763.68	1069.16
764.01	1069.62
764.33	1066.35
764.66	1069.39
764.99	1082.26
765.32	1082.03
765.65	1083.67
765.97	1091.63
766.30	1089.75
