SpectraSuite Data File
++++++++++++++++++++++++++++++++++++
Date: Mon Aug 26 10:25:59 PDT 2019
User: corrico
Dark Spectrum Present: No
Reference Spectrum Present: No
Number of Sampled Component Spectra: 1
Spectrometers: USB2+H06089
Integration Time (usec): 10000 (USB2+H06089)
Spectra Averaged: 2 (USB2+H06089)
Boxcar Smoothing: 2 (USB2+H06089)
Correct for Electrical Dark: No (USB2+H06089)
Strobe/Lamp Enabled: No (USB2+H06089)
Correct for Detector Non-linearity: No (USB2+H06089)
Correct for Stray Light: No (USB2+H06089)
Number of Pixels in Processed Spectrum: 2048
>>>>>Begin Processed Spectral Data<<<<<
339.70	1046.22
340.07	1046.22
340.45	1012.98
340.82	985.83
341.19	958.68
341.57	932.24
341.94	923.11
342.31	917.72
342.69	927.09
343.06	921.94
343.43	916.79
343.81	911.87
344.18	911.87
344.55	899.70
344.93	917.49
345.30	929.89
345.67	927.55
346.04	934.58
346.42	945.11
346.79	942.07
347.16	951.90
347.54	967.81
347.91	976.94
348.28	991.22
348.65	999.64
349.03	999.64
349.40	1006.20
349.77	1010.41
350.14	1021.41
350.52	1024.69
350.89	1047.86
351.26	1056.99
351.63	1067.75
352.01	1060.96
352.38	1072.67
352.75	1064.48
353.12	1061.90
353.50	1061.67
353.87	1070.33
354.24	1071.26
354.61	1073.14
354.98	1078.75
355.36	1086.94
355.73	1086.71
356.10	1091.39
356.47	1088.12
356.84	1080.39
357.22	1077.82
357.59	1078.52
357.96	1074.54
358.33	1083.20
358.70	1080.86
359.08	1085.77
359.45	1090.22
359.82	1091.39
360.19	1080.86
360.56	1091.39
360.94	1084.60
361.31	1086.24
361.68	1089.52
362.05	1088.12
362.42	1087.18
362.79	1085.31
363.16	1081.80
363.54	1077.35
363.91	1078.52
364.28	1072.43
364.65	1064.71
365.02	1057.92
365.39	1056.99
365.76	1060.50
366.14	1066.58
366.51	1077.35
366.88	1076.65
367.25	1070.09
367.62	1077.11
367.99	1073.37
368.36	1062.37
368.73	1063.31
369.10	1061.43
369.48	1055.58
369.85	1052.30
370.22	1062.84
370.59	1064.01
370.96	1067.52
371.33	1061.67
371.70	1060.26
372.07	1054.88
372.44	1045.99
372.81	1053.01
373.18	1051.13
373.55	1045.28
373.93	1052.30
374.30	1055.82
374.67	1048.09
375.04	1052.07
375.41	1063.31
375.78	1056.75
376.15	1053.48
376.52	1064.48
376.89	1069.86
377.26	1063.31
377.63	1064.01
378.00	1069.16
378.37	1056.75
378.74	1057.22
379.11	1055.58
379.48	1056.52
379.85	1058.86
380.22	1070.33
380.59	1066.58
380.96	1068.45
381.33	1068.92
381.70	1073.60
382.07	1075.01
382.44	1073.37
382.81	1080.86
383.18	1090.92
383.55	1095.37
383.92	1084.14
384.29	1095.84
384.66	1094.90
385.03	1086.48
385.40	1079.69
385.77	1082.50
386.14	1074.07
386.51	1073.60
386.88	1068.22
387.25	1064.71
387.62	1067.99
387.99	1070.09
388.36	1075.71
388.73	1079.22
389.10	1077.82
389.46	1086.48
389.83	1079.46
390.20	1071.26
390.57	1064.48
390.94	1070.56
391.31	1070.09
391.68	1067.05
392.05	1076.18
392.42	1086.24
392.79	1086.01
393.16	1080.39
393.53	1089.05
393.89	1089.29
394.26	1092.80
394.63	1090.22
395.00	1081.56
395.37	1083.20
395.74	1072.90
396.11	1057.92
396.48	1065.18
396.84	1070.80
397.21	1063.54
397.58	1073.84
397.95	1084.14
398.32	1092.09
398.69	1087.18
399.06	1093.26
399.42	1085.31
399.79	1087.41
400.16	1070.80
400.53	1071.26
400.90	1067.99
401.27	1068.22
401.64	1065.88
402.00	1066.35
402.37	1061.90
402.74	1065.18
403.11	1065.88
403.48	1064.01
403.84	1062.84
404.21	1070.80
404.58	1063.54
404.95	1069.62
405.32	1072.20
405.68	1074.54
406.05	1066.58
406.42	1068.22
406.79	1064.94
407.16	1068.45
407.52	1065.88
407.89	1075.94
408.26	1082.97
408.63	1081.09
408.99	1080.63
409.36	1092.56
409.73	1093.97
410.10	1085.77
410.47	1084.14
410.83	1075.24
411.20	1071.73
411.57	1071.03
411.94	1079.69
412.30	1089.52
412.67	1095.84
413.04	1085.54
413.40	1079.22
413.77	1074.77
414.14	1060.03
414.51	1056.75
414.87	1059.56
415.24	1062.60
415.61	1063.07
415.97	1066.35
416.34	1072.43
416.71	1076.41
417.08	1079.92
417.44	1078.52
417.81	1091.16
418.18	1092.56
418.54	1089.75
418.91	1088.35
419.28	1083.67
419.64	1078.99
420.01	1069.62
420.38	1063.54
420.74	1062.84
421.11	1064.48
421.48	1066.11
421.84	1071.97
422.21	1077.35
422.58	1080.16
422.94	1083.67
423.31	1097.95
423.68	1107.07
424.04	1107.31
424.41	1106.84
424.77	1111.75
425.14	1086.48
425.51	1078.75
425.87	1078.75
426.24	1074.31
426.61	1068.22
426.97	1071.03
427.34	1075.24
427.70	1067.99
428.07	1076.18
428.44	1083.20
428.80	1085.77
429.17	1073.60
429.53	1080.16
429.90	1078.75
430.27	1074.31
430.63	1072.43
431.00	1071.73
431.36	1075.71
431.73	1074.77
432.09	1071.26
432.46	1073.14
432.83	1088.35
433.19	1091.16
433.56	1086.24
433.92	1081.56
434.29	1085.07
434.65	1080.16
435.02	1075.01
435.38	1073.14
435.75	1082.50
436.11	1074.07
436.48	1075.94
436.84	1071.97
437.21	1070.33
437.57	1073.60
437.94	1076.41
438.30	1073.37
438.67	1080.63
439.03	1078.52
439.40	1079.22
439.76	1067.75
440.13	1063.31
440.49	1057.45
440.86	1065.41
441.22	1062.37
441.59	1071.03
441.95	1072.67
442.32	1078.99
442.68	1080.39
443.05	1079.69
443.41	1093.26
443.78	1098.18
444.14	1096.07
444.51	1090.46
444.87	1090.22
445.24	1081.56
445.60	1071.73
445.96	1069.62
446.33	1081.56
446.69	1082.97
447.06	1082.73
447.42	1086.94
447.79	1093.26
448.15	1092.33
448.51	1088.82
448.88	1087.41
449.24	1088.12
449.61	1087.41
449.97	1079.92
450.33	1081.33
450.70	1080.86
451.06	1079.92
451.43	1085.07
451.79	1083.43
452.15	1085.54
452.52	1080.63
452.88	1080.86
453.24	1075.01
453.61	1068.45
453.97	1072.43
454.34	1078.99
454.70	1080.16
455.06	1072.67
455.43	1074.07
455.79	1068.92
456.15	1065.65
456.52	1065.18
456.88	1063.54
457.24	1065.88
457.61	1061.90
457.97	1060.26
458.33	1053.94
458.70	1052.07
459.06	1060.03
459.42	1065.88
459.79	1074.07
460.15	1074.54
460.51	1085.31
460.88	1074.07
461.24	1068.69
461.60	1063.77
461.96	1075.24
462.33	1073.60
462.69	1080.63
463.05	1083.20
463.42	1090.46
463.78	1084.60
464.14	1084.84
464.50	1086.94
464.87	1097.01
465.23	1082.26
465.59	1083.67
465.95	1083.20
466.32	1082.50
466.68	1074.54
467.04	1086.94
467.40	1081.80
467.77	1076.88
468.13	1075.94
468.49	1064.94
468.85	1061.43
469.22	1066.35
469.58	1074.54
469.94	1077.82
470.30	1079.22
470.66	1077.11
471.03	1081.09
471.39	1080.16
471.75	1075.01
472.11	1089.52
472.47	1098.41
472.84	1086.48
473.20	1084.60
473.56	1091.63
473.92	1073.37
474.28	1065.41
474.65	1077.58
475.01	1073.60
475.37	1068.69
475.73	1079.69
476.09	1076.41
476.45	1075.01
476.81	1072.67
477.18	1075.48
477.54	1081.56
477.90	1089.99
478.26	1083.67
478.62	1084.84
478.98	1076.65
479.34	1074.07
479.71	1067.05
480.07	1074.54
480.43	1077.11
480.79	1084.60
481.15	1091.39
481.51	1106.84
481.87	1100.05
482.23	1101.22
482.59	1111.29
482.96	1098.18
483.32	1085.31
483.68	1091.63
484.04	1089.05
484.40	1075.48
484.76	1090.69
485.12	1093.50
485.48	1085.07
485.84	1088.58
486.20	1090.46
486.56	1074.77
486.92	1081.56
487.28	1088.35
487.64	1084.14
488.00	1080.63
488.37	1083.67
488.73	1072.43
489.09	1078.28
489.45	1087.88
489.81	1090.92
490.17	1090.69
490.53	1095.14
490.89	1086.01
491.25	1079.46
491.61	1094.20
491.97	1101.46
492.33	1104.50
492.69	1102.86
493.05	1098.65
493.41	1091.63
493.77	1092.33
494.13	1078.28
494.49	1083.20
494.85	1093.73
495.21	1093.73
495.57	1095.14
495.93	1116.90
496.29	1113.16
496.64	1100.99
497.00	1092.09
497.36	1082.26
497.72	1072.90
498.08	1074.77
498.44	1077.58
498.80	1073.14
499.16	1076.18
499.52	1077.82
499.88	1081.33
500.24	1095.37
500.60	1096.31
500.96	1094.43
501.32	1090.46
501.68	1079.46
502.03	1067.52
502.39	1086.24
502.75	1088.82
503.11	1086.71
503.47	1090.92
503.83	1096.31
504.19	1079.92
504.55	1080.16
504.91	1074.77
505.26	1072.43
505.62	1068.45
505.98	1073.37
506.34	1061.67
506.70	1076.65
507.06	1086.94
507.42	1089.29
507.78	1084.14
508.13	1092.09
508.49	1085.54
508.85	1087.18
509.21	1085.54
509.57	1091.39
509.93	1085.31
510.28	1083.20
510.64	1077.58
511.00	1086.71
511.36	1076.41
511.72	1081.33
512.07	1087.41
512.43	1091.16
512.79	1080.63
513.15	1089.29
513.51	1095.37
513.86	1092.09
514.22	1095.60
514.58	1098.88
514.94	1099.58
515.30	1102.86
515.65	1104.26
516.01	1100.05
516.37	1097.24
516.73	1089.99
517.08	1085.07
517.44	1084.60
517.80	1085.07
518.16	1080.16
518.51	1078.52
518.87	1072.90
519.23	1068.45
519.59	1068.45
519.94	1082.73
520.30	1098.41
520.66	1104.50
521.01	1111.52
521.37	1102.63
521.73	1101.69
522.09	1105.44
522.44	1111.29
522.80	1111.52
523.16	1115.97
523.51	1110.82
523.87	1110.35
524.23	1109.88
524.58	1109.65
524.94	1112.46
525.30	1113.86
525.65	1101.69
526.01	1092.09
526.37	1078.28
526.72	1085.77
527.08	1084.37
527.44	1090.69
527.79	1098.41
528.15	1102.86
528.51	1089.52
528.86	1084.14
529.22	1076.65
529.58	1081.80
529.93	1091.16
530.29	1088.82
530.65	1107.31
531.00	1110.12
531.36	1098.88
531.71	1090.22
532.07	1095.14
532.43	1085.77
532.78	1085.54
533.14	1093.26
533.49	1098.18
533.85	1108.71
534.21	1100.52
534.56	1102.39
534.92	1089.99
535.27	1090.92
535.63	1086.48
535.98	1090.46
536.34	1093.97
536.69	1094.43
537.05	1088.35
537.41	1072.43
537.76	1068.45
538.12	1060.73
538.47	1072.43
538.83	1075.48
539.18	1083.67
539.54	1091.86
539.89	1094.67
540.25	1090.46
540.60	1092.80
540.96	1094.90
541.31	1095.37
541.67	1087.41
542.02	1089.29
542.38	1088.58
542.73	1087.65
543.09	1084.37
543.44	1089.05
543.80	1087.18
544.15	1084.14
544.51	1090.46
544.86	1085.77
545.22	1091.39
545.57	1086.94
545.93	1092.56
546.28	1086.48
546.64	1096.07
546.99	1090.92
547.35	1090.69
547.70	1083.20
548.05	1089.52
548.41	1093.03
548.76	1089.75
549.12	1087.88
549.47	1089.05
549.83	1087.88
550.18	1064.24
550.53	1072.20
550.89	1075.24
551.24	1081.80
551.60	1082.50
551.95	1100.29
552.30	1102.16
552.66	1108.24
553.01	1098.65
553.37	1091.86
553.72	1086.71
554.07	1080.16
554.43	1074.54
554.78	1081.09
555.13	1084.14
555.49	1082.97
555.84	1089.52
556.19	1097.95
556.55	1098.88
556.90	1093.73
557.26	1092.33
557.61	1076.65
557.96	1073.60
558.32	1078.99
558.67	1081.09
559.02	1074.07
559.37	1085.07
559.73	1072.43
560.08	1063.77
560.43	1060.73
560.79	1067.28
561.14	1067.28
561.49	1072.67
561.85	1068.69
562.20	1078.52
562.55	1071.73
562.90	1072.43
563.26	1074.77
563.61	1082.26
563.96	1078.05
564.32	1084.14
564.67	1084.84
565.02	1079.92
565.37	1084.60
565.73	1082.73
566.08	1077.11
566.43	1073.37
566.78	1070.09
567.14	1065.65
567.49	1062.37
567.84	1072.90
568.19	1074.77
568.54	1081.80
568.90	1079.92
569.25	1084.60
569.60	1080.16
569.95	1087.65
570.31	1087.18
570.66	1090.22
571.01	1091.63
571.36	1094.43
571.71	1084.84
572.06	1080.39
572.42	1076.65
572.77	1070.33
573.12	1069.62
573.47	1067.99
573.82	1067.05
574.18	1069.39
574.53	1071.26
574.88	1079.22
575.23	1086.24
575.58	1085.77
575.93	1084.14
576.28	1083.20
576.64	1077.11
576.99	1067.52
577.34	1072.20
577.69	1074.54
578.04	1072.67
578.39	1071.73
578.74	1076.41
579.09	1082.73
579.44	1080.86
579.80	1088.58
580.15	1091.16
580.50	1091.39
580.85	1089.29
581.20	1092.80
581.55	1084.14
581.90	1082.97
582.25	1090.92
582.60	1095.37
582.95	1091.39
583.30	1101.69
583.65	1100.05
584.00	1087.41
584.35	1085.07
584.71	1078.05
585.06	1073.84
585.41	1079.92
585.76	1078.75
586.11	1082.50
586.46	1085.07
586.81	1083.90
587.16	1072.43
587.51	1082.26
587.86	1078.75
588.21	1081.33
588.56	1085.77
588.91	1096.31
589.26	1098.88
589.61	1086.24
589.96	1085.07
590.31	1084.37
590.66	1075.01
591.01	1067.99
591.36	1072.67
591.71	1064.48
592.06	1055.82
592.41	1057.45
592.76	1054.18
593.10	1055.35
593.45	1073.60
593.80	1077.82
594.15	1081.80
594.50	1089.05
594.85	1100.05
595.20	1088.58
595.55	1090.46
595.90	1089.75
596.25	1079.46
596.60	1063.31
596.95	1078.28
597.30	1077.11
597.64	1118.07
597.99	1131.88
598.34	1142.42
598.69	1126.50
599.04	1129.07
599.39	1090.69
599.74	1078.52
600.09	1082.26
600.44	1093.26
600.78	1089.99
601.13	1080.39
601.48	1085.31
601.83	1084.60
602.18	1076.18
602.53	1087.41
602.88	1094.67
603.22	1100.29
603.57	1098.88
603.92	1106.37
604.27	1098.18
604.62	1093.26
604.97	1088.82
605.31	1070.80
605.66	1066.82
606.01	1074.07
606.36	1072.90
606.71	1062.14
607.05	1080.86
607.40	1083.20
607.75	1069.62
608.10	1072.20
608.44	1076.88
608.79	1064.71
609.14	1065.88
609.49	1074.54
609.84	1073.14
610.18	1078.75
610.53	1082.97
610.88	1087.88
611.23	1081.80
611.57	1085.54
611.92	1083.90
612.27	1095.60
612.62	1092.09
612.96	1092.09
613.31	1087.65
613.66	1083.67
614.00	1071.97
614.35	1069.86
614.70	1073.14
615.05	1075.24
615.39	1080.63
615.74	1075.48
616.09	1078.52
616.43	1078.75
616.78	1078.28
617.13	1077.11
617.47	1082.97
617.82	1070.09
618.17	1065.18
618.51	1072.43
618.86	1070.80
619.21	1073.84
619.55	1084.60
619.90	1091.63
620.25	1085.07
620.59	1088.12
620.94	1093.73
621.29	1096.54
621.63	1098.88
621.98	1098.88
622.32	1097.24
622.67	1078.05
623.02	1072.43
623.36	1054.65
623.71	1050.20
624.05	1050.67
624.40	1061.20
624.75	1060.73
625.09	1077.82
625.44	1090.92
625.78	1095.14
626.13	1102.39
626.48	1093.97
626.82	1091.63
627.17	1084.84
627.51	1084.60
627.86	1082.26
628.20	1083.90
628.55	1081.33
628.89	1086.24
629.24	1083.20
629.58	1094.20
629.93	1100.29
630.28	1109.88
630.62	1111.99
630.97	1115.03
631.31	1099.82
631.66	1103.33
632.00	1096.07
632.35	1092.80
632.69	1083.43
633.04	1080.86
633.38	1076.88
633.73	1076.65
634.07	1064.24
634.42	1074.54
634.76	1078.52
635.11	1081.09
635.45	1082.73
635.79	1094.90
636.14	1088.82
636.48	1084.84
636.83	1068.69
637.17	1072.20
637.52	1074.07
637.86	1078.52
638.21	1091.16
638.55	1116.67
638.89	1109.88
639.24	1095.84
639.58	1099.12
639.93	1086.48
640.27	1071.97
640.61	1066.82
640.96	1082.26
641.30	1084.84
641.65	1092.80
641.99	1094.20
642.33	1098.18
642.68	1091.16
643.02	1085.07
643.37	1084.60
643.71	1092.33
644.05	1104.03
644.40	1104.26
644.74	1108.48
645.08	1101.22
645.43	1096.07
645.77	1074.07
646.11	1070.33
646.46	1068.92
646.80	1075.01
647.14	1073.14
647.49	1078.99
647.83	1086.01
648.17	1078.28
648.52	1075.71
648.86	1073.37
649.20	1082.50
649.55	1085.07
649.89	1083.20
650.23	1092.56
650.57	1092.80
650.92	1092.56
651.26	1078.99
651.60	1088.35
651.95	1071.97
652.29	1074.54
652.63	1070.09
652.97	1079.22
653.32	1083.20
653.66	1099.58
654.00	1097.48
654.34	1103.09
654.69	1096.78
655.03	1082.03
655.37	1074.54
655.71	1067.05
656.05	1069.39
656.40	1075.01
656.74	1081.33
657.08	1082.97
657.42	1102.86
657.76	1104.26
658.11	1100.99
658.45	1100.99
658.79	1095.60
659.13	1086.71
659.47	1084.84
659.82	1083.67
660.16	1081.09
660.50	1082.50
660.84	1082.26
661.18	1076.88
661.52	1076.18
661.87	1079.46
662.21	1079.22
662.55	1078.52
662.89	1074.77
663.23	1070.33
663.57	1073.14
663.91	1072.90
664.25	1067.99
664.60	1071.50
664.94	1072.67
665.28	1065.18
665.62	1068.69
665.96	1075.71
666.30	1084.60
666.64	1096.54
666.98	1100.29
667.32	1099.82
667.66	1100.75
668.01	1087.88
668.35	1084.60
668.69	1078.52
669.03	1077.35
669.37	1070.56
669.71	1081.56
670.05	1081.80
670.39	1090.69
670.73	1086.94
671.07	1093.50
671.41	1089.29
671.75	1082.03
672.09	1074.54
672.43	1070.09
672.77	1065.65
673.11	1058.86
673.45	1068.45
673.79	1070.80
674.13	1076.18
674.47	1069.86
674.81	1071.03
675.15	1071.97
675.49	1073.14
675.83	1077.35
676.17	1086.01
676.51	1077.11
676.85	1074.54
677.19	1078.28
677.53	1080.63
677.87	1079.69
678.21	1089.05
678.55	1086.94
678.89	1083.90
679.23	1064.48
679.57	1056.05
679.90	1048.09
680.24	1044.82
680.58	1047.39
680.92	1070.33
681.26	1079.92
681.60	1081.80
681.94	1085.07
682.28	1086.24
682.62	1087.18
682.96	1086.71
683.29	1090.69
683.63	1090.22
683.97	1085.54
684.31	1083.67
684.65	1080.63
684.99	1087.18
685.33	1085.77
685.67	1077.82
686.00	1063.54
686.34	1066.82
686.68	1061.20
687.02	1061.67
687.36	1073.37
687.70	1072.90
688.03	1073.37
688.37	1076.18
688.71	1070.33
689.05	1064.71
689.39	1066.11
689.72	1067.52
690.06	1068.92
690.40	1077.11
690.74	1088.12
691.08	1091.86
691.41	1085.07
691.75	1091.16
692.09	1098.65
692.43	1089.29
692.76	1089.29
693.10	1101.69
693.44	1089.05
693.78	1077.35
694.11	1083.67
694.45	1079.46
694.79	1066.35
695.13	1074.54
695.46	1080.39
695.80	1068.69
696.14	1072.90
696.48	1069.86
696.81	1064.94
697.15	1061.20
697.49	1073.60
697.82	1073.84
698.16	1077.11
698.50	1086.94
698.83	1085.54
699.17	1082.26
699.51	1084.14
699.84	1084.84
700.18	1076.65
700.52	1076.18
700.85	1066.82
701.19	1074.54
701.53	1073.60
701.86	1075.01
702.20	1073.60
702.54	1077.11
702.87	1068.92
703.21	1066.58
703.55	1063.77
703.88	1066.11
704.22	1075.48
704.55	1076.18
704.89	1087.65
705.23	1088.58
705.56	1093.26
705.90	1077.58
706.23	1086.01
706.57	1078.28
706.91	1072.67
707.24	1078.75
707.58	1090.22
707.91	1081.56
708.25	1082.73
708.58	1091.63
708.92	1088.82
709.26	1086.48
709.59	1095.37
709.93	1095.14
710.26	1086.48
710.60	1083.43
710.93	1089.05
711.27	1092.09
711.60	1100.05
711.94	1099.82
712.27	1099.82
712.61	1092.09
712.94	1074.77
713.28	1062.14
713.61	1074.07
713.95	1065.18
714.28	1075.94
714.62	1083.20
714.95	1094.43
715.29	1097.48
715.62	1104.50
715.96	1107.78
716.29	1107.31
716.63	1106.37
716.96	1093.03
717.29	1090.22
717.63	1078.75
717.96	1067.99
718.30	1064.94
718.63	1065.65
718.97	1064.24
719.30	1061.20
719.63	1069.16
719.97	1066.11
720.30	1069.86
720.64	1073.60
720.97	1071.97
721.30	1071.26
721.64	1081.56
721.97	1087.65
722.31	1091.39
722.64	1101.22
722.97	1100.05
723.31	1094.90
723.64	1090.22
723.97	1087.18
724.31	1093.50
724.64	1101.22
724.98	1093.50
725.31	1089.99
725.64	1088.82
725.98	1077.11
726.31	1068.92
726.64	1077.58
726.97	1078.99
727.31	1089.52
727.64	1093.26
727.97	1098.65
728.31	1102.86
728.64	1107.07
728.97	1101.46
729.31	1092.09
729.64	1094.67
729.97	1083.43
730.30	1079.92
730.64	1072.43
730.97	1071.73
731.30	1070.33
731.63	1075.01
731.97	1082.73
732.30	1086.24
732.63	1091.86
732.96	1090.22
733.30	1083.20
733.63	1072.43
733.96	1072.20
734.29	1075.48
734.63	1072.67
734.96	1076.18
735.29	1075.01
735.62	1076.88
735.95	1075.94
736.29	1073.60
736.62	1072.43
736.95	1069.39
737.28	1072.20
737.61	1070.09
737.94	1073.84
738.28	1073.60
738.61	1070.80
738.94	1061.67
739.27	1070.33
739.60	1067.99
739.93	1074.31
740.27	1085.07
740.60	1086.01
740.93	1080.39
741.26	1082.50
741.59	1087.41
741.92	1081.33
742.25	1078.52
742.58	1073.60
742.91	1078.52
743.25	1070.33
743.58	1080.39
743.91	1087.65
744.24	1088.58
744.57	1084.60
744.90	1086.94
745.23	1084.84
745.56	1074.31
745.89	1075.71
746.22	1076.18
746.55	1069.86
746.88	1075.24
747.21	1081.56
747.54	1076.65
747.87	1077.11
748.20	1079.22
748.53	1072.90
748.87	1081.80
749.20	1084.37
749.53	1092.09
749.86	1086.94
750.19	1079.46
750.52	1072.90
750.85	1074.77
751.18	1064.24
751.51	1069.62
751.84	1076.18
752.16	1080.16
752.49	1082.97
752.82	1081.09
753.15	1080.86
753.48	1077.11
753.81	1065.65
754.14	1070.80
754.47	1073.60
754.80	1075.24
755.13	1066.82
755.46	1075.24
755.79	1070.33
756.12	1082.50
756.45	1084.37
756.78	1097.01
757.11	1111.99
757.43	1114.10
757.76	1102.39
758.09	1099.82
758.42	1099.35
758.75	1081.56
759.08	1079.92
759.41	1074.77
759.74	1077.35
760.07	1074.31
760.39	1080.86
760.72	1076.65
761.05	1079.22
761.38	1082.03
761.71	1093.03
762.04	1093.03
762.36	1089.75
762.69	1090.69
763.02	1088.82
763.35	1080.16
763.68	1065.65
764.01	1070.09
764.33	1064.24
764.66	1058.16
764.99	1054.65
765.32	1060.50
765.65	1070.80
765.97	1082.73
766.30	1088.82
