SpectraSuite Data File
++++++++++++++++++++++++++++++++++++
Date: Mon Aug 26 10:25:56 PDT 2019
User: corrico
Dark Spectrum Present: No
Reference Spectrum Present: No
Number of Sampled Component Spectra: 1
Spectrometers: USB2+H06089
Integration Time (usec): 10000 (USB2+H06089)
Spectra Averaged: 2 (USB2+H06089)
Boxcar Smoothing: 2 (USB2+H06089)
Correct for Electrical Dark: No (USB2+H06089)
Strobe/Lamp Enabled: No (USB2+H06089)
Correct for Detector Non-linearity: No (USB2+H06089)
Correct for Stray Light: No (USB2+H06089)
Number of Pixels in Processed Spectrum: 2048
>>>>>Begin Processed Spectral Data<<<<<
339.70	1048.56
340.07	1048.56
340.45	1000.34
340.82	973.19
341.19	939.96
341.57	915.15
341.94	909.30
342.31	911.64
342.69	909.77
343.06	911.64
343.43	903.21
343.81	900.87
344.18	899.00
344.55	909.30
344.93	916.09
345.30	922.64
345.67	933.64
346.04	939.26
346.42	932.47
346.79	933.17
347.16	944.87
347.54	952.83
347.91	951.90
348.28	973.90
348.65	982.79
349.03	987.24
349.40	989.11
349.77	1003.62
350.14	994.96
350.52	1011.35
350.89	1018.37
351.26	1020.47
351.63	1033.81
352.01	1058.62
352.38	1057.45
352.75	1060.50
353.12	1068.92
353.50	1065.18
353.87	1049.73
354.24	1059.09
354.61	1055.58
354.98	1066.35
355.36	1075.71
355.73	1083.67
356.10	1077.11
356.47	1085.54
356.84	1077.11
357.22	1073.14
357.59	1070.80
357.96	1068.92
358.33	1061.67
358.70	1067.99
359.08	1070.09
359.45	1071.26
359.82	1079.22
360.19	1084.37
360.56	1081.33
360.94	1070.33
361.31	1069.86
361.68	1059.56
362.05	1064.01
362.42	1063.07
362.79	1066.11
363.16	1069.86
363.54	1078.28
363.91	1070.33
364.28	1069.62
364.65	1072.43
365.02	1076.18
365.39	1062.37
365.76	1071.26
366.14	1075.24
366.51	1064.24
366.88	1069.39
367.25	1075.71
367.62	1071.97
367.99	1063.54
368.36	1080.39
368.73	1067.99
369.10	1071.50
369.48	1072.43
369.85	1083.90
370.22	1075.24
370.59	1075.94
370.96	1071.50
371.33	1075.71
371.70	1064.24
372.07	1053.71
372.44	1054.18
372.81	1062.60
373.18	1060.26
373.55	1070.33
373.93	1080.16
374.30	1082.50
374.67	1087.88
375.04	1080.63
375.41	1067.99
375.78	1055.82
376.15	1061.67
376.52	1059.56
376.89	1065.88
377.26	1074.77
377.63	1085.31
378.00	1082.26
378.37	1080.16
378.74	1064.01
379.11	1068.45
379.48	1073.37
379.85	1062.37
380.22	1056.28
380.59	1067.75
380.96	1058.39
381.33	1055.35
381.70	1056.99
382.07	1057.45
382.44	1056.75
382.81	1055.11
383.18	1053.48
383.55	1056.75
383.92	1053.71
384.29	1048.56
384.66	1052.77
385.03	1045.28
385.40	1043.64
385.77	1045.05
386.14	1048.33
386.51	1051.13
386.88	1064.94
387.25	1069.62
387.62	1084.60
387.99	1093.26
388.36	1087.41
388.73	1083.67
389.10	1076.88
389.46	1078.99
389.83	1078.05
390.20	1079.69
390.57	1083.67
390.94	1090.46
391.31	1074.54
391.68	1068.22
392.05	1066.11
392.42	1063.31
392.79	1062.14
393.16	1067.05
393.53	1073.14
393.89	1085.77
394.26	1074.54
394.63	1081.56
395.00	1079.69
395.37	1082.50
395.74	1072.67
396.11	1088.12
396.48	1091.39
396.84	1094.90
397.21	1108.95
397.58	1117.61
397.95	1117.14
398.32	1107.78
398.69	1103.56
399.06	1086.94
399.42	1076.65
399.79	1078.99
400.16	1079.46
400.53	1074.54
400.90	1068.69
401.27	1068.92
401.64	1059.33
402.00	1055.35
402.37	1063.31
402.74	1067.28
403.11	1066.11
403.48	1067.75
403.84	1076.88
404.21	1071.97
404.58	1075.71
404.95	1082.03
405.32	1085.54
405.68	1080.63
406.05	1083.20
406.42	1075.94
406.79	1071.73
407.16	1059.33
407.52	1048.56
407.89	1054.65
408.26	1058.39
408.63	1060.03
408.99	1077.58
409.36	1083.67
409.73	1080.16
410.10	1074.54
410.47	1078.75
410.83	1075.24
411.20	1076.88
411.57	1076.41
411.94	1079.92
412.30	1078.52
412.67	1079.46
413.04	1077.11
413.40	1068.22
413.77	1064.24
414.14	1063.54
414.51	1053.01
414.87	1061.20
415.24	1072.67
415.61	1085.54
415.97	1083.90
416.34	1091.39
416.71	1091.63
417.08	1093.03
417.44	1097.71
417.81	1097.24
418.18	1097.01
418.54	1089.05
418.91	1086.24
419.28	1076.18
419.64	1077.82
420.01	1082.73
420.38	1087.41
420.74	1088.82
421.11	1079.92
421.48	1075.48
421.84	1066.11
422.21	1056.52
422.58	1062.60
422.94	1071.26
423.31	1072.20
423.68	1077.11
424.04	1089.75
424.41	1079.92
424.77	1082.50
425.14	1079.22
425.51	1070.56
425.87	1077.35
426.24	1072.43
426.61	1069.16
426.97	1068.45
427.34	1079.69
427.70	1078.52
428.07	1074.31
428.44	1072.67
428.80	1071.26
429.17	1066.82
429.53	1061.20
429.90	1062.60
430.27	1062.84
430.63	1065.65
431.00	1073.37
431.36	1068.22
431.73	1069.16
432.09	1074.07
432.46	1079.46
432.83	1075.71
433.19	1081.80
433.56	1083.67
433.92	1077.35
434.29	1071.50
434.65	1058.86
435.02	1053.71
435.38	1059.09
435.75	1072.90
436.11	1080.86
436.48	1092.80
436.84	1088.58
437.21	1083.43
437.57	1070.09
437.94	1066.11
438.30	1065.18
438.67	1073.84
439.03	1071.73
439.40	1078.52
439.76	1074.31
440.13	1070.33
440.49	1057.92
440.86	1067.52
441.22	1055.58
441.59	1062.84
441.95	1064.24
442.32	1066.11
442.68	1067.28
443.05	1074.54
443.41	1084.84
443.78	1081.09
444.14	1082.73
444.51	1078.28
444.87	1081.33
445.24	1077.11
445.60	1084.84
445.96	1100.29
446.33	1091.39
446.69	1086.24
447.06	1080.63
447.42	1076.65
447.79	1065.65
448.15	1078.52
448.51	1078.99
448.88	1080.16
449.24	1081.80
449.61	1077.35
449.97	1071.50
450.33	1067.75
450.70	1065.41
451.06	1060.96
451.43	1058.39
451.79	1065.41
452.15	1076.18
452.52	1079.92
452.88	1074.07
453.24	1072.67
453.61	1067.52
453.97	1059.33
454.34	1054.18
454.70	1060.73
455.06	1069.86
455.43	1072.67
455.79	1075.48
456.15	1078.99
456.52	1090.69
456.88	1079.46
457.24	1068.92
457.61	1067.52
457.97	1067.99
458.33	1069.62
458.70	1082.03
459.06	1081.56
459.42	1082.26
459.79	1084.37
460.15	1080.39
460.51	1076.41
460.88	1088.58
461.24	1081.09
461.60	1083.43
461.96	1069.86
462.33	1079.22
462.69	1075.24
463.05	1080.86
463.42	1070.80
463.78	1071.50
464.14	1069.16
464.50	1064.94
464.87	1075.48
465.23	1085.07
465.59	1092.80
465.95	1090.92
466.32	1090.46
466.68	1082.73
467.04	1078.99
467.40	1082.97
467.77	1082.50
468.13	1089.05
468.49	1085.07
468.85	1089.75
469.22	1093.26
469.58	1090.92
469.94	1087.18
470.30	1087.65
470.66	1080.63
471.03	1068.22
471.39	1070.33
471.75	1075.24
472.11	1079.22
472.47	1075.94
472.84	1075.01
473.20	1074.07
473.56	1072.90
473.92	1078.28
474.28	1079.92
474.65	1081.33
475.01	1085.54
475.37	1082.03
475.73	1079.22
476.09	1082.26
476.45	1082.03
476.81	1071.26
477.18	1080.16
477.54	1081.09
477.90	1077.58
478.26	1086.48
478.62	1084.14
478.98	1075.24
479.34	1067.28
479.71	1064.48
480.07	1061.43
480.43	1060.50
480.79	1060.26
481.15	1065.65
481.51	1071.50
481.87	1077.11
482.23	1083.43
482.59	1085.54
482.96	1084.37
483.32	1085.31
483.68	1081.33
484.04	1092.56
484.40	1096.07
484.76	1094.90
485.12	1097.01
485.48	1094.67
485.84	1093.73
486.20	1087.88
486.56	1092.80
486.92	1094.90
487.28	1088.12
487.64	1069.62
488.00	1074.54
488.37	1063.54
488.73	1055.35
489.09	1056.75
489.45	1057.92
489.81	1055.35
490.17	1066.11
490.53	1071.73
490.89	1075.01
491.25	1082.97
491.61	1090.92
491.97	1087.41
492.33	1082.97
492.69	1091.16
493.05	1095.14
493.41	1082.03
493.77	1088.82
494.13	1088.12
494.49	1085.31
494.85	1080.16
495.21	1072.20
495.57	1059.33
495.93	1059.79
496.29	1058.86
496.64	1063.31
497.00	1070.09
497.36	1072.43
497.72	1086.71
498.08	1082.97
498.44	1082.26
498.80	1087.65
499.16	1082.97
499.52	1075.01
499.88	1076.41
500.24	1075.71
500.60	1086.01
500.96	1097.01
501.32	1097.24
501.68	1094.67
502.03	1093.26
502.39	1086.01
502.75	1082.50
503.11	1081.80
503.47	1089.52
503.83	1084.14
504.19	1088.12
504.55	1087.41
504.91	1079.46
505.26	1075.71
505.62	1078.52
505.98	1073.14
506.34	1070.80
506.70	1074.31
507.06	1068.92
507.42	1070.09
507.78	1076.65
508.13	1084.37
508.49	1080.63
508.85	1075.24
509.21	1081.33
509.57	1074.07
509.93	1066.11
510.28	1063.07
510.64	1080.63
511.00	1074.31
511.36	1073.14
511.72	1078.05
512.07	1081.80
512.43	1075.94
512.79	1086.71
513.15	1096.07
513.51	1094.67
513.86	1109.65
514.22	1109.88
514.58	1111.29
514.94	1106.61
515.30	1104.03
515.65	1097.24
516.01	1105.67
516.37	1090.69
516.73	1089.52
517.08	1088.58
517.44	1087.18
517.80	1075.48
518.16	1086.48
518.51	1086.48
518.87	1093.73
519.23	1093.97
519.59	1102.63
519.94	1104.50
520.30	1104.50
520.66	1095.14
521.01	1085.54
521.37	1075.24
521.73	1069.39
522.09	1065.88
522.44	1079.92
522.80	1082.73
523.16	1094.67
523.51	1100.29
523.87	1104.73
524.23	1097.24
524.58	1096.78
524.94	1091.86
525.30	1087.65
525.65	1086.94
526.01	1086.71
526.37	1089.52
526.72	1088.35
527.08	1091.86
527.44	1078.28
527.79	1082.26
528.15	1088.58
528.51	1095.37
528.86	1093.97
529.22	1112.69
529.58	1121.82
529.93	1122.05
530.29	1103.56
530.65	1095.14
531.00	1088.82
531.36	1081.33
531.71	1071.97
532.07	1091.63
532.43	1098.65
532.78	1101.69
533.14	1110.82
533.49	1118.07
533.85	1118.31
534.21	1115.03
534.56	1109.88
534.92	1095.60
535.27	1087.88
535.63	1083.43
535.98	1087.41
536.34	1085.07
536.69	1096.07
537.05	1104.97
537.41	1090.46
537.76	1081.09
538.12	1084.60
538.47	1061.20
538.83	1062.37
539.18	1068.92
539.54	1074.07
539.89	1082.73
540.25	1096.54
540.60	1097.01
540.96	1096.78
541.31	1097.71
541.67	1087.18
542.02	1097.01
542.38	1086.24
542.73	1092.80
543.09	1089.52
543.44	1099.58
543.80	1094.43
544.15	1097.24
544.51	1085.31
544.86	1097.95
545.22	1096.54
545.57	1096.54
545.93	1105.90
546.28	1107.54
546.64	1108.01
546.99	1103.56
547.35	1095.14
547.70	1085.31
548.05	1094.43
548.41	1089.52
548.76	1077.11
549.12	1074.54
549.47	1076.65
549.83	1069.39
550.18	1070.80
550.53	1086.24
550.89	1090.22
551.24	1091.86
551.60	1101.22
551.95	1098.41
552.30	1094.20
552.66	1096.07
553.01	1092.80
553.37	1086.48
553.72	1083.43
554.07	1077.35
554.43	1073.14
554.78	1078.05
555.13	1072.43
555.49	1070.33
555.84	1072.20
556.19	1067.75
556.55	1065.88
556.90	1065.65
557.26	1067.99
557.61	1075.24
557.96	1083.20
558.32	1076.88
558.67	1083.90
559.02	1083.67
559.37	1075.71
559.73	1073.37
560.08	1068.22
560.43	1065.88
560.79	1066.11
561.14	1066.35
561.49	1075.24
561.85	1084.14
562.20	1081.33
562.55	1077.11
562.90	1080.39
563.26	1073.84
563.61	1070.09
563.96	1076.88
564.32	1076.65
564.67	1070.56
565.02	1082.26
565.37	1084.60
565.73	1076.88
566.08	1086.01
566.43	1097.48
566.78	1091.16
567.14	1091.39
567.49	1093.26
567.84	1080.63
568.19	1084.84
568.54	1070.56
568.90	1074.77
569.25	1078.52
569.60	1089.05
569.95	1082.50
570.31	1097.24
570.66	1089.05
571.01	1085.31
571.36	1082.73
571.71	1065.65
572.06	1058.16
572.42	1062.14
572.77	1071.26
573.12	1065.65
573.47	1079.22
573.82	1071.73
574.18	1076.65
574.53	1062.84
574.88	1063.77
575.23	1069.86
575.58	1075.48
575.93	1070.56
576.28	1078.75
576.64	1081.56
576.99	1085.07
577.34	1090.22
577.69	1094.43
578.04	1092.09
578.39	1094.43
578.74	1079.46
579.09	1068.92
579.44	1059.09
579.80	1057.69
580.15	1057.92
580.50	1070.80
580.85	1078.05
581.20	1079.46
581.55	1080.86
581.90	1081.33
582.25	1065.41
582.60	1067.75
582.95	1080.86
583.30	1083.43
583.65	1074.07
584.00	1080.39
584.35	1074.54
584.71	1075.94
585.06	1082.03
585.41	1084.84
585.76	1095.84
586.11	1106.37
586.46	1091.16
586.81	1087.65
587.16	1088.12
587.51	1082.50
587.86	1073.60
588.21	1079.69
588.56	1071.03
588.91	1070.56
589.26	1074.77
589.61	1084.84
589.96	1085.54
590.31	1097.71
590.66	1104.26
591.01	1103.09
591.36	1099.12
591.71	1096.54
592.06	1084.37
592.41	1076.18
592.76	1067.99
593.10	1062.37
593.45	1063.54
593.80	1073.84
594.15	1074.31
594.50	1079.22
594.85	1082.26
595.20	1078.99
595.55	1075.94
595.90	1076.41
596.25	1071.03
596.60	1070.33
596.95	1075.48
597.30	1073.14
597.64	1137.03
597.99	1141.01
598.34	1133.29
598.69	1132.35
599.04	1130.01
599.39	1067.75
599.74	1059.09
600.09	1067.28
600.44	1069.62
600.78	1071.73
601.13	1073.14
601.48	1078.52
601.83	1073.84
602.18	1067.99
602.53	1073.60
602.88	1068.45
603.22	1068.22
603.57	1068.22
603.92	1073.60
604.27	1071.97
604.62	1079.46
604.97	1078.28
605.31	1080.86
605.66	1073.60
606.01	1074.07
606.36	1073.37
606.71	1077.82
607.05	1081.33
607.40	1085.31
607.75	1083.20
608.10	1092.80
608.44	1102.39
608.79	1096.07
609.14	1099.35
609.49	1098.65
609.84	1092.09
610.18	1081.33
610.53	1094.20
610.88	1102.16
611.23	1104.97
611.57	1104.03
611.92	1104.50
612.27	1086.01
612.62	1073.60
612.96	1067.05
613.31	1063.07
613.66	1060.96
614.00	1087.65
614.35	1087.65
614.70	1080.16
615.05	1082.50
615.39	1094.67
615.74	1076.41
616.09	1075.71
616.43	1089.99
616.78	1086.94
617.13	1076.65
617.47	1074.77
617.82	1076.41
618.17	1075.71
618.51	1075.01
618.86	1075.48
619.21	1076.41
619.55	1080.16
619.90	1076.18
620.25	1081.33
620.59	1082.50
620.94	1088.82
621.29	1084.84
621.63	1084.14
621.98	1075.94
622.32	1063.54
622.67	1060.50
623.02	1057.45
623.36	1050.20
623.71	1059.09
624.05	1075.01
624.40	1075.71
624.75	1076.41
625.09	1082.26
625.44	1073.60
625.78	1068.45
626.13	1064.48
626.48	1065.41
626.82	1062.60
627.17	1066.82
627.51	1061.67
627.86	1058.86
628.20	1063.54
628.55	1061.20
628.89	1062.14
629.24	1057.69
629.58	1062.84
629.93	1054.41
630.28	1058.39
630.62	1053.71
630.97	1065.65
631.31	1072.67
631.66	1071.26
632.00	1078.75
632.35	1085.77
632.69	1079.22
633.04	1062.60
633.38	1075.01
633.73	1055.82
634.07	1050.20
634.42	1051.60
634.76	1061.90
635.11	1062.37
635.45	1080.16
635.79	1090.22
636.14	1093.73
636.48	1085.77
636.83	1088.58
637.17	1081.09
637.52	1076.41
637.86	1082.03
638.21	1090.22
638.55	1084.14
638.89	1084.84
639.24	1085.77
639.58	1072.67
639.93	1067.28
640.27	1074.54
640.61	1081.80
640.96	1067.99
641.30	1067.52
641.65	1072.43
641.99	1070.80
642.33	1071.26
642.68	1083.90
643.02	1089.75
643.37	1083.67
643.71	1077.35
644.05	1070.56
644.40	1073.14
644.74	1078.75
645.08	1081.80
645.43	1091.86
645.77	1094.90
646.11	1088.12
646.46	1080.39
646.80	1080.39
647.14	1065.41
647.49	1058.62
647.83	1061.20
648.17	1063.77
648.52	1076.88
648.86	1079.22
649.20	1086.24
649.55	1090.22
649.89	1093.50
650.23	1082.03
650.57	1081.56
650.92	1077.35
651.26	1077.58
651.60	1068.45
651.95	1063.77
652.29	1071.03
652.63	1084.14
652.97	1081.80
653.32	1096.78
653.66	1104.97
654.00	1097.24
654.34	1087.88
654.69	1089.75
655.03	1087.41
655.37	1087.18
655.71	1086.48
656.05	1076.65
656.40	1066.82
656.74	1060.50
657.08	1065.88
657.42	1062.14
657.76	1078.75
658.11	1078.28
658.45	1077.82
658.79	1059.09
659.13	1064.94
659.47	1065.41
659.82	1076.65
660.16	1078.05
660.50	1089.52
660.84	1108.01
661.18	1108.24
661.52	1098.88
661.87	1087.65
662.21	1095.84
662.55	1082.73
662.89	1072.67
663.23	1076.88
663.57	1095.14
663.91	1082.97
664.25	1084.14
664.60	1081.33
664.94	1083.90
665.28	1074.77
665.62	1085.31
665.96	1082.03
666.30	1089.99
666.64	1084.37
666.98	1083.90
667.32	1072.20
667.66	1067.28
668.01	1068.69
668.35	1070.80
668.69	1069.39
669.03	1066.11
669.37	1076.65
669.71	1069.39
670.05	1071.26
670.39	1075.24
670.73	1084.37
671.07	1071.26
671.41	1076.88
671.75	1071.03
672.09	1074.31
672.43	1069.39
672.77	1077.11
673.11	1081.09
673.45	1086.01
673.79	1080.63
674.13	1082.50
674.47	1083.67
674.81	1073.60
675.15	1074.07
675.49	1080.86
675.83	1084.84
676.17	1079.46
676.51	1087.65
676.85	1086.24
677.19	1082.73
677.53	1082.26
677.87	1083.90
678.21	1084.14
678.55	1095.84
678.89	1089.75
679.23	1089.52
679.57	1085.77
679.90	1068.22
680.24	1056.75
680.58	1061.90
680.92	1066.35
681.26	1069.16
681.60	1080.63
681.94	1082.97
682.28	1082.50
682.62	1083.90
682.96	1093.97
683.29	1102.39
683.63	1098.18
683.97	1096.54
684.31	1081.33
684.65	1078.05
684.99	1064.01
685.33	1064.94
685.67	1062.60
686.00	1071.26
686.34	1060.73
686.68	1070.09
687.02	1078.99
687.36	1095.37
687.70	1093.97
688.03	1093.97
688.37	1096.07
688.71	1086.71
689.05	1079.69
689.39	1089.05
689.72	1094.20
690.06	1079.46
690.40	1084.37
690.74	1076.88
691.08	1075.24
691.41	1070.09
691.75	1077.11
692.09	1073.37
692.43	1069.39
692.76	1064.01
693.10	1071.73
693.44	1080.16
693.78	1082.26
694.11	1093.26
694.45	1089.05
694.79	1087.65
695.13	1074.31
695.46	1069.62
695.80	1066.35
696.14	1072.67
696.48	1078.28
696.81	1088.35
697.15	1094.90
697.49	1084.37
697.82	1085.07
698.16	1080.39
698.50	1079.69
698.83	1074.31
699.17	1079.22
699.51	1075.01
699.84	1074.31
700.18	1060.03
700.52	1068.22
700.85	1071.03
701.19	1071.73
701.53	1067.28
701.86	1092.09
702.20	1087.41
702.54	1093.97
702.87	1084.84
703.21	1085.77
703.55	1073.14
703.88	1071.73
704.22	1072.43
704.55	1074.77
704.89	1068.22
705.23	1065.88
705.56	1076.88
705.90	1067.28
706.23	1079.69
706.57	1096.54
706.91	1100.05
707.24	1096.54
707.58	1100.99
707.91	1094.90
708.25	1080.63
708.58	1075.48
708.92	1071.03
709.26	1058.86
709.59	1061.20
709.93	1062.60
710.26	1062.60
710.60	1056.05
710.93	1068.45
711.27	1068.92
711.60	1071.97
711.94	1076.65
712.27	1084.84
712.61	1085.07
712.94	1082.26
713.28	1083.90
713.61	1078.52
713.95	1073.84
714.28	1074.77
714.62	1078.52
714.95	1080.86
715.29	1086.71
715.62	1103.56
715.96	1097.24
716.29	1091.63
716.63	1082.26
716.96	1083.20
717.29	1074.31
717.63	1074.77
717.96	1071.50
718.30	1082.97
718.63	1089.29
718.97	1084.60
719.30	1078.75
719.63	1082.50
719.97	1076.65
720.30	1067.52
720.64	1060.26
720.97	1073.37
721.30	1069.62
721.64	1068.22
721.97	1067.99
722.31	1073.84
722.64	1068.22
722.97	1069.62
723.31	1067.28
723.64	1065.41
723.97	1064.71
724.31	1063.31
724.64	1066.11
724.98	1073.84
725.31	1078.28
725.64	1076.88
725.98	1076.65
726.31	1075.94
726.64	1071.26
726.97	1071.26
727.31	1064.71
727.64	1062.84
727.97	1068.22
728.31	1075.48
728.64	1065.65
728.97	1068.22
729.31	1068.45
729.64	1069.86
729.97	1064.48
730.30	1074.07
730.64	1084.60
730.97	1094.43
731.30	1096.07
731.63	1094.67
731.97	1099.35
732.30	1087.41
732.63	1083.67
732.96	1075.01
733.30	1076.65
733.63	1078.75
733.96	1090.69
734.29	1084.14
734.63	1098.18
734.96	1105.90
735.29	1092.56
735.62	1079.22
735.95	1084.14
736.29	1072.67
736.62	1065.65
736.95	1071.73
737.28	1079.22
737.61	1080.63
737.94	1073.60
738.28	1068.22
738.61	1074.31
738.94	1067.99
739.27	1072.90
739.60	1082.26
739.93	1091.86
740.27	1086.71
740.60	1094.90
740.93	1085.07
741.26	1082.03
741.59	1069.39
741.92	1068.45
742.25	1071.26
742.58	1077.35
742.91	1074.77
743.25	1085.77
743.58	1093.73
743.91	1088.58
744.24	1084.14
744.57	1093.03
744.90	1085.77
745.23	1080.16
745.56	1087.88
745.89	1102.16
746.22	1098.88
746.55	1108.01
746.88	1108.95
747.21	1097.24
747.54	1081.09
747.87	1083.67
748.20	1065.88
748.53	1062.84
748.87	1067.52
749.20	1068.92
749.53	1058.62
749.86	1077.58
750.19	1075.24
750.52	1074.77
750.85	1069.16
751.18	1067.28
751.51	1065.88
751.84	1082.03
752.16	1087.18
752.49	1099.35
752.82	1100.29
753.15	1096.54
753.48	1089.05
753.81	1085.07
754.14	1082.73
754.47	1086.01
754.80	1085.77
755.13	1089.99
755.46	1088.58
755.79	1091.16
756.12	1094.90
756.45	1094.90
756.78	1082.26
757.11	1085.54
757.43	1081.56
757.76	1082.03
758.09	1087.88
758.42	1094.67
758.75	1090.92
759.08	1089.99
759.41	1085.54
759.74	1071.97
760.07	1075.71
760.39	1077.35
760.72	1082.73
761.05	1076.65
761.38	1088.82
761.71	1085.54
762.04	1077.11
762.36	1073.37
762.69	1090.22
763.02	1085.07
763.35	1082.26
763.68	1094.20
764.01	1085.31
764.33	1067.28
764.66	1071.03
764.99	1058.16
765.32	1050.67
765.65	1052.30
765.97	1062.60
766.30	1055.35
