SpectraSuite Data File
++++++++++++++++++++++++++++++++++++
Date: Mon Aug 26 10:25:57 PDT 2019
User: corrico
Dark Spectrum Present: No
Reference Spectrum Present: No
Number of Sampled Component Spectra: 1
Spectrometers: USB2+H06089
Integration Time (usec): 10000 (USB2+H06089)
Spectra Averaged: 2 (USB2+H06089)
Boxcar Smoothing: 2 (USB2+H06089)
Correct for Electrical Dark: No (USB2+H06089)
Strobe/Lamp Enabled: No (USB2+H06089)
Correct for Detector Non-linearity: No (USB2+H06089)
Correct for Stray Light: No (USB2+H06089)
Number of Pixels in Processed Spectrum: 2048
>>>>>Begin Processed Spectral Data<<<<<
339.70	1032.18
340.07	1032.18
340.45	1008.07
340.82	985.83
341.19	961.73
341.57	938.55
341.94	919.13
342.31	906.02
342.69	902.98
343.06	896.43
343.43	897.36
343.81	898.77
344.18	908.36
344.55	922.17
344.93	931.77
345.30	938.09
345.67	944.17
346.04	947.45
346.42	939.96
346.79	950.26
347.16	943.70
347.54	950.26
347.91	950.26
348.28	968.51
348.65	979.51
349.03	996.13
349.40	1001.05
349.77	1011.81
350.14	1012.05
350.52	1016.03
350.89	1021.64
351.26	1043.41
351.63	1055.58
352.01	1053.48
352.38	1063.77
352.75	1074.54
353.12	1064.01
353.50	1070.09
353.87	1080.16
354.24	1067.75
354.61	1064.71
354.98	1067.28
355.36	1058.39
355.73	1064.01
356.10	1071.26
356.47	1075.94
356.84	1080.63
357.22	1084.60
357.59	1079.46
357.96	1083.43
358.33	1073.37
358.70	1078.99
359.08	1076.88
359.45	1079.92
359.82	1079.46
360.19	1079.69
360.56	1073.14
360.94	1073.60
361.31	1075.01
361.68	1068.22
362.05	1075.94
362.42	1068.69
362.79	1076.18
363.16	1069.62
363.54	1073.60
363.91	1073.14
364.28	1073.60
364.65	1070.33
365.02	1069.86
365.39	1069.62
365.76	1061.20
366.14	1065.88
366.51	1062.14
366.88	1061.90
367.25	1065.88
367.62	1074.31
367.99	1068.92
368.36	1070.33
368.73	1067.05
369.10	1064.94
369.48	1061.67
369.85	1062.60
370.22	1063.07
370.59	1074.07
370.96	1071.26
371.33	1070.56
371.70	1077.35
372.07	1081.09
372.44	1078.28
372.81	1074.54
373.18	1066.35
373.55	1059.56
373.93	1054.41
374.30	1046.22
374.67	1048.56
375.04	1056.05
375.41	1049.50
375.78	1048.33
376.15	1047.86
376.52	1045.99
376.89	1046.92
377.26	1052.54
377.63	1047.86
378.00	1051.60
378.37	1053.71
378.74	1059.56
379.11	1068.69
379.48	1074.77
379.85	1080.86
380.22	1074.54
380.59	1071.97
380.96	1071.26
381.33	1075.01
381.70	1077.58
382.07	1089.75
382.44	1093.03
382.81	1088.58
383.18	1087.65
383.55	1082.26
383.92	1068.22
384.29	1061.67
384.66	1068.45
385.03	1064.94
385.40	1062.14
385.77	1072.90
386.14	1076.88
386.51	1071.97
386.88	1071.26
387.25	1071.73
387.62	1067.75
387.99	1055.82
388.36	1055.82
388.73	1065.18
389.10	1057.45
389.46	1053.48
389.83	1064.01
390.20	1060.73
390.57	1046.92
390.94	1053.48
391.31	1056.28
391.68	1062.84
392.05	1064.48
392.42	1072.20
392.79	1076.41
393.16	1083.20
393.53	1071.97
393.89	1072.90
394.26	1065.41
394.63	1067.99
395.00	1061.90
395.37	1065.88
395.74	1066.82
396.11	1076.41
396.48	1072.20
396.84	1073.14
397.21	1073.14
397.58	1069.62
397.95	1058.16
398.32	1058.16
398.69	1057.92
399.06	1056.75
399.42	1062.14
399.79	1077.58
400.16	1084.84
400.53	1091.63
400.90	1098.65
401.27	1101.22
401.64	1096.78
402.00	1093.03
402.37	1096.31
402.74	1091.86
403.11	1085.77
403.48	1087.18
403.84	1094.43
404.21	1081.80
404.58	1083.67
404.95	1084.60
405.32	1090.69
405.68	1079.46
406.05	1076.65
406.42	1077.35
406.79	1076.41
407.16	1072.90
407.52	1073.84
407.89	1078.99
408.26	1071.73
408.63	1073.60
408.99	1061.90
409.36	1063.77
409.73	1059.33
410.10	1051.84
410.47	1051.37
410.83	1055.58
411.20	1051.60
411.57	1054.65
411.94	1066.58
412.30	1066.11
412.67	1071.26
413.04	1075.48
413.40	1076.88
413.77	1076.18
414.14	1080.86
414.51	1076.88
414.87	1075.01
415.24	1076.65
415.61	1081.33
415.97	1078.05
416.34	1073.14
416.71	1073.60
417.08	1079.92
417.44	1078.75
417.81	1077.35
418.18	1095.37
418.54	1104.97
418.91	1098.65
419.28	1101.92
419.64	1109.88
420.01	1100.52
420.38	1093.73
420.74	1091.39
421.11	1086.24
421.48	1074.07
421.84	1076.18
422.21	1078.28
422.58	1079.92
422.94	1086.48
423.31	1100.29
423.68	1094.67
424.04	1101.92
424.41	1102.63
424.77	1098.18
425.14	1085.07
425.51	1089.52
425.87	1082.26
426.24	1080.39
426.61	1075.24
426.97	1080.16
427.34	1079.69
427.70	1069.62
428.07	1067.75
428.44	1062.60
428.80	1056.05
429.17	1049.03
429.53	1048.79
429.90	1043.18
430.27	1054.41
430.63	1061.67
431.00	1065.65
431.36	1067.52
431.73	1080.86
432.09	1078.28
432.46	1086.94
432.83	1091.63
433.19	1092.33
433.56	1081.09
433.92	1077.35
434.29	1062.37
434.65	1061.20
435.02	1066.82
435.38	1075.71
435.75	1080.63
436.11	1089.05
436.48	1081.80
436.84	1072.43
437.21	1073.60
437.57	1066.82
437.94	1065.18
438.30	1067.99
438.67	1070.33
439.03	1076.88
439.40	1080.63
439.76	1080.16
440.13	1077.11
440.49	1086.24
440.86	1077.35
441.22	1066.11
441.59	1057.92
441.95	1067.52
442.32	1064.48
442.68	1057.69
443.05	1078.75
443.41	1084.60
443.78	1076.41
444.14	1074.07
444.51	1080.16
444.87	1070.80
445.24	1077.35
445.60	1079.69
445.96	1080.63
446.33	1081.56
446.69	1090.69
447.06	1084.14
447.42	1089.52
447.79	1101.69
448.15	1103.09
448.51	1089.99
448.88	1091.86
449.24	1088.12
449.61	1074.07
449.97	1073.14
450.33	1071.26
450.70	1063.54
451.06	1061.90
451.43	1070.80
451.79	1073.84
452.15	1078.52
452.52	1081.56
452.88	1084.84
453.24	1081.56
453.61	1078.75
453.97	1077.58
454.34	1079.92
454.70	1066.35
455.06	1067.99
455.43	1070.09
455.79	1068.22
456.15	1067.75
456.52	1081.80
456.88	1080.39
457.24	1071.73
457.61	1080.16
457.97	1080.63
458.33	1082.03
458.70	1074.07
459.06	1084.60
459.42	1084.14
459.79	1087.65
460.15	1083.20
460.51	1075.94
460.88	1070.56
461.24	1071.26
461.60	1063.77
461.96	1058.16
462.33	1058.16
462.69	1059.09
463.05	1057.22
463.42	1053.01
463.78	1064.48
464.14	1076.88
464.50	1071.97
464.87	1081.33
465.23	1092.33
465.59	1086.01
465.95	1089.99
466.32	1093.97
466.68	1084.14
467.04	1092.80
467.40	1093.26
467.77	1088.58
468.13	1085.07
468.49	1075.24
468.85	1067.75
469.22	1070.56
469.58	1064.48
469.94	1073.60
470.30	1083.67
470.66	1079.92
471.03	1070.56
471.39	1073.37
471.75	1070.56
472.11	1064.94
472.47	1063.07
472.84	1070.56
473.20	1074.31
473.56	1067.52
473.92	1071.73
474.28	1078.75
474.65	1078.05
475.01	1075.24
475.37	1080.16
475.73	1079.92
476.09	1086.94
476.45	1088.12
476.81	1087.88
477.18	1090.69
477.54	1081.09
477.90	1069.16
478.26	1066.82
478.62	1071.73
478.98	1065.18
479.34	1069.16
479.71	1076.88
480.07	1070.56
480.43	1074.54
480.79	1081.56
481.15	1081.09
481.51	1079.46
481.87	1095.60
482.23	1085.07
482.59	1087.18
482.96	1083.43
483.32	1073.84
483.68	1069.62
484.04	1075.01
484.40	1062.84
484.76	1075.71
485.12	1084.37
485.48	1087.18
485.84	1085.07
486.20	1093.26
486.56	1096.78
486.92	1093.50
487.28	1086.24
487.64	1085.07
488.00	1086.01
488.37	1076.65
488.73	1089.52
489.09	1088.82
489.45	1099.12
489.81	1098.65
490.17	1099.35
490.53	1094.67
490.89	1093.50
491.25	1086.01
491.61	1083.43
491.97	1082.73
492.33	1067.75
492.69	1073.37
493.05	1063.07
493.41	1072.90
493.77	1077.58
494.13	1081.56
494.49	1080.63
494.85	1084.60
495.21	1078.52
495.57	1075.01
495.93	1085.77
496.29	1081.56
496.64	1090.46
497.00	1081.33
497.36	1085.54
497.72	1077.35
498.08	1076.88
498.44	1076.41
498.80	1082.03
499.16	1078.28
499.52	1078.52
499.88	1082.97
500.24	1083.67
500.60	1086.48
500.96	1082.73
501.32	1076.88
501.68	1081.09
502.03	1081.09
502.39	1076.18
502.75	1079.92
503.11	1084.84
503.47	1070.56
503.83	1071.26
504.19	1072.43
504.55	1071.97
504.91	1064.24
505.26	1065.65
505.62	1056.05
505.98	1052.07
506.34	1052.30
506.70	1056.05
507.06	1064.94
507.42	1070.33
507.78	1071.03
508.13	1079.69
508.49	1080.16
508.85	1080.86
509.21	1078.28
509.57	1083.43
509.93	1083.43
510.28	1091.16
510.64	1091.16
511.00	1090.69
511.36	1102.63
511.72	1099.12
512.07	1096.07
512.43	1090.92
512.79	1090.92
513.15	1079.69
513.51	1073.84
513.86	1080.16
514.22	1078.99
514.58	1089.05
514.94	1087.41
515.30	1082.50
515.65	1065.88
516.01	1072.67
516.37	1073.14
516.73	1071.03
517.08	1079.69
517.44	1088.35
517.80	1085.07
518.16	1068.69
518.51	1071.03
518.87	1069.16
519.23	1069.16
519.59	1073.84
519.94	1080.63
520.30	1079.46
520.66	1085.54
521.01	1097.01
521.37	1088.35
521.73	1099.82
522.09	1112.46
522.44	1108.95
522.80	1111.05
523.16	1113.63
523.51	1104.97
523.87	1099.35
524.23	1102.39
524.58	1095.37
524.94	1097.95
525.30	1093.50
525.65	1089.75
526.01	1083.67
526.37	1082.50
526.72	1086.94
527.08	1094.90
527.44	1099.82
527.79	1101.46
528.15	1096.78
528.51	1079.69
528.86	1073.60
529.22	1067.99
529.58	1065.65
529.93	1070.33
530.29	1079.22
530.65	1094.67
531.00	1099.35
531.36	1099.58
531.71	1100.05
532.07	1100.05
532.43	1078.28
532.78	1075.94
533.14	1071.97
533.49	1069.16
533.85	1072.67
534.21	1081.33
534.56	1081.80
534.92	1101.46
535.27	1102.63
535.63	1119.01
535.98	1122.52
536.34	1122.29
536.69	1112.22
537.05	1107.07
537.41	1089.99
537.76	1090.69
538.12	1092.09
538.47	1087.88
538.83	1100.75
539.18	1099.58
539.54	1096.54
539.89	1093.50
540.25	1099.82
540.60	1095.84
540.96	1096.31
541.31	1105.44
541.67	1107.78
542.02	1103.80
542.38	1102.39
542.73	1108.71
543.09	1100.52
543.44	1095.14
543.80	1089.05
544.15	1083.20
544.51	1085.07
544.86	1086.71
545.22	1090.22
545.57	1092.80
545.93	1094.67
546.28	1097.48
546.64	1099.35
546.99	1100.52
547.35	1102.16
547.70	1110.12
548.05	1103.33
548.41	1096.78
548.76	1103.09
549.12	1104.97
549.47	1100.29
549.83	1097.48
550.18	1099.35
550.53	1094.90
550.89	1094.67
551.24	1097.24
551.60	1094.20
551.95	1106.14
552.30	1101.92
552.66	1092.56
553.01	1081.56
553.37	1090.69
553.72	1076.18
554.07	1077.82
554.43	1077.11
554.78	1084.14
555.13	1078.28
555.49	1084.14
555.84	1078.52
556.19	1086.94
556.55	1084.37
556.90	1074.54
557.26	1074.31
557.61	1076.41
557.96	1077.82
558.32	1085.31
558.67	1097.24
559.02	1086.71
559.37	1089.99
559.73	1088.58
560.08	1079.22
560.43	1077.35
560.79	1078.99
561.14	1087.18
561.49	1086.24
561.85	1084.14
562.20	1086.48
562.55	1094.43
562.90	1083.20
563.26	1090.69
563.61	1094.90
563.96	1090.69
564.32	1083.43
564.67	1085.31
565.02	1081.56
565.37	1085.07
565.73	1088.35
566.08	1093.03
566.43	1093.73
566.78	1086.24
567.14	1084.14
567.49	1085.77
567.84	1083.67
568.19	1083.20
568.54	1089.52
568.90	1093.03
569.25	1097.48
569.60	1106.84
569.95	1099.58
570.31	1101.69
570.66	1091.86
571.01	1087.18
571.36	1070.56
571.71	1070.80
572.06	1067.75
572.42	1073.60
572.77	1077.82
573.12	1081.09
573.47	1083.67
573.82	1082.50
574.18	1069.86
574.53	1056.99
574.88	1058.16
575.23	1065.18
575.58	1067.28
575.93	1085.07
576.28	1094.20
576.64	1100.29
576.99	1093.50
577.34	1093.97
577.69	1093.97
578.04	1089.75
578.39	1086.71
578.74	1084.60
579.09	1092.80
579.44	1078.05
579.80	1074.77
580.15	1079.92
580.50	1085.77
580.85	1083.20
581.20	1089.99
581.55	1091.39
581.90	1094.90
582.25	1099.12
582.60	1095.14
582.95	1100.99
583.30	1100.99
583.65	1094.43
584.00	1081.33
584.35	1076.65
584.71	1078.28
585.06	1078.52
585.41	1077.58
585.76	1091.39
586.11	1093.03
586.46	1092.56
586.81	1088.35
587.16	1083.67
587.51	1073.60
587.86	1072.67
588.21	1071.73
588.56	1079.69
588.91	1080.86
589.26	1089.29
589.61	1089.52
589.96	1081.80
590.31	1074.07
590.66	1077.82
591.01	1068.92
591.36	1067.75
591.71	1060.96
592.06	1067.52
592.41	1071.26
592.76	1073.84
593.10	1069.39
593.45	1077.82
593.80	1069.86
594.15	1056.75
594.50	1052.07
594.85	1050.90
595.20	1041.30
595.55	1045.28
595.90	1059.33
596.25	1075.24
596.60	1076.88
596.95	1083.20
597.30	1080.86
597.64	1121.12
597.99	1108.48
598.34	1121.12
598.69	1121.58
599.04	1128.37
599.39	1086.48
599.74	1094.20
600.09	1080.86
600.44	1093.73
600.78	1100.52
601.13	1106.61
601.48	1110.12
601.83	1114.80
602.18	1103.80
602.53	1100.75
602.88	1086.94
603.22	1079.92
603.57	1085.31
603.92	1086.48
604.27	1089.29
604.62	1095.14
604.97	1091.63
605.31	1090.22
605.66	1096.31
606.01	1098.65
606.36	1088.58
606.71	1091.63
607.05	1092.33
607.40	1088.82
607.75	1071.03
608.10	1077.82
608.44	1081.80
608.79	1074.07
609.14	1077.82
609.49	1079.22
609.84	1095.14
610.18	1098.41
610.53	1104.03
610.88	1100.99
611.23	1118.31
611.57	1105.20
611.92	1102.63
612.27	1102.16
612.62	1095.37
612.96	1090.46
613.31	1095.14
613.66	1100.29
614.00	1101.46
614.35	1102.86
614.70	1096.78
615.05	1093.03
615.39	1091.16
615.74	1093.26
616.09	1094.43
616.43	1097.71
616.78	1095.60
617.13	1086.24
617.47	1080.39
617.82	1094.43
618.17	1085.54
618.51	1081.56
618.86	1081.56
619.21	1078.99
619.55	1066.35
619.90	1071.73
620.25	1080.39
620.59	1078.52
620.94	1066.35
621.29	1067.28
621.63	1074.31
621.98	1074.07
622.32	1069.39
622.67	1096.07
623.02	1088.35
623.36	1087.41
623.71	1078.52
624.05	1090.92
624.40	1071.73
624.75	1081.56
625.09	1069.16
625.44	1068.92
625.78	1067.05
626.13	1077.35
626.48	1077.82
626.82	1080.63
627.17	1084.60
627.51	1083.67
627.86	1075.94
628.20	1069.16
628.55	1079.46
628.89	1071.73
629.24	1071.26
629.58	1085.54
629.93	1089.29
630.28	1085.07
630.62	1092.80
630.97	1099.35
631.31	1081.09
631.66	1082.03
632.00	1070.56
632.35	1072.90
632.69	1067.75
633.04	1075.01
633.38	1068.69
633.73	1070.80
634.07	1075.94
634.42	1070.80
634.76	1071.03
635.11	1077.58
635.45	1084.60
635.79	1081.09
636.14	1081.09
636.48	1081.09
636.83	1081.33
637.17	1083.20
637.52	1087.18
637.86	1088.82
638.21	1093.26
638.55	1097.01
638.89	1092.09
639.24	1082.50
639.58	1090.69
639.93	1088.12
640.27	1088.12
640.61	1088.58
640.96	1102.63
641.30	1097.95
641.65	1093.97
641.99	1087.65
642.33	1096.78
642.68	1085.07
643.02	1069.86
643.37	1067.99
643.71	1064.94
644.05	1053.24
644.40	1055.82
644.74	1074.54
645.08	1075.94
645.43	1075.48
645.77	1074.77
646.11	1069.39
646.46	1065.88
646.80	1075.01
647.14	1083.20
647.49	1091.86
647.83	1093.50
648.17	1091.39
648.52	1089.29
648.86	1085.77
649.20	1084.14
649.55	1080.86
649.89	1082.97
650.23	1083.90
650.57	1078.28
650.92	1074.31
651.26	1082.73
651.60	1086.94
651.95	1079.22
652.29	1088.35
652.63	1094.20
652.97	1086.71
653.32	1074.77
653.66	1078.52
654.00	1076.65
654.34	1071.50
654.69	1078.99
655.03	1084.14
655.37	1082.03
655.71	1070.80
656.05	1074.77
656.40	1073.84
656.74	1062.84
657.08	1063.31
657.42	1072.67
657.76	1074.07
658.11	1073.14
658.45	1078.28
658.79	1081.33
659.13	1075.94
659.47	1070.09
659.82	1070.33
660.16	1085.07
660.50	1088.35
660.84	1094.43
661.18	1098.88
661.52	1101.92
661.87	1092.33
662.21	1098.65
662.55	1085.77
662.89	1089.75
663.23	1077.82
663.57	1079.92
663.91	1063.54
664.25	1084.84
664.60	1083.43
664.94	1093.73
665.28	1096.54
665.62	1103.80
665.96	1097.01
666.30	1090.46
666.64	1088.12
666.98	1088.58
667.32	1090.69
667.66	1086.94
668.01	1079.46
668.35	1078.05
668.69	1065.88
669.03	1060.96
669.37	1061.90
669.71	1070.80
670.05	1066.82
670.39	1078.28
670.73	1087.65
671.07	1087.88
671.41	1087.41
671.75	1089.05
672.09	1081.80
672.43	1075.94
672.77	1073.37
673.11	1070.09
673.45	1070.56
673.79	1072.43
674.13	1070.33
674.47	1076.88
674.81	1084.60
675.15	1090.92
675.49	1095.14
675.83	1087.88
676.17	1079.69
676.51	1072.43
676.85	1071.50
677.19	1064.01
677.53	1072.67
677.87	1071.97
678.21	1077.11
678.55	1079.46
678.89	1094.43
679.23	1095.84
679.57	1093.03
679.90	1090.46
680.24	1082.97
680.58	1067.75
680.92	1062.60
681.26	1071.26
681.60	1080.39
681.94	1082.03
682.28	1086.48
682.62	1090.69
682.96	1086.71
683.29	1080.39
683.63	1080.86
683.97	1084.14
684.31	1081.09
684.65	1084.37
684.99	1083.43
685.33	1085.77
685.67	1084.37
686.00	1081.33
686.34	1083.67
686.68	1086.94
687.02	1084.60
687.36	1077.11
687.70	1087.88
688.03	1077.58
688.37	1069.86
688.71	1065.18
689.05	1073.37
689.39	1068.92
689.72	1069.16
690.06	1064.48
690.40	1062.37
690.74	1055.35
691.08	1058.86
691.41	1066.35
691.75	1071.50
692.09	1075.24
692.43	1089.29
692.76	1081.33
693.10	1070.09
693.44	1070.09
693.78	1070.56
694.11	1060.03
694.45	1060.26
694.79	1062.14
695.13	1059.79
695.46	1064.71
695.80	1064.71
696.14	1073.37
696.48	1081.33
696.81	1081.56
697.15	1081.33
697.49	1075.01
697.82	1074.54
698.16	1078.28
698.50	1078.52
698.83	1073.37
699.17	1079.22
699.51	1072.67
699.84	1075.01
700.18	1077.58
700.52	1085.54
700.85	1092.80
701.19	1106.84
701.53	1100.75
701.86	1104.73
702.20	1102.63
702.54	1095.60
702.87	1082.26
703.21	1080.63
703.55	1070.56
703.88	1067.75
704.22	1071.26
704.55	1073.60
704.89	1079.22
705.23	1094.67
705.56	1096.78
705.90	1089.29
706.23	1086.24
706.57	1081.56
706.91	1073.84
707.24	1069.16
707.58	1080.39
707.91	1078.52
708.25	1072.90
708.58	1085.07
708.92	1090.69
709.26	1091.86
709.59	1089.75
709.93	1091.63
710.26	1089.05
710.60	1082.50
710.93	1081.56
711.27	1092.80
711.60	1095.37
711.94	1081.56
712.27	1082.03
712.61	1070.56
712.94	1068.69
713.28	1072.20
713.61	1085.54
713.95	1081.56
714.28	1082.97
714.62	1085.31
714.95	1082.03
715.29	1079.69
715.62	1089.29
715.96	1086.71
716.29	1074.77
716.63	1078.52
716.96	1070.09
717.29	1065.88
717.63	1077.35
717.96	1078.99
718.30	1066.35
718.63	1072.43
718.97	1071.73
719.30	1064.48
719.63	1071.73
719.97	1087.88
720.30	1084.84
720.64	1088.12
720.97	1089.52
721.30	1089.29
721.64	1077.82
721.97	1070.80
722.31	1071.73
722.64	1071.97
722.97	1063.07
723.31	1063.54
723.64	1072.67
723.97	1071.73
724.31	1083.43
724.64	1099.58
724.98	1112.46
725.31	1106.37
725.64	1112.22
725.98	1109.18
726.31	1107.78
726.64	1097.48
726.97	1109.65
727.31	1107.07
727.64	1100.99
727.97	1085.77
728.31	1082.26
728.64	1083.20
728.97	1071.26
729.31	1078.52
729.64	1082.26
729.97	1089.52
730.30	1080.86
730.64	1091.63
730.97	1082.97
731.30	1086.71
731.63	1090.92
731.97	1085.54
732.30	1078.05
732.63	1078.75
732.96	1070.09
733.30	1072.43
733.63	1078.05
733.96	1084.37
734.29	1087.65
734.63	1104.26
734.96	1099.12
735.29	1095.84
735.62	1087.88
735.95	1090.22
736.29	1067.05
736.62	1076.18
736.95	1083.20
737.28	1090.46
737.61	1087.41
737.94	1094.20
738.28	1080.39
738.61	1070.33
738.94	1068.22
739.27	1056.52
739.60	1072.20
739.93	1066.82
740.27	1072.20
740.60	1069.86
740.93	1085.31
741.26	1071.50
741.59	1080.16
741.92	1086.24
742.25	1085.31
742.58	1085.07
742.91	1090.92
743.25	1087.88
743.58	1079.22
743.91	1086.01
744.24	1078.05
744.57	1071.73
744.90	1078.52
745.23	1076.18
745.56	1075.94
745.89	1072.67
746.22	1071.26
746.55	1068.69
746.88	1077.82
747.21	1072.20
747.54	1075.71
747.87	1081.80
748.20	1079.69
748.53	1076.18
748.87	1086.48
749.20	1090.46
749.53	1092.33
749.86	1089.99
750.19	1084.14
750.52	1069.62
750.85	1071.97
751.18	1070.56
751.51	1070.09
751.84	1074.77
752.16	1078.52
752.49	1069.86
752.82	1070.80
753.15	1076.18
753.48	1073.84
753.81	1087.41
754.14	1089.05
754.47	1083.90
754.80	1087.18
755.13	1075.71
755.46	1063.77
755.79	1062.84
756.12	1069.39
756.45	1052.54
756.78	1065.65
757.11	1066.58
757.43	1065.41
757.76	1056.28
758.09	1069.39
758.42	1062.14
758.75	1057.22
759.08	1065.65
759.41	1070.33
759.74	1074.07
760.07	1079.92
760.39	1078.99
760.72	1076.41
761.05	1076.18
761.38	1071.50
761.71	1073.14
762.04	1082.03
762.36	1084.37
762.69	1085.07
763.02	1087.88
763.35	1090.69
763.68	1088.82
764.01	1087.65
764.33	1085.77
764.66	1074.54
764.99	1073.14
765.32	1075.48
765.65	1067.52
765.97	1076.88
766.30	1078.28
