SpectraSuite Data File
++++++++++++++++++++++++++++++++++++
Date: Mon Aug 26 10:25:55 PDT 2019
User: corrico
Dark Spectrum Present: No
Reference Spectrum Present: No
Number of Sampled Component Spectra: 1
Spectrometers: USB2+H06089
Integration Time (usec): 10000 (USB2+H06089)
Spectra Averaged: 2 (USB2+H06089)
Boxcar Smoothing: 2 (USB2+H06089)
Correct for Electrical Dark: No (USB2+H06089)
Strobe/Lamp Enabled: No (USB2+H06089)
Correct for Detector Non-linearity: No (USB2+H06089)
Correct for Stray Light: No (USB2+H06089)
Number of Pixels in Processed Spectrum: 2048
>>>>>Begin Processed Spectral Data<<<<<
339.70	1004.09
340.07	1004.09
340.45	972.96
340.82	946.04
341.19	932.94
341.57	919.60
341.94	904.15
342.31	902.74
342.69	910.70
343.06	904.62
343.43	901.81
343.81	904.62
344.18	902.51
344.55	906.49
344.93	901.11
345.30	901.11
345.67	916.79
346.04	940.43
346.42	946.28
346.79	961.02
347.16	974.83
347.54	990.98
347.91	982.79
348.28	999.64
348.65	1001.75
349.03	1000.58
349.40	994.26
349.77	998.00
350.14	996.13
350.52	1011.81
350.89	1023.05
351.26	1034.52
351.63	1040.60
352.01	1045.05
352.38	1046.92
352.75	1054.41
353.12	1069.16
353.50	1084.37
353.87	1094.43
354.24	1096.54
354.61	1094.90
354.98	1086.71
355.36	1088.35
355.73	1085.54
356.10	1095.14
356.47	1093.97
356.84	1098.88
357.22	1091.86
357.59	1082.97
357.96	1079.46
358.33	1079.22
358.70	1076.41
359.08	1074.31
359.45	1089.99
359.82	1092.33
360.19	1099.12
360.56	1089.75
360.94	1083.43
361.31	1075.71
361.68	1068.92
362.05	1059.56
362.42	1065.41
362.79	1072.67
363.16	1066.35
363.54	1065.41
363.91	1068.45
364.28	1065.88
364.65	1057.22
365.02	1062.60
365.39	1063.77
365.76	1066.35
366.14	1064.48
366.51	1076.65
366.88	1073.14
367.25	1072.67
367.62	1076.18
367.99	1078.28
368.36	1082.03
368.73	1082.73
369.10	1075.94
369.48	1060.73
369.85	1064.94
370.22	1056.52
370.59	1056.28
370.96	1066.82
371.33	1083.43
371.70	1081.33
372.07	1081.33
372.44	1070.09
372.81	1067.75
373.18	1061.67
373.55	1056.52
373.93	1058.16
374.30	1078.28
374.67	1077.35
375.04	1079.46
375.41	1080.16
375.78	1079.69
376.15	1075.71
376.52	1071.26
376.89	1065.18
377.26	1066.58
377.63	1069.62
378.00	1068.92
378.37	1074.54
378.74	1066.82
379.11	1071.50
379.48	1073.84
379.85	1076.65
380.22	1076.88
380.59	1089.29
380.96	1086.94
381.33	1077.11
381.70	1071.50
382.07	1083.43
382.44	1079.92
382.81	1071.26
383.18	1073.37
383.55	1063.77
383.92	1051.60
384.29	1059.33
384.66	1056.05
385.03	1063.31
385.40	1074.54
385.77	1071.73
386.14	1067.28
386.51	1077.82
386.88	1072.90
387.25	1073.60
387.62	1075.48
387.99	1078.75
388.36	1081.09
388.73	1078.28
389.10	1076.41
389.46	1072.90
389.83	1064.71
390.20	1070.80
390.57	1076.18
390.94	1075.94
391.31	1069.39
391.68	1075.94
392.05	1063.54
392.42	1063.54
392.79	1066.58
393.16	1083.43
393.53	1083.43
393.89	1085.77
394.26	1075.24
394.63	1078.52
395.00	1071.97
395.37	1066.35
395.74	1068.69
396.11	1069.39
396.48	1065.18
396.84	1065.88
397.21	1065.41
397.58	1071.73
397.95	1087.65
398.32	1081.56
398.69	1086.94
399.06	1089.75
399.42	1082.97
399.79	1075.71
400.16	1074.54
400.53	1061.67
400.90	1056.05
401.27	1048.33
401.64	1043.64
402.00	1046.69
402.37	1056.75
402.74	1067.05
403.11	1082.26
403.48	1080.63
403.84	1078.75
404.21	1071.73
404.58	1059.56
404.95	1053.71
405.32	1055.82
405.68	1064.24
406.05	1073.84
406.42	1088.58
406.79	1083.67
407.16	1092.80
407.52	1091.86
407.89	1094.20
408.26	1091.63
408.63	1100.05
408.99	1097.48
409.36	1100.99
409.73	1090.69
410.10	1082.03
410.47	1076.18
410.83	1070.80
411.20	1061.43
411.57	1058.16
411.94	1069.16
412.30	1064.48
412.67	1066.82
413.04	1071.50
413.40	1072.67
413.77	1060.96
414.14	1066.58
414.51	1068.45
414.87	1067.99
415.24	1077.58
415.61	1091.39
415.97	1096.78
416.34	1097.95
416.71	1098.88
417.08	1097.24
417.44	1093.03
417.81	1090.69
418.18	1090.46
418.54	1081.09
418.91	1078.99
419.28	1069.16
419.64	1069.39
420.01	1068.22
420.38	1073.37
420.74	1074.54
421.11	1087.65
421.48	1093.97
421.84	1092.56
422.21	1091.39
422.58	1091.63
422.94	1077.35
423.31	1058.62
423.68	1055.11
424.04	1052.77
424.41	1057.22
424.77	1062.37
425.14	1070.56
425.51	1079.46
425.87	1081.33
426.24	1070.80
426.61	1081.33
426.97	1077.35
427.34	1077.82
427.70	1088.35
428.07	1096.78
428.44	1087.88
428.80	1086.24
429.17	1077.58
429.53	1064.01
429.90	1051.84
430.27	1044.11
430.63	1056.52
431.00	1052.30
431.36	1065.18
431.73	1078.52
432.09	1088.12
432.46	1089.52
432.83	1096.54
433.19	1083.43
433.56	1078.28
433.92	1071.03
434.29	1071.97
434.65	1077.11
435.02	1072.20
435.38	1077.82
435.75	1088.58
436.11	1086.01
436.48	1071.97
436.84	1078.75
437.21	1069.39
437.57	1064.01
437.94	1064.24
438.30	1066.58
438.67	1064.24
439.03	1072.90
439.40	1071.97
439.76	1073.14
440.13	1079.92
440.49	1089.99
440.86	1082.50
441.22	1081.33
441.59	1076.41
441.95	1079.46
442.32	1074.77
442.68	1075.24
443.05	1069.16
443.41	1069.86
443.78	1061.20
444.14	1061.90
444.51	1067.99
444.87	1072.67
445.24	1067.75
445.60	1080.39
445.96	1083.43
446.33	1084.60
446.69	1097.01
447.06	1105.20
447.42	1087.41
447.79	1090.22
448.15	1086.71
448.51	1066.82
448.88	1063.31
449.24	1072.67
449.61	1070.33
449.97	1071.50
450.33	1074.07
450.70	1071.50
451.06	1068.92
451.43	1070.56
451.79	1069.86
452.15	1079.46
452.52	1090.22
452.88	1094.20
453.24	1085.77
453.61	1080.16
453.97	1071.03
454.34	1058.86
454.70	1064.48
455.06	1065.41
455.43	1074.07
455.79	1074.54
456.15	1080.63
456.52	1069.16
456.88	1075.71
457.24	1081.33
457.61	1094.43
457.97	1088.35
458.33	1103.56
458.70	1100.52
459.06	1090.46
459.42	1088.58
459.79	1091.39
460.15	1078.99
460.51	1082.50
460.88	1078.28
461.24	1081.33
461.60	1081.09
461.96	1081.56
462.33	1071.73
462.69	1080.16
463.05	1073.37
463.42	1075.01
463.78	1070.09
464.14	1076.65
464.50	1069.86
464.87	1075.24
465.23	1070.33
465.59	1079.46
465.95	1081.09
466.32	1078.75
466.68	1071.26
467.04	1073.84
467.40	1075.24
467.77	1065.41
468.13	1070.56
468.49	1065.18
468.85	1069.62
469.22	1067.28
469.58	1083.90
469.94	1085.07
470.30	1093.26
470.66	1094.43
471.03	1098.65
471.39	1095.14
471.75	1092.33
472.11	1091.16
472.47	1084.14
472.84	1083.90
473.20	1074.31
473.56	1072.67
473.92	1075.71
474.28	1082.03
474.65	1078.05
475.01	1078.99
475.37	1075.71
475.73	1074.31
476.09	1071.03
476.45	1073.84
476.81	1080.39
477.18	1093.26
477.54	1091.63
477.90	1092.33
478.26	1082.03
478.62	1079.46
478.98	1071.97
479.34	1075.94
479.71	1075.48
480.07	1080.16
480.43	1077.58
480.79	1079.69
481.15	1086.94
481.51	1079.69
481.87	1088.35
482.23	1082.73
482.59	1086.01
482.96	1085.77
483.32	1083.67
483.68	1075.71
484.04	1090.69
484.40	1089.29
484.76	1075.94
485.12	1085.31
485.48	1081.09
485.84	1079.22
486.20	1066.35
486.56	1065.18
486.92	1060.50
487.28	1062.84
487.64	1072.67
488.00	1092.56
488.37	1093.73
488.73	1104.26
489.09	1104.26
489.45	1086.71
489.81	1081.56
490.17	1098.88
490.53	1099.12
490.89	1106.37
491.25	1105.20
491.61	1099.12
491.97	1095.60
492.33	1095.14
492.69	1090.22
493.05	1096.07
493.41	1088.82
493.77	1071.97
494.13	1073.37
494.49	1067.99
494.85	1058.16
495.21	1065.88
495.57	1073.14
495.93	1066.82
496.29	1067.75
496.64	1074.07
497.00	1070.80
497.36	1073.84
497.72	1075.01
498.08	1088.58
498.44	1097.48
498.80	1089.29
499.16	1089.99
499.52	1084.60
499.88	1078.99
500.24	1064.94
500.60	1079.92
500.96	1074.07
501.32	1077.82
501.68	1076.18
502.03	1074.77
502.39	1073.37
502.75	1064.94
503.11	1065.41
503.47	1056.75
503.83	1059.79
504.19	1054.88
504.55	1062.14
504.91	1058.39
505.26	1069.62
505.62	1073.14
505.98	1075.01
506.34	1081.33
506.70	1086.24
507.06	1095.84
507.42	1098.65
507.78	1097.48
508.13	1097.48
508.49	1098.65
508.85	1087.41
509.21	1094.67
509.57	1104.97
509.93	1102.63
510.28	1094.67
510.64	1093.50
511.00	1081.80
511.36	1062.60
511.72	1069.39
512.07	1078.99
512.43	1079.69
512.79	1093.73
513.15	1107.78
513.51	1091.16
513.86	1085.54
514.22	1078.28
514.58	1068.22
514.94	1063.54
515.30	1070.56
515.65	1070.33
516.01	1073.60
516.37	1072.90
516.73	1074.54
517.08	1073.84
517.44	1068.22
517.80	1066.58
518.16	1066.35
518.51	1072.67
518.87	1068.69
519.23	1080.63
519.59	1083.90
519.94	1093.26
520.30	1088.12
520.66	1099.35
521.01	1103.33
521.37	1101.92
521.73	1098.18
522.09	1098.18
522.44	1099.82
522.80	1095.37
523.16	1095.60
523.51	1086.71
523.87	1089.29
524.23	1093.73
524.58	1091.39
524.94	1098.41
525.30	1104.03
525.65	1102.39
526.01	1099.12
526.37	1102.16
526.72	1099.58
527.08	1104.73
527.44	1099.35
527.79	1097.95
528.15	1095.14
528.51	1093.03
528.86	1077.35
529.22	1081.56
529.58	1082.03
529.93	1077.11
530.29	1075.01
530.65	1085.54
531.00	1088.82
531.36	1081.56
531.71	1081.56
532.07	1086.94
532.43	1095.84
532.78	1097.48
533.14	1099.35
533.49	1095.60
533.85	1106.61
534.21	1092.09
534.56	1094.90
534.92	1094.43
535.27	1104.73
535.63	1092.56
535.98	1101.92
536.34	1093.03
536.69	1101.46
537.05	1099.58
537.41	1095.14
537.76	1089.75
538.12	1086.48
538.47	1072.67
538.83	1069.39
539.18	1074.07
539.54	1075.48
539.89	1080.63
540.25	1087.41
540.60	1089.52
540.96	1089.29
541.31	1090.69
541.67	1096.31
542.02	1092.56
542.38	1095.37
542.73	1097.71
543.09	1104.97
543.44	1107.54
543.80	1112.69
544.15	1108.48
544.51	1108.71
544.86	1102.63
545.22	1102.39
545.57	1114.33
545.93	1118.78
546.28	1119.24
546.64	1116.44
546.99	1104.50
547.35	1099.82
547.70	1100.75
548.05	1097.71
548.41	1098.18
548.76	1106.14
549.12	1097.71
549.47	1096.31
549.83	1095.60
550.18	1090.92
550.53	1089.75
550.89	1095.14
551.24	1093.03
551.60	1095.84
551.95	1095.37
552.30	1083.67
552.66	1079.92
553.01	1078.05
553.37	1071.97
553.72	1078.75
554.07	1084.60
554.43	1078.05
554.78	1075.01
555.13	1082.73
555.49	1085.77
555.84	1076.88
556.19	1078.75
556.55	1089.99
556.90	1081.80
557.26	1071.26
557.61	1085.31
557.96	1083.20
558.32	1064.94
558.67	1069.16
559.02	1071.73
559.37	1070.56
559.73	1071.03
560.08	1078.05
560.43	1069.62
560.79	1077.58
561.14	1082.73
561.49	1078.28
561.85	1086.94
562.20	1102.86
562.55	1095.14
562.90	1074.54
563.26	1083.90
563.61	1072.67
563.96	1062.84
564.32	1057.92
564.67	1080.63
565.02	1081.33
565.37	1083.43
565.73	1081.56
566.08	1080.63
566.43	1076.88
566.78	1075.48
567.14	1075.48
567.49	1079.69
567.84	1079.69
568.19	1072.20
568.54	1078.52
568.90	1073.60
569.25	1069.62
569.60	1073.14
569.95	1075.48
570.31	1070.56
570.66	1076.88
571.01	1080.39
571.36	1089.05
571.71	1090.22
572.06	1084.60
572.42	1089.75
572.77	1084.84
573.12	1074.54
573.47	1079.46
573.82	1086.24
574.18	1082.03
574.53	1087.65
574.88	1104.26
575.23	1100.05
575.58	1101.22
575.93	1106.61
576.28	1101.92
576.64	1092.09
576.99	1086.24
577.34	1081.56
577.69	1076.18
578.04	1072.20
578.39	1067.52
578.74	1083.43
579.09	1078.05
579.44	1076.41
579.80	1078.75
580.15	1087.18
580.50	1078.52
580.85	1084.84
581.20	1084.60
581.55	1092.80
581.90	1079.22
582.25	1076.18
582.60	1070.80
582.95	1068.92
583.30	1067.05
583.65	1071.73
584.00	1065.88
584.35	1068.69
584.71	1078.05
585.06	1082.97
585.41	1093.97
585.76	1099.35
586.11	1105.44
586.46	1096.54
586.81	1093.97
587.16	1083.90
587.51	1083.20
587.86	1085.07
588.21	1090.92
588.56	1088.12
588.91	1092.09
589.26	1095.14
589.61	1087.41
589.96	1078.52
590.31	1065.18
590.66	1057.92
591.01	1065.65
591.36	1067.99
591.71	1078.28
592.06	1095.37
592.41	1108.01
592.76	1093.26
593.10	1086.24
593.45	1084.14
593.80	1078.28
594.15	1063.07
594.50	1063.54
594.85	1062.84
595.20	1070.09
595.55	1072.67
595.90	1081.09
596.25	1089.29
596.60	1093.73
596.95	1090.69
597.30	1079.46
597.64	1125.56
597.99	1116.90
598.34	1112.92
598.69	1113.39
599.04	1133.05
599.39	1083.90
599.74	1090.46
600.09	1094.20
600.44	1084.84
600.78	1068.22
601.13	1075.71
601.48	1074.77
601.83	1070.80
602.18	1072.43
602.53	1086.48
602.88	1086.48
603.22	1081.09
603.57	1083.67
603.92	1082.03
604.27	1077.82
604.62	1066.82
604.97	1078.52
605.31	1086.01
605.66	1083.90
606.01	1077.35
606.36	1085.77
606.71	1078.28
607.05	1078.75
607.40	1080.16
607.75	1086.94
608.10	1082.26
608.44	1082.03
608.79	1072.67
609.14	1080.39
609.49	1077.82
609.84	1078.52
610.18	1086.01
610.53	1103.80
610.88	1096.07
611.23	1092.56
611.57	1089.29
611.92	1092.09
612.27	1078.75
612.62	1084.84
612.96	1088.35
613.31	1091.16
613.66	1086.71
614.00	1083.90
614.35	1082.26
614.70	1091.63
615.05	1095.14
615.39	1087.18
615.74	1087.65
616.09	1087.65
616.43	1081.33
616.78	1073.14
617.13	1070.33
617.47	1063.07
617.82	1062.84
618.17	1064.48
618.51	1072.67
618.86	1076.88
619.21	1084.60
619.55	1091.16
619.90	1086.94
620.25	1086.01
620.59	1087.18
620.94	1096.31
621.29	1089.75
621.63	1091.86
621.98	1097.01
622.32	1100.75
622.67	1098.65
623.02	1112.69
623.36	1109.88
623.71	1097.01
624.05	1084.60
624.40	1078.05
624.75	1066.82
625.09	1066.11
625.44	1080.39
625.78	1088.35
626.13	1088.12
626.48	1089.99
626.82	1088.58
627.17	1086.01
627.51	1086.24
627.86	1093.50
628.20	1086.71
628.55	1076.18
628.89	1069.62
629.24	1068.45
629.58	1071.26
629.93	1067.99
630.28	1072.90
630.62	1075.71
630.97	1074.31
631.31	1059.09
631.66	1066.82
632.00	1071.26
632.35	1065.41
632.69	1066.35
633.04	1080.63
633.38	1083.67
633.73	1078.75
634.07	1090.22
634.42	1090.46
634.76	1090.92
635.11	1090.46
635.45	1093.50
635.79	1087.65
636.14	1088.82
636.48	1082.97
636.83	1079.22
637.17	1087.41
637.52	1090.69
637.86	1093.03
638.21	1088.82
638.55	1090.46
638.89	1085.77
639.24	1085.77
639.58	1084.84
639.93	1089.52
640.27	1086.24
640.61	1086.01
640.96	1082.26
641.30	1082.50
641.65	1078.28
641.99	1080.86
642.33	1082.50
642.68	1087.88
643.02	1086.71
643.37	1092.09
643.71	1086.01
644.05	1082.73
644.40	1078.05
644.74	1070.80
645.08	1061.67
645.43	1062.37
645.77	1063.31
646.11	1067.75
646.46	1074.31
646.80	1073.14
647.14	1086.71
647.49	1090.46
647.83	1083.67
648.17	1089.05
648.52	1091.86
648.86	1091.16
649.20	1090.46
649.55	1093.73
649.89	1086.48
650.23	1079.46
650.57	1072.43
650.92	1063.77
651.26	1065.18
651.60	1063.07
651.95	1071.03
652.29	1063.77
652.63	1072.43
652.97	1067.28
653.32	1077.11
653.66	1085.77
654.00	1098.41
654.34	1085.54
654.69	1084.60
655.03	1070.09
655.37	1060.73
655.71	1055.58
656.05	1065.65
656.40	1070.09
656.74	1078.99
657.08	1078.52
657.42	1078.75
657.76	1091.63
658.11	1091.16
658.45	1089.52
658.79	1100.29
659.13	1096.54
659.47	1089.29
659.82	1083.67
660.16	1082.73
660.50	1082.26
660.84	1078.52
661.18	1073.37
661.52	1072.20
661.87	1068.22
662.21	1056.75
662.55	1062.37
662.89	1064.71
663.23	1076.18
663.57	1082.26
663.91	1078.75
664.25	1071.26
664.60	1081.56
664.94	1073.84
665.28	1070.80
665.62	1081.80
665.96	1090.22
666.30	1079.22
666.64	1078.28
666.98	1076.65
667.32	1086.24
667.66	1079.22
668.01	1088.58
668.35	1101.92
668.69	1105.44
669.03	1102.63
669.37	1107.31
669.71	1092.09
670.05	1080.39
670.39	1083.43
670.73	1076.18
671.07	1077.35
671.41	1087.65
671.75	1086.48
672.09	1088.12
672.43	1080.86
672.77	1079.46
673.11	1076.65
673.45	1078.28
673.79	1075.48
674.13	1078.28
674.47	1082.73
674.81	1080.16
675.15	1081.33
675.49	1077.35
675.83	1074.31
676.17	1068.69
676.51	1069.62
676.85	1071.97
677.19	1077.35
677.53	1088.82
677.87	1087.18
678.21	1091.16
678.55	1096.07
678.89	1100.29
679.23	1097.95
679.57	1107.31
679.90	1112.46
680.24	1102.39
680.58	1093.97
680.92	1097.95
681.26	1096.54
681.60	1084.84
681.94	1086.94
682.28	1087.41
682.62	1072.20
682.96	1069.39
683.29	1069.86
683.63	1072.43
683.97	1072.43
684.31	1078.52
684.65	1076.88
684.99	1083.90
685.33	1087.65
685.67	1085.07
686.00	1088.35
686.34	1089.99
686.68	1073.84
687.02	1058.16
687.36	1059.09
687.70	1055.82
688.03	1053.48
688.37	1061.67
688.71	1075.01
689.05	1073.60
689.39	1086.71
689.72	1089.52
690.06	1091.39
690.40	1096.07
690.74	1105.90
691.08	1103.80
691.41	1100.99
691.75	1102.16
692.09	1089.75
692.43	1086.71
692.76	1079.46
693.10	1090.22
693.44	1090.46
693.78	1097.71
694.11	1099.58
694.45	1085.77
694.79	1076.41
695.13	1074.77
695.46	1077.11
695.80	1077.58
696.14	1087.18
696.48	1085.54
696.81	1091.86
697.15	1084.84
697.49	1082.03
697.82	1081.33
698.16	1077.35
698.50	1088.35
698.83	1094.90
699.17	1097.95
699.51	1101.22
699.84	1108.48
700.18	1099.12
700.52	1094.43
700.85	1093.26
701.19	1092.09
701.53	1090.92
701.86	1081.33
702.20	1077.11
702.54	1080.63
702.87	1082.97
703.21	1086.01
703.55	1090.46
703.88	1093.26
704.22	1092.80
704.55	1097.95
704.89	1091.86
705.23	1095.60
705.56	1097.24
705.90	1086.48
706.23	1075.94
706.57	1084.84
706.91	1080.63
707.24	1078.05
707.58	1086.71
707.91	1085.54
708.25	1085.07
708.58	1080.39
708.92	1073.37
709.26	1067.28
709.59	1078.75
709.93	1067.75
710.26	1062.60
710.60	1070.80
710.93	1065.88
711.27	1063.54
711.60	1067.28
711.94	1076.41
712.27	1078.52
712.61	1090.92
712.94	1081.33
713.28	1077.11
713.61	1072.43
713.95	1075.48
714.28	1076.18
714.62	1078.99
714.95	1085.54
715.29	1083.43
715.62	1077.35
715.96	1069.16
716.29	1066.82
716.63	1065.88
716.96	1075.94
717.29	1080.16
717.63	1071.73
717.96	1083.43
718.30	1079.69
718.63	1064.71
718.97	1062.37
719.30	1071.03
719.63	1062.60
719.97	1060.03
720.30	1072.43
720.64	1072.67
720.97	1067.28
721.30	1062.60
721.64	1065.65
721.97	1066.58
722.31	1068.92
722.64	1072.43
722.97	1085.54
723.31	1091.16
723.64	1091.86
723.97	1098.88
724.31	1100.52
724.64	1086.24
724.98	1081.80
725.31	1077.35
725.64	1065.41
725.98	1071.73
726.31	1075.94
726.64	1083.20
726.97	1085.31
727.31	1086.01
727.64	1084.37
727.97	1085.31
728.31	1080.39
728.64	1072.43
728.97	1065.65
729.31	1058.39
729.64	1054.88
729.97	1044.58
730.30	1052.54
730.64	1057.69
730.97	1069.86
731.30	1071.73
731.63	1083.90
731.97	1081.56
732.30	1076.18
732.63	1060.96
732.96	1061.67
733.30	1059.56
733.63	1053.71
733.96	1065.41
734.29	1079.69
734.63	1089.75
734.96	1085.07
735.29	1090.46
735.62	1086.94
735.95	1072.67
736.29	1064.01
736.62	1070.56
736.95	1065.18
737.28	1066.35
737.61	1065.65
737.94	1058.39
738.28	1053.71
738.61	1053.01
738.94	1053.01
739.27	1058.86
739.60	1053.48
739.93	1059.56
740.27	1066.11
740.60	1065.88
740.93	1062.60
741.26	1073.37
741.59	1075.01
741.92	1079.92
742.25	1064.48
742.58	1067.52
742.91	1070.80
743.25	1069.16
743.58	1075.48
743.91	1094.20
744.24	1099.12
744.57	1100.99
744.90	1100.52
745.23	1086.48
745.56	1074.77
745.89	1067.52
746.22	1067.05
746.55	1066.35
746.88	1072.43
747.21	1081.80
747.54	1089.75
747.87	1093.26
748.20	1091.63
748.53	1087.65
748.87	1093.03
749.20	1095.60
749.53	1095.37
749.86	1096.78
750.19	1100.75
750.52	1092.56
750.85	1086.24
751.18	1071.50
751.51	1070.56
751.84	1069.86
752.16	1074.77
752.49	1069.16
752.82	1075.94
753.15	1068.69
753.48	1068.45
753.81	1072.67
754.14	1079.92
754.47	1086.01
754.80	1084.14
755.13	1078.28
755.46	1072.90
755.79	1081.80
756.12	1075.48
756.45	1093.73
756.78	1093.73
757.11	1084.84
757.43	1081.09
757.76	1087.65
758.09	1072.67
758.42	1082.73
758.75	1087.41
759.08	1079.22
759.41	1075.94
759.74	1075.71
760.07	1071.73
760.39	1068.92
760.72	1080.39
761.05	1077.82
761.38	1082.50
761.71	1075.48
762.04	1074.31
762.36	1070.09
762.69	1073.84
763.02	1079.92
763.35	1086.24
763.68	1089.75
764.01	1082.03
764.33	1080.16
764.66	1078.52
764.99	1078.75
765.32	1083.43
765.65	1076.41
765.97	1075.01
766.30	1076.88
