SpectraSuite Data File
++++++++++++++++++++++++++++++++++++
Date: Mon Aug 26 10:25:56 PDT 2019
User: corrico
Dark Spectrum Present: No
Reference Spectrum Present: No
Number of Sampled Component Spectra: 1
Spectrometers: USB2+H06089
Integration Time (usec): 10000 (USB2+H06089)
Spectra Averaged: 2 (USB2+H06089)
Boxcar Smoothing: 2 (USB2+H06089)
Correct for Electrical Dark: No (USB2+H06089)
Strobe/Lamp Enabled: No (USB2+H06089)
Correct for Detector Non-linearity: No (USB2+H06089)
Correct for Stray Light: No (USB2+H06089)
Number of Pixels in Processed Spectrum: 2048
>>>>>Begin Processed Spectral Data<<<<<
339.70	1039.20
340.07	1039.20
340.45	992.39
340.82	974.37
341.19	949.09
341.57	918.43
341.94	911.17
342.31	908.13
342.69	892.91
343.06	893.15
343.43	893.62
343.81	891.04
344.18	893.38
344.55	885.19
344.93	884.96
345.30	895.49
345.67	909.53
346.04	927.79
346.42	951.66
346.79	962.90
347.16	975.54
347.54	983.26
347.91	990.75
348.28	998.71
348.65	999.88
349.03	1006.20
349.40	1008.77
349.77	1006.43
350.14	1017.90
350.52	1021.64
350.89	1024.22
351.26	1033.81
351.63	1033.58
352.01	1037.33
352.38	1051.37
352.75	1055.82
353.12	1063.07
353.50	1079.69
353.87	1085.54
354.24	1085.07
354.61	1089.99
354.98	1092.09
355.36	1086.48
355.73	1079.22
356.10	1077.58
356.47	1073.60
356.84	1073.14
357.22	1071.97
357.59	1075.01
357.96	1072.20
358.33	1072.20
358.70	1071.26
359.08	1076.65
359.45	1078.75
359.82	1094.43
360.19	1092.56
360.56	1088.12
360.94	1081.80
361.31	1080.16
361.68	1065.41
362.05	1062.37
362.42	1053.71
362.79	1053.24
363.16	1051.60
363.54	1064.24
363.91	1074.31
364.28	1080.63
364.65	1085.31
365.02	1078.75
365.39	1069.16
365.76	1068.69
366.14	1073.37
366.51	1076.88
366.88	1081.80
367.25	1074.07
367.62	1061.43
367.99	1057.69
368.36	1046.92
368.73	1046.45
369.10	1060.50
369.48	1070.80
369.85	1075.94
370.22	1067.28
370.59	1065.65
370.96	1066.58
371.33	1063.07
371.70	1069.86
372.07	1078.99
372.44	1076.65
372.81	1069.62
373.18	1063.07
373.55	1053.48
373.93	1051.37
374.30	1055.35
374.67	1062.84
375.04	1071.03
375.41	1070.80
375.78	1072.90
376.15	1071.50
376.52	1073.14
376.89	1065.41
377.26	1064.94
377.63	1066.35
378.00	1067.99
378.37	1057.22
378.74	1063.54
379.11	1069.62
379.48	1071.03
379.85	1069.86
380.22	1080.39
380.59	1078.52
380.96	1081.56
381.33	1075.48
381.70	1078.05
382.07	1072.43
382.44	1076.88
382.81	1071.73
383.18	1075.24
383.55	1078.28
383.92	1082.26
384.29	1087.18
384.66	1093.97
385.03	1093.26
385.40	1095.37
385.77	1090.69
386.14	1081.80
386.51	1075.01
386.88	1075.48
387.25	1065.65
387.62	1064.48
387.99	1064.24
388.36	1057.69
388.73	1054.41
389.10	1056.28
389.46	1054.18
389.83	1060.50
390.20	1072.20
390.57	1082.03
390.94	1084.37
391.31	1091.63
391.68	1094.67
392.05	1085.31
392.42	1086.01
392.79	1086.24
393.16	1083.67
393.53	1073.60
393.89	1077.58
394.26	1080.16
394.63	1077.58
395.00	1070.80
395.37	1071.26
395.74	1069.16
396.11	1058.39
396.48	1053.94
396.84	1060.73
397.21	1066.11
397.58	1059.09
397.95	1066.82
398.32	1077.58
398.69	1077.35
399.06	1082.50
399.42	1087.41
399.79	1083.67
400.16	1085.77
400.53	1080.63
400.90	1075.94
401.27	1074.77
401.64	1075.48
402.00	1071.26
402.37	1067.99
402.74	1061.67
403.11	1061.67
403.48	1062.60
403.84	1072.43
404.21	1086.48
404.58	1088.12
404.95	1096.07
405.32	1093.97
405.68	1087.18
406.05	1070.33
406.42	1076.18
406.79	1077.35
407.16	1075.24
407.52	1069.16
407.89	1078.99
408.26	1075.94
408.63	1072.20
408.99	1081.56
409.36	1087.18
409.73	1084.60
410.10	1077.35
410.47	1077.35
410.83	1073.14
411.20	1076.65
411.57	1081.80
411.94	1082.26
412.30	1076.18
412.67	1073.60
413.04	1065.18
413.40	1066.58
413.77	1072.20
414.14	1082.26
414.51	1077.35
414.87	1078.75
415.24	1075.01
415.61	1067.05
415.97	1064.24
416.34	1062.37
416.71	1050.67
417.08	1056.75
417.44	1065.88
417.81	1054.18
418.18	1051.37
418.54	1078.75
418.91	1079.46
419.28	1089.52
419.64	1098.65
420.01	1105.20
420.38	1092.80
420.74	1085.54
421.11	1076.88
421.48	1087.65
421.84	1090.46
422.21	1086.24
422.58	1077.82
422.94	1078.28
423.31	1060.50
423.68	1052.54
424.04	1059.56
424.41	1064.71
424.77	1055.35
425.14	1061.43
425.51	1062.84
425.87	1059.09
426.24	1050.67
426.61	1056.28
426.97	1055.58
427.34	1061.67
427.70	1061.43
428.07	1078.75
428.44	1075.01
428.80	1073.37
429.17	1078.99
429.53	1079.22
429.90	1073.60
430.27	1080.86
430.63	1088.82
431.00	1077.82
431.36	1075.71
431.73	1073.14
432.09	1079.92
432.46	1081.33
432.83	1081.56
433.19	1075.71
433.56	1079.92
433.92	1069.86
434.29	1054.65
434.65	1060.26
435.02	1061.90
435.38	1063.31
435.75	1062.14
436.11	1068.69
436.48	1075.71
436.84	1078.28
437.21	1079.92
437.57	1078.52
437.94	1083.43
438.30	1076.88
438.67	1075.48
439.03	1062.14
439.40	1061.90
439.76	1060.73
440.13	1060.96
440.49	1071.26
440.86	1080.63
441.22	1089.29
441.59	1089.05
441.95	1092.56
442.32	1090.92
442.68	1097.01
443.05	1086.01
443.41	1097.95
443.78	1100.52
444.14	1097.01
444.51	1087.88
444.87	1096.54
445.24	1089.29
445.60	1089.29
445.96	1092.56
446.33	1092.80
446.69	1080.86
447.06	1080.63
447.42	1071.26
447.79	1064.71
448.15	1065.41
448.51	1074.54
448.88	1067.52
449.24	1067.28
449.61	1074.77
449.97	1080.16
450.33	1075.71
450.70	1075.01
451.06	1071.03
451.43	1073.37
451.79	1067.52
452.15	1067.75
452.52	1071.97
452.88	1084.84
453.24	1081.09
453.61	1078.28
453.97	1076.41
454.34	1079.69
454.70	1068.69
455.06	1059.79
455.43	1062.14
455.79	1062.60
456.15	1053.48
456.52	1054.88
456.88	1060.73
457.24	1065.65
457.61	1072.67
457.97	1076.41
458.33	1077.11
458.70	1071.50
459.06	1072.43
459.42	1072.43
459.79	1067.05
460.15	1069.39
460.51	1073.84
460.88	1083.67
461.24	1081.56
461.60	1092.09
461.96	1092.09
462.33	1097.01
462.69	1090.46
463.05	1090.92
463.42	1090.92
463.78	1088.35
464.14	1083.20
464.50	1082.50
464.87	1082.03
465.23	1078.99
465.59	1084.37
465.95	1090.69
466.32	1090.22
466.68	1089.05
467.04	1087.41
467.40	1085.77
467.77	1069.39
468.13	1061.90
468.49	1062.37
468.85	1057.92
469.22	1067.75
469.58	1078.52
469.94	1074.54
470.30	1079.22
470.66	1085.07
471.03	1071.73
471.39	1073.60
471.75	1073.14
472.11	1069.86
472.47	1075.24
472.84	1078.28
473.20	1073.84
473.56	1082.50
473.92	1077.58
474.28	1074.07
474.65	1077.58
475.01	1074.31
475.37	1072.67
475.73	1084.60
476.09	1084.60
476.45	1079.92
476.81	1088.82
477.18	1099.12
477.54	1087.88
477.90	1084.84
478.26	1097.24
478.62	1094.43
478.98	1079.92
479.34	1090.92
479.71	1090.46
480.07	1077.11
480.43	1072.67
480.79	1082.03
481.15	1069.86
481.51	1073.60
481.87	1082.97
482.23	1097.48
482.59	1094.20
482.96	1098.88
483.32	1097.48
483.68	1099.35
484.04	1080.39
484.40	1081.80
484.76	1087.18
485.12	1094.20
485.48	1084.14
485.84	1087.18
486.20	1088.82
486.56	1078.75
486.92	1065.41
487.28	1068.69
487.64	1077.82
488.00	1071.97
488.37	1084.60
488.73	1090.22
489.09	1088.35
489.45	1089.05
489.81	1096.54
490.17	1095.60
490.53	1090.69
490.89	1088.12
491.25	1088.58
491.61	1080.39
491.97	1074.07
492.33	1072.90
492.69	1079.92
493.05	1071.03
493.41	1072.20
493.77	1075.01
494.13	1075.24
494.49	1074.07
494.85	1085.77
495.21	1081.56
495.57	1080.16
495.93	1078.75
496.29	1080.39
496.64	1082.97
497.00	1087.18
497.36	1096.07
497.72	1093.73
498.08	1095.84
498.44	1088.35
498.80	1089.75
499.16	1087.65
499.52	1106.14
499.88	1099.58
500.24	1096.31
500.60	1094.43
500.96	1085.77
501.32	1069.86
501.68	1075.24
502.03	1074.07
502.39	1071.26
502.75	1063.07
503.11	1067.75
503.47	1069.39
503.83	1072.20
504.19	1080.86
504.55	1094.20
504.91	1093.73
505.26	1075.48
505.62	1077.35
505.98	1080.39
506.34	1073.60
506.70	1085.07
507.06	1089.05
507.42	1078.05
507.78	1071.73
508.13	1071.26
508.49	1057.92
508.85	1059.79
509.21	1063.07
509.57	1055.11
509.93	1060.96
510.28	1060.96
510.64	1076.65
511.00	1090.46
511.36	1110.82
511.72	1111.29
512.07	1118.31
512.43	1106.84
512.79	1095.84
513.15	1081.56
513.51	1092.56
513.86	1097.24
514.22	1099.12
514.58	1106.37
514.94	1104.73
515.30	1093.03
515.65	1079.92
516.01	1068.92
516.37	1061.43
516.73	1074.31
517.08	1073.14
517.44	1077.58
517.80	1091.63
518.16	1104.03
518.51	1100.29
518.87	1098.65
519.23	1101.22
519.59	1095.37
519.94	1085.77
520.30	1084.14
520.66	1089.05
521.01	1086.94
521.37	1095.60
521.73	1098.41
522.09	1099.35
522.44	1098.88
522.80	1101.69
523.16	1096.31
523.51	1093.97
523.87	1093.26
524.23	1097.48
524.58	1096.07
524.94	1086.24
525.30	1089.29
525.65	1094.90
526.01	1094.20
526.37	1087.18
526.72	1100.52
527.08	1098.41
527.44	1096.54
527.79	1085.07
528.15	1090.92
528.51	1088.82
528.86	1094.90
529.22	1092.33
529.58	1103.33
529.93	1107.54
530.29	1110.12
530.65	1107.07
531.00	1100.99
531.36	1100.29
531.71	1100.05
532.07	1099.58
532.43	1097.95
532.78	1099.12
533.14	1103.80
533.49	1096.54
533.85	1099.82
534.21	1090.92
534.56	1096.07
534.92	1089.52
535.27	1099.35
535.63	1089.05
535.98	1100.52
536.34	1102.16
536.69	1096.07
537.05	1088.82
537.41	1096.54
537.76	1089.29
538.12	1091.16
538.47	1090.22
538.83	1088.58
539.18	1084.60
539.54	1082.50
539.89	1068.22
540.25	1071.03
540.60	1079.46
540.96	1076.65
541.31	1079.46
541.67	1083.20
542.02	1092.09
542.38	1088.12
542.73	1091.39
543.09	1093.50
543.44	1099.35
543.80	1096.78
544.15	1096.78
544.51	1094.67
544.86	1097.71
545.22	1087.65
545.57	1089.52
545.93	1093.26
546.28	1091.39
546.64	1090.92
546.99	1093.26
547.35	1088.82
547.70	1081.80
548.05	1086.01
548.41	1083.67
548.76	1086.48
549.12	1090.22
549.47	1089.75
549.83	1087.41
550.18	1088.58
550.53	1091.39
550.89	1094.20
551.24	1100.99
551.60	1101.46
551.95	1092.56
552.30	1095.14
552.66	1094.67
553.01	1092.80
553.37	1103.33
553.72	1108.01
554.07	1107.54
554.43	1103.80
554.78	1088.12
555.13	1078.52
555.49	1080.86
555.84	1075.71
556.19	1074.77
556.55	1089.29
556.90	1083.20
557.26	1086.01
557.61	1080.39
557.96	1073.84
558.32	1082.50
558.67	1097.71
559.02	1104.03
559.37	1111.05
559.73	1115.73
560.08	1103.09
560.43	1088.12
560.79	1069.62
561.14	1064.24
561.49	1064.24
561.85	1071.97
562.20	1080.39
562.55	1097.01
562.90	1106.84
563.26	1103.09
563.61	1101.22
563.96	1101.92
564.32	1091.86
564.67	1089.52
565.02	1087.88
565.37	1086.01
565.73	1091.86
566.08	1099.58
566.43	1097.71
566.78	1107.07
567.14	1103.80
567.49	1099.12
567.84	1100.29
568.19	1099.12
568.54	1097.48
568.90	1095.84
569.25	1093.26
569.60	1085.54
569.95	1085.07
570.31	1093.26
570.66	1108.01
571.01	1108.48
571.36	1105.44
571.71	1108.01
572.06	1102.63
572.42	1086.71
572.77	1080.39
573.12	1085.31
573.47	1092.09
573.82	1077.82
574.18	1079.22
574.53	1087.41
574.88	1094.43
575.23	1079.22
575.58	1085.07
575.93	1088.82
576.28	1082.97
576.64	1079.69
576.99	1087.65
577.34	1092.33
577.69	1094.67
578.04	1088.12
578.39	1084.37
578.74	1077.11
579.09	1073.60
579.44	1071.97
579.80	1074.31
580.15	1071.26
580.50	1084.37
580.85	1083.90
581.20	1074.54
581.55	1080.39
581.90	1078.28
582.25	1068.92
582.60	1067.75
582.95	1076.65
583.30	1070.56
583.65	1081.09
584.00	1082.97
584.35	1088.12
584.71	1084.84
585.06	1088.35
585.41	1085.54
585.76	1088.58
586.11	1081.80
586.46	1088.82
586.81	1081.33
587.16	1076.88
587.51	1075.94
587.86	1076.41
588.21	1070.56
588.56	1082.97
588.91	1091.39
589.26	1081.56
589.61	1083.20
589.96	1085.31
590.31	1084.14
590.66	1072.67
591.01	1076.65
591.36	1072.90
591.71	1070.33
592.06	1069.16
592.41	1083.43
592.76	1079.22
593.10	1086.71
593.45	1093.97
593.80	1081.80
594.15	1063.31
594.50	1064.24
594.85	1055.58
595.20	1042.71
595.55	1052.30
595.90	1064.24
596.25	1071.26
596.60	1082.03
596.95	1077.11
597.30	1078.99
597.64	1125.56
597.99	1122.05
598.34	1129.07
598.69	1139.37
599.04	1138.67
599.39	1090.92
599.74	1092.09
600.09	1084.37
600.44	1087.41
600.78	1087.18
601.13	1083.90
601.48	1084.60
601.83	1077.35
602.18	1080.63
602.53	1079.92
602.88	1071.97
603.22	1078.28
603.57	1081.09
603.92	1076.88
604.27	1077.82
604.62	1098.41
604.97	1089.75
605.31	1095.60
605.66	1090.22
606.01	1086.71
606.36	1071.26
606.71	1076.41
607.05	1079.46
607.40	1085.07
607.75	1091.63
608.10	1101.69
608.44	1104.26
608.79	1095.84
609.14	1106.37
609.49	1115.97
609.84	1104.97
610.18	1101.46
610.53	1101.46
610.88	1084.60
611.23	1075.48
611.57	1085.54
611.92	1088.82
612.27	1091.39
612.62	1092.09
612.96	1090.69
613.31	1089.75
613.66	1087.88
614.00	1085.77
614.35	1091.16
614.70	1088.58
615.05	1087.41
615.39	1098.65
615.74	1097.24
616.09	1096.07
616.43	1094.67
616.78	1093.26
617.13	1075.24
617.47	1072.67
617.82	1075.01
618.17	1085.31
618.51	1089.52
618.86	1096.54
619.21	1095.37
619.55	1089.99
619.90	1086.71
620.25	1076.65
620.59	1068.69
620.94	1068.69
621.29	1072.43
621.63	1070.56
621.98	1066.11
622.32	1075.24
622.67	1078.52
623.02	1074.54
623.36	1067.75
623.71	1077.58
624.05	1071.97
624.40	1070.80
624.75	1069.86
625.09	1078.28
625.44	1075.01
625.78	1081.80
626.13	1088.82
626.48	1093.97
626.82	1096.31
627.17	1097.48
627.51	1095.60
627.86	1090.22
628.20	1097.01
628.55	1097.48
628.89	1109.65
629.24	1109.41
629.58	1115.27
629.93	1110.58
630.28	1103.56
630.62	1091.39
630.97	1090.69
631.31	1086.24
631.66	1084.84
632.00	1081.33
632.35	1080.16
632.69	1089.05
633.04	1088.35
633.38	1081.09
633.73	1082.97
634.07	1092.56
634.42	1087.65
634.76	1082.26
635.11	1089.52
635.45	1085.07
635.79	1079.46
636.14	1067.52
636.48	1077.11
636.83	1081.09
637.17	1087.88
637.52	1077.82
637.86	1084.14
638.21	1076.41
638.55	1078.28
638.89	1081.33
639.24	1091.63
639.58	1094.20
639.93	1096.54
640.27	1100.52
640.61	1098.41
640.96	1103.56
641.30	1096.31
641.65	1094.90
641.99	1076.88
642.33	1078.75
642.68	1081.80
643.02	1093.26
643.37	1096.31
643.71	1107.54
644.05	1094.20
644.40	1090.69
644.74	1085.54
645.08	1083.67
645.43	1079.22
645.77	1087.41
646.11	1072.43
646.46	1066.58
646.80	1064.48
647.14	1064.94
647.49	1067.52
647.83	1072.67
648.17	1073.37
648.52	1073.14
648.86	1073.37
649.20	1076.18
649.55	1081.09
649.89	1089.52
650.23	1092.09
650.57	1088.82
650.92	1081.33
651.26	1087.18
651.60	1077.35
651.95	1072.67
652.29	1077.58
652.63	1076.41
652.97	1058.62
653.32	1064.71
653.66	1068.69
654.00	1067.99
654.34	1069.86
654.69	1078.75
655.03	1079.92
655.37	1078.75
655.71	1083.43
656.05	1081.56
656.40	1083.90
656.74	1082.73
657.08	1084.14
657.42	1079.46
657.76	1080.39
658.11	1085.77
658.45	1081.09
658.79	1084.60
659.13	1082.97
659.47	1088.35
659.82	1080.86
660.16	1086.71
660.50	1079.46
660.84	1076.88
661.18	1075.71
661.52	1080.39
661.87	1075.71
662.21	1084.37
662.55	1084.60
662.89	1081.80
663.23	1080.39
663.57	1083.43
663.91	1078.52
664.25	1077.82
664.60	1070.56
664.94	1071.50
665.28	1076.88
665.62	1081.56
665.96	1087.65
666.30	1090.92
666.64	1082.26
666.98	1078.05
667.32	1074.31
667.66	1074.07
668.01	1075.01
668.35	1082.26
668.69	1090.69
669.03	1094.20
669.37	1096.07
669.71	1107.31
670.05	1106.37
670.39	1101.22
670.73	1093.03
671.07	1088.58
671.41	1089.99
671.75	1086.94
672.09	1076.88
672.43	1073.60
672.77	1070.33
673.11	1060.03
673.45	1060.50
673.79	1059.56
674.13	1066.35
674.47	1070.33
674.81	1069.16
675.15	1064.01
675.49	1067.28
675.83	1060.50
676.17	1060.50
676.51	1063.54
676.85	1062.37
677.19	1065.41
677.53	1070.33
677.87	1067.52
678.21	1072.20
678.55	1081.80
678.89	1081.09
679.23	1088.82
679.57	1095.14
679.90	1091.86
680.24	1088.82
680.58	1085.54
680.92	1081.09
681.26	1086.48
681.60	1090.92
681.94	1097.95
682.28	1096.31
682.62	1087.18
682.96	1069.86
683.29	1057.92
683.63	1049.26
683.97	1055.35
684.31	1058.86
684.65	1072.43
684.99	1083.67
685.33	1081.80
685.67	1075.01
686.00	1077.58
686.34	1068.92
686.68	1065.65
687.02	1069.16
687.36	1077.35
687.70	1066.58
688.03	1069.16
688.37	1070.56
688.71	1070.80
689.05	1075.94
689.39	1094.20
689.72	1093.73
690.06	1089.75
690.40	1090.69
690.74	1083.20
691.08	1086.24
691.41	1091.86
691.75	1096.78
692.09	1104.26
692.43	1100.05
692.76	1090.92
693.10	1082.50
693.44	1077.58
693.78	1072.67
694.11	1076.65
694.45	1086.48
694.79	1084.60
695.13	1087.88
695.46	1089.29
695.80	1087.88
696.14	1080.16
696.48	1087.18
696.81	1090.22
697.15	1084.14
697.49	1086.94
697.82	1088.35
698.16	1093.97
698.50	1085.07
698.83	1085.07
699.17	1083.90
699.51	1079.22
699.84	1069.86
700.18	1068.92
700.52	1067.75
700.85	1064.48
701.19	1070.09
701.53	1076.41
701.86	1084.60
702.20	1086.71
702.54	1088.58
702.87	1084.37
703.21	1082.97
703.55	1071.03
703.88	1072.43
704.22	1074.54
704.55	1083.67
704.89	1074.77
705.23	1089.29
705.56	1093.73
705.90	1085.31
706.23	1078.05
706.57	1078.28
706.91	1075.24
707.24	1071.03
707.58	1083.90
707.91	1092.80
708.25	1098.88
708.58	1088.82
708.92	1088.82
709.26	1088.12
709.59	1076.41
709.93	1072.20
710.26	1074.77
710.60	1073.14
710.93	1068.22
711.27	1080.39
711.60	1084.60
711.94	1083.43
712.27	1087.18
712.61	1083.67
712.94	1070.80
713.28	1076.18
713.61	1080.63
713.95	1078.75
714.28	1069.62
714.62	1072.67
714.95	1066.82
715.29	1066.82
715.62	1060.26
715.96	1075.94
716.29	1080.86
716.63	1076.18
716.96	1075.71
717.29	1074.54
717.63	1065.41
717.96	1061.67
718.30	1065.88
718.63	1068.69
718.97	1072.20
719.30	1076.88
719.63	1071.26
719.97	1073.84
720.30	1078.28
720.64	1077.58
720.97	1086.01
721.30	1097.95
721.64	1097.95
721.97	1096.31
722.31	1103.09
722.64	1101.92
722.97	1095.84
723.31	1101.22
723.64	1101.46
723.97	1097.71
724.31	1095.84
724.64	1100.29
724.98	1086.48
725.31	1081.56
725.64	1089.75
725.98	1085.77
726.31	1080.39
726.64	1088.35
726.97	1098.88
727.31	1091.39
727.64	1089.75
727.97	1084.60
728.31	1077.35
728.64	1068.22
728.97	1067.75
729.31	1074.31
729.64	1090.69
729.97	1101.69
730.30	1100.29
730.64	1102.63
730.97	1105.90
731.30	1093.73
731.63	1085.31
731.97	1091.16
732.30	1084.37
732.63	1077.58
732.96	1081.33
733.30	1079.22
733.63	1072.20
733.96	1073.60
734.29	1072.20
734.63	1062.37
734.96	1075.71
735.29	1078.99
735.62	1084.60
735.95	1079.92
736.29	1086.71
736.62	1075.01
736.95	1077.82
737.28	1072.90
737.61	1075.94
737.94	1070.80
738.28	1075.01
738.61	1080.16
738.94	1082.03
739.27	1080.86
739.60	1082.26
739.93	1077.58
740.27	1067.75
740.60	1069.86
740.93	1074.31
741.26	1082.50
741.59	1090.22
741.92	1091.39
742.25	1097.48
742.58	1095.37
742.91	1078.75
743.25	1076.65
743.58	1074.54
743.91	1079.22
744.24	1072.20
744.57	1078.52
744.90	1081.09
745.23	1087.41
745.56	1075.24
745.89	1078.52
746.22	1087.41
746.55	1076.65
746.88	1070.80
747.21	1071.26
747.54	1076.41
747.87	1072.90
748.20	1078.28
748.53	1086.71
748.87	1082.97
749.20	1084.14
749.53	1094.20
749.86	1097.24
750.19	1090.46
750.52	1100.75
750.85	1094.20
751.18	1078.99
751.51	1067.99
751.84	1062.60
752.16	1060.50
752.49	1067.05
752.82	1084.84
753.15	1091.16
753.48	1096.07
753.81	1093.50
754.14	1095.84
754.47	1075.71
754.80	1072.90
755.13	1061.67
755.46	1064.24
755.79	1066.11
756.12	1071.97
756.45	1078.28
756.78	1091.63
757.11	1088.35
757.43	1080.39
757.76	1084.84
758.09	1082.03
758.42	1082.50
758.75	1076.88
759.08	1081.09
759.41	1081.80
759.74	1082.26
760.07	1084.37
760.39	1090.22
760.72	1082.26
761.05	1079.22
761.38	1076.65
761.71	1070.56
762.04	1066.82
762.36	1070.09
762.69	1070.33
763.02	1070.09
763.35	1074.31
763.68	1080.39
764.01	1078.75
764.33	1079.22
764.66	1084.37
764.99	1080.86
765.32	1077.35
765.65	1085.07
765.97	1073.14
766.30	1073.14
