SpectraSuite Data File
++++++++++++++++++++++++++++++++++++
Date: Mon Aug 26 10:25:57 PDT 2019
User: corrico
Dark Spectrum Present: No
Reference Spectrum Present: No
Number of Sampled Component Spectra: 1
Spectrometers: USB2+H06089
Integration Time (usec): 10000 (USB2+H06089)
Spectra Averaged: 2 (USB2+H06089)
Boxcar Smoothing: 2 (USB2+H06089)
Correct for Electrical Dark: No (USB2+H06089)
Strobe/Lamp Enabled: No (USB2+H06089)
Correct for Detector Non-linearity: No (USB2+H06089)
Correct for Stray Light: No (USB2+H06089)
Number of Pixels in Processed Spectrum: 2048
>>>>>Begin Processed Spectral Data<<<<<
339.70	1046.22
340.07	1046.22
340.45	998.24
340.82	963.60
341.19	933.87
341.57	913.98
341.94	896.89
342.31	900.87
342.69	903.91
343.06	906.26
343.43	900.40
343.81	901.81
344.18	902.28
344.55	912.57
344.93	927.79
345.30	924.98
345.67	928.96
346.04	928.49
346.42	931.07
346.79	927.32
347.16	937.15
347.54	955.87
347.91	978.11
348.28	993.09
348.65	1001.75
349.03	1023.28
349.40	1031.24
349.77	1041.77
350.14	1043.88
350.52	1053.94
350.89	1045.75
351.26	1045.05
351.63	1040.37
352.01	1043.18
352.38	1038.96
352.75	1052.30
353.12	1056.28
353.50	1056.52
353.87	1056.28
354.24	1060.73
354.61	1062.14
354.98	1074.54
355.36	1086.48
355.73	1098.41
356.10	1100.52
356.47	1098.41
356.84	1100.75
357.22	1093.97
357.59	1086.71
357.96	1082.03
358.33	1078.75
358.70	1072.43
359.08	1082.73
359.45	1086.24
359.82	1090.22
360.19	1093.50
360.56	1077.82
360.94	1061.90
361.31	1056.28
361.68	1049.26
362.05	1032.18
362.42	1045.05
362.79	1045.75
363.16	1050.20
363.54	1062.14
363.91	1082.26
364.28	1078.28
364.65	1082.50
365.02	1078.28
365.39	1086.01
365.76	1079.92
366.14	1074.77
366.51	1081.80
366.88	1083.43
367.25	1069.16
367.62	1078.52
367.99	1075.24
368.36	1071.97
368.73	1069.86
369.10	1067.05
369.48	1055.11
369.85	1057.45
370.22	1048.09
370.59	1052.30
370.96	1054.65
371.33	1061.90
371.70	1070.80
372.07	1076.65
372.44	1073.37
372.81	1067.75
373.18	1059.79
373.55	1066.82
373.93	1059.79
374.30	1065.18
374.67	1072.20
375.04	1078.99
375.41	1066.35
375.78	1080.63
376.15	1082.26
376.52	1085.07
376.89	1082.73
377.26	1079.22
377.63	1067.28
378.00	1060.03
378.37	1047.16
378.74	1045.28
379.11	1048.79
379.48	1049.96
379.85	1055.35
380.22	1064.48
380.59	1067.75
380.96	1071.50
381.33	1070.09
381.70	1068.22
382.07	1073.84
382.44	1075.24
382.81	1074.77
383.18	1079.22
383.55	1082.03
383.92	1078.28
384.29	1076.88
384.66	1070.09
385.03	1062.37
385.40	1057.22
385.77	1060.50
386.14	1062.60
386.51	1077.58
386.88	1083.20
387.25	1083.43
387.62	1081.09
387.99	1080.63
388.36	1076.18
388.73	1069.62
389.10	1063.77
389.46	1060.03
389.83	1055.58
390.20	1048.56
390.57	1046.92
390.94	1053.71
391.31	1060.96
391.68	1065.18
392.05	1077.58
392.42	1095.14
392.79	1096.54
393.16	1089.29
393.53	1086.01
393.89	1086.01
394.26	1078.75
394.63	1079.22
395.00	1084.37
395.37	1088.12
395.74	1081.33
396.11	1078.99
396.48	1079.92
396.84	1073.60
397.21	1066.82
397.58	1071.73
397.95	1072.90
398.32	1064.48
398.69	1075.01
399.06	1082.26
399.42	1069.62
399.79	1067.99
400.16	1069.86
400.53	1072.20
400.90	1069.86
401.27	1079.92
401.64	1084.60
402.00	1088.58
402.37	1084.60
402.74	1084.37
403.11	1070.80
403.48	1066.11
403.84	1066.11
404.21	1063.77
404.58	1064.01
404.95	1075.01
405.32	1082.50
405.68	1082.26
406.05	1076.65
406.42	1077.35
406.79	1084.14
407.16	1078.05
407.52	1078.28
407.89	1084.37
408.26	1089.05
408.63	1083.67
408.99	1093.26
409.36	1096.78
409.73	1097.24
410.10	1087.41
410.47	1092.80
410.83	1084.60
411.20	1081.09
411.57	1082.73
411.94	1091.86
412.30	1085.54
412.67	1084.84
413.04	1085.31
413.40	1078.28
413.77	1066.35
414.14	1070.80
414.51	1078.28
414.87	1084.37
415.24	1090.92
415.61	1097.48
415.97	1094.90
416.34	1078.28
416.71	1069.39
417.08	1068.22
417.44	1067.99
417.81	1053.24
418.18	1071.97
418.54	1081.09
418.91	1083.43
419.28	1083.20
419.64	1093.97
420.01	1095.14
420.38	1077.82
420.74	1069.86
421.11	1068.22
421.48	1070.56
421.84	1058.86
422.21	1064.48
422.58	1071.26
422.94	1069.39
423.31	1069.39
423.68	1074.77
424.04	1079.92
424.41	1078.99
424.77	1075.48
425.14	1074.07
425.51	1070.56
425.87	1069.86
426.24	1070.33
426.61	1082.26
426.97	1083.90
427.34	1077.82
427.70	1078.99
428.07	1072.67
428.44	1061.43
428.80	1059.09
429.17	1066.35
429.53	1069.16
429.90	1069.39
430.27	1070.80
430.63	1072.43
431.00	1071.26
431.36	1070.56
431.73	1072.43
432.09	1072.43
432.46	1079.92
432.83	1078.75
433.19	1071.26
433.56	1075.48
433.92	1076.65
434.29	1065.88
434.65	1071.97
435.02	1081.56
435.38	1081.33
435.75	1085.07
436.11	1084.37
436.48	1084.37
436.84	1089.29
437.21	1073.84
437.57	1067.99
437.94	1067.99
438.30	1062.84
438.67	1056.05
439.03	1067.28
439.40	1078.05
439.76	1083.20
440.13	1081.56
440.49	1079.22
440.86	1087.65
441.22	1082.97
441.59	1080.39
441.95	1087.41
442.32	1085.31
442.68	1076.41
443.05	1075.01
443.41	1075.94
443.78	1065.88
444.14	1068.22
444.51	1076.65
444.87	1081.80
445.24	1080.63
445.60	1085.31
445.96	1082.03
446.33	1078.05
446.69	1078.28
447.06	1079.92
447.42	1089.99
447.79	1090.46
448.15	1088.58
448.51	1089.05
448.88	1088.35
449.24	1079.69
449.61	1085.77
449.97	1081.80
450.33	1085.54
450.70	1083.67
451.06	1073.37
451.43	1061.67
451.79	1063.07
452.15	1055.35
452.52	1062.60
452.88	1068.22
453.24	1073.14
453.61	1066.58
453.97	1065.65
454.34	1052.07
454.70	1060.50
455.06	1061.90
455.43	1069.62
455.79	1067.99
456.15	1075.94
456.52	1076.41
456.88	1078.52
457.24	1079.22
457.61	1084.37
457.97	1082.97
458.33	1071.73
458.70	1068.92
459.06	1066.11
459.42	1061.90
459.79	1055.11
460.15	1062.84
460.51	1071.97
460.88	1064.71
461.24	1068.92
461.60	1077.11
461.96	1076.65
462.33	1071.26
462.69	1076.65
463.05	1082.26
463.42	1081.33
463.78	1078.05
464.14	1077.82
464.50	1081.56
464.87	1078.75
465.23	1080.16
465.59	1074.31
465.95	1074.77
466.32	1082.97
466.68	1080.39
467.04	1078.75
467.40	1090.46
467.77	1090.46
468.13	1085.07
468.49	1075.94
468.85	1082.50
469.22	1079.69
469.58	1080.63
469.94	1079.22
470.30	1085.77
470.66	1083.90
471.03	1094.20
471.39	1095.84
471.75	1098.88
472.11	1097.71
472.47	1092.33
472.84	1075.48
473.20	1076.65
473.56	1081.09
473.92	1084.37
474.28	1089.29
474.65	1099.58
475.01	1088.58
475.37	1069.39
475.73	1059.09
476.09	1058.39
476.45	1059.09
476.81	1055.11
477.18	1056.52
477.54	1063.07
477.90	1068.22
478.26	1069.86
478.62	1081.33
478.98	1098.41
479.34	1102.86
479.71	1090.92
480.07	1088.12
480.43	1089.99
480.79	1079.92
481.15	1072.20
481.51	1068.69
481.87	1076.41
482.23	1065.65
482.59	1064.01
482.96	1068.22
483.32	1085.07
483.68	1078.75
484.04	1081.33
484.40	1092.80
484.76	1092.56
485.12	1088.58
485.48	1082.73
485.84	1087.65
486.20	1080.16
486.56	1086.94
486.92	1084.84
487.28	1092.09
487.64	1084.14
488.00	1086.94
488.37	1080.16
488.73	1083.90
489.09	1086.01
489.45	1093.03
489.81	1088.58
490.17	1087.41
490.53	1084.14
490.89	1070.80
491.25	1077.58
491.61	1076.18
491.97	1084.14
492.33	1086.71
492.69	1088.12
493.05	1085.54
493.41	1097.95
493.77	1098.18
494.13	1091.39
494.49	1095.14
494.85	1101.22
495.21	1088.35
495.57	1086.01
495.93	1092.09
496.29	1094.90
496.64	1089.75
497.00	1094.20
497.36	1086.94
497.72	1081.09
498.08	1073.37
498.44	1066.35
498.80	1065.88
499.16	1064.71
499.52	1071.97
499.88	1079.22
500.24	1074.07
500.60	1066.82
500.96	1063.31
501.32	1062.84
501.68	1060.73
502.03	1069.62
502.39	1081.33
502.75	1089.99
503.11	1075.01
503.47	1078.28
503.83	1077.58
504.19	1075.71
504.55	1077.35
504.91	1087.18
505.26	1082.50
505.62	1089.99
505.98	1089.75
506.34	1098.88
506.70	1099.12
507.06	1101.69
507.42	1102.39
507.78	1094.90
508.13	1087.41
508.49	1079.92
508.85	1075.94
509.21	1069.86
509.57	1070.09
509.93	1071.26
510.28	1079.22
510.64	1078.05
511.00	1070.80
511.36	1076.88
511.72	1068.22
512.07	1060.26
512.43	1064.24
512.79	1066.11
513.15	1063.77
513.51	1068.22
513.86	1081.80
514.22	1082.73
514.58	1081.09
514.94	1087.88
515.30	1085.07
515.65	1081.56
516.01	1088.82
516.37	1092.56
516.73	1093.50
517.08	1087.41
517.44	1089.99
517.80	1078.05
518.16	1081.33
518.51	1074.54
518.87	1087.88
519.23	1089.99
519.59	1100.29
519.94	1102.63
520.30	1104.03
520.66	1103.56
521.01	1093.26
521.37	1094.20
521.73	1097.95
522.09	1090.22
522.44	1092.80
522.80	1112.46
523.16	1114.56
523.51	1102.86
523.87	1107.31
524.23	1107.31
524.58	1087.18
524.94	1071.97
525.30	1074.54
525.65	1082.50
526.01	1078.52
526.37	1082.50
526.72	1096.31
527.08	1099.82
527.44	1098.65
527.79	1099.12
528.15	1103.33
528.51	1102.16
528.86	1105.67
529.22	1104.50
529.58	1102.16
529.93	1105.20
530.29	1102.63
530.65	1099.58
531.00	1097.71
531.36	1098.65
531.71	1095.60
532.07	1090.92
532.43	1093.73
532.78	1103.56
533.14	1099.82
533.49	1099.12
533.85	1102.39
534.21	1103.33
534.56	1101.69
534.92	1099.12
535.27	1100.75
535.63	1094.20
535.98	1086.71
536.34	1076.41
536.69	1080.39
537.05	1076.88
537.41	1083.67
537.76	1078.28
538.12	1080.86
538.47	1088.82
538.83	1083.90
539.18	1080.39
539.54	1091.16
539.89	1094.43
540.25	1094.67
540.60	1091.86
540.96	1098.88
541.31	1104.73
541.67	1102.16
542.02	1105.44
542.38	1101.46
542.73	1090.92
543.09	1078.99
543.44	1075.01
543.80	1069.39
544.15	1073.84
544.51	1078.75
544.86	1084.84
545.22	1091.63
545.57	1083.90
545.93	1094.43
546.28	1093.26
546.64	1087.18
546.99	1080.39
547.35	1090.69
547.70	1080.16
548.05	1086.71
548.41	1094.43
548.76	1089.05
549.12	1083.20
549.47	1089.29
549.83	1081.80
550.18	1080.86
550.53	1094.67
550.89	1094.20
551.24	1096.07
551.60	1104.03
551.95	1085.54
552.30	1073.14
552.66	1074.54
553.01	1073.37
553.37	1060.50
553.72	1078.05
554.07	1089.05
554.43	1081.56
554.78	1085.07
555.13	1095.14
555.49	1089.05
555.84	1094.90
556.19	1095.14
556.55	1081.56
556.90	1073.60
557.26	1069.16
557.61	1061.20
557.96	1067.28
558.32	1077.11
558.67	1077.58
559.02	1080.16
559.37	1082.03
559.73	1074.77
560.08	1073.14
560.43	1076.41
560.79	1081.80
561.14	1074.77
561.49	1080.86
561.85	1086.01
562.20	1086.71
562.55	1084.60
562.90	1084.60
563.26	1081.56
563.61	1080.39
563.96	1076.41
564.32	1079.92
564.67	1085.31
565.02	1094.90
565.37	1094.90
565.73	1100.52
566.08	1097.71
566.43	1102.16
566.78	1095.14
567.14	1096.31
567.49	1091.86
567.84	1096.31
568.19	1094.43
568.54	1096.07
568.90	1094.43
569.25	1103.09
569.60	1096.78
569.95	1089.05
570.31	1084.37
570.66	1082.03
571.01	1089.52
571.36	1095.60
571.71	1111.75
572.06	1119.24
572.42	1117.14
572.77	1094.43
573.12	1088.82
573.47	1077.82
573.82	1065.41
574.18	1067.28
574.53	1074.07
574.88	1072.43
575.23	1075.94
575.58	1084.60
575.93	1083.20
576.28	1097.48
576.64	1101.46
576.99	1093.50
577.34	1094.20
577.69	1086.94
578.04	1071.73
578.39	1062.84
578.74	1059.56
579.09	1065.18
579.44	1066.58
579.80	1071.26
580.15	1079.22
580.50	1086.71
580.85	1084.37
581.20	1085.31
581.55	1083.43
581.90	1077.35
582.25	1082.03
582.60	1080.39
582.95	1089.52
583.30	1091.86
583.65	1097.24
584.00	1082.50
584.35	1076.88
584.71	1078.99
585.06	1066.11
585.41	1073.60
585.76	1073.37
586.11	1088.35
586.46	1083.67
586.81	1099.58
587.16	1093.73
587.51	1105.67
587.86	1097.71
588.21	1101.22
588.56	1097.95
588.91	1103.80
589.26	1109.41
589.61	1103.56
589.96	1104.97
590.31	1112.92
590.66	1100.99
591.01	1085.31
591.36	1086.48
591.71	1075.48
592.06	1069.62
592.41	1071.73
592.76	1088.58
593.10	1088.58
593.45	1088.35
593.80	1086.71
594.15	1081.80
594.50	1073.14
594.85	1065.88
595.20	1071.03
595.55	1072.43
595.90	1080.39
596.25	1084.37
596.60	1086.24
596.95	1087.88
597.30	1083.67
597.64	1138.20
597.99	1135.86
598.34	1138.44
598.69	1131.41
599.04	1128.37
599.39	1072.90
599.74	1067.28
600.09	1065.88
600.44	1076.88
600.78	1083.43
601.13	1086.24
601.48	1090.22
601.83	1091.39
602.18	1080.16
602.53	1082.03
602.88	1078.28
603.22	1086.71
603.57	1088.82
603.92	1093.50
604.27	1080.86
604.62	1090.92
604.97	1082.50
605.31	1090.69
605.66	1084.37
606.01	1087.88
606.36	1089.52
606.71	1084.37
607.05	1071.50
607.40	1080.63
607.75	1084.37
608.10	1080.39
608.44	1079.69
608.79	1086.71
609.14	1087.88
609.49	1085.77
609.84	1089.52
610.18	1105.67
610.53	1118.78
610.88	1110.12
611.23	1113.63
611.57	1105.90
611.92	1094.67
612.27	1079.22
612.62	1085.77
612.96	1088.82
613.31	1097.01
613.66	1106.14
614.00	1114.56
614.35	1122.99
614.70	1127.90
615.05	1123.46
615.39	1123.93
615.74	1119.48
616.09	1107.31
616.43	1099.82
616.78	1097.95
617.13	1089.99
617.47	1089.75
617.82	1094.67
618.17	1093.73
618.51	1089.99
618.86	1088.58
619.21	1085.77
619.55	1079.69
619.90	1080.86
620.25	1082.73
620.59	1076.18
620.94	1079.46
621.29	1088.58
621.63	1097.95
621.98	1095.60
622.32	1104.26
622.67	1100.29
623.02	1097.24
623.36	1096.78
623.71	1101.69
624.05	1096.78
624.40	1104.50
624.75	1112.92
625.09	1100.99
625.44	1097.48
625.78	1100.52
626.13	1096.78
626.48	1088.58
626.82	1086.71
627.17	1083.67
627.51	1074.54
627.86	1066.58
628.20	1060.03
628.55	1062.37
628.89	1062.14
629.24	1070.33
629.58	1078.05
629.93	1081.56
630.28	1078.99
630.62	1085.54
630.97	1093.73
631.31	1084.37
631.66	1087.88
632.00	1082.97
632.35	1076.88
632.69	1073.37
633.04	1079.69
633.38	1088.35
633.73	1110.58
634.07	1108.95
634.42	1091.63
634.76	1093.50
635.11	1083.67
635.45	1068.45
635.79	1064.24
636.14	1080.86
636.48	1081.56
636.83	1086.48
637.17	1086.71
637.52	1081.09
637.86	1080.63
638.21	1077.11
638.55	1075.01
638.89	1079.69
639.24	1094.20
639.58	1090.46
639.93	1089.99
640.27	1088.12
640.61	1084.84
640.96	1089.05
641.30	1094.20
641.65	1094.67
641.99	1090.69
642.33	1085.54
642.68	1081.33
643.02	1079.69
643.37	1079.22
643.71	1084.14
644.05	1096.07
644.40	1093.50
644.74	1091.16
645.08	1087.41
645.43	1095.60
645.77	1086.71
646.11	1087.41
646.46	1086.71
646.80	1093.50
647.14	1081.80
647.49	1082.03
647.83	1083.20
648.17	1082.50
648.52	1071.26
648.86	1073.14
649.20	1074.07
649.55	1074.31
649.89	1085.54
650.23	1096.54
650.57	1101.69
650.92	1103.56
651.26	1099.58
651.60	1082.73
651.95	1083.20
652.29	1075.94
652.63	1073.60
652.97	1075.48
653.32	1080.39
653.66	1083.43
654.00	1085.31
654.34	1085.54
654.69	1081.56
655.03	1077.35
655.37	1076.18
655.71	1079.46
656.05	1082.97
656.40	1093.97
656.74	1095.84
657.08	1087.65
657.42	1084.60
657.76	1086.71
658.11	1077.58
658.45	1071.50
658.79	1073.14
659.13	1065.41
659.47	1061.20
659.82	1068.92
660.16	1079.69
660.50	1084.37
660.84	1085.77
661.18	1091.63
661.52	1085.54
661.87	1084.14
662.21	1085.31
662.55	1093.26
662.89	1086.48
663.23	1086.48
663.57	1075.48
663.91	1068.69
664.25	1063.77
664.60	1058.39
664.94	1057.45
665.28	1067.28
665.62	1073.14
665.96	1078.99
666.30	1079.69
666.64	1076.88
666.98	1081.33
667.32	1082.26
667.66	1075.01
668.01	1082.03
668.35	1086.01
668.69	1075.01
669.03	1067.28
669.37	1066.35
669.71	1061.90
670.05	1069.62
670.39	1081.33
670.73	1087.18
671.07	1091.39
671.41	1095.84
671.75	1092.09
672.09	1090.46
672.43	1082.73
672.77	1092.56
673.11	1091.63
673.45	1092.80
673.79	1086.01
674.13	1092.56
674.47	1090.92
674.81	1090.22
675.15	1080.86
675.49	1077.58
675.83	1080.16
676.17	1075.94
676.51	1075.48
676.85	1086.24
677.19	1095.84
677.53	1095.84
677.87	1082.73
678.21	1086.48
678.55	1082.03
678.89	1077.35
679.23	1072.20
679.57	1082.26
679.90	1082.03
680.24	1083.90
680.58	1083.20
680.92	1091.86
681.26	1087.41
681.60	1083.67
681.94	1067.52
682.28	1069.86
682.62	1067.52
682.96	1073.14
683.29	1066.82
683.63	1077.58
683.97	1075.01
684.31	1070.56
684.65	1060.50
684.99	1064.71
685.33	1068.92
685.67	1063.77
686.00	1066.11
686.34	1070.09
686.68	1069.62
687.02	1082.03
687.36	1092.33
687.70	1088.35
688.03	1090.69
688.37	1093.26
688.71	1089.99
689.05	1086.01
689.39	1091.16
689.72	1086.01
690.06	1083.20
690.40	1080.39
690.74	1086.24
691.08	1084.37
691.41	1087.88
691.75	1083.43
692.09	1077.58
692.43	1074.07
692.76	1072.90
693.10	1082.73
693.44	1098.88
693.78	1095.60
694.11	1099.82
694.45	1102.16
694.79	1088.12
695.13	1079.22
695.46	1077.35
695.80	1076.88
696.14	1079.22
696.48	1088.58
696.81	1094.43
697.15	1097.71
697.49	1094.43
697.82	1085.07
698.16	1083.43
698.50	1069.39
698.83	1069.39
699.17	1068.92
699.51	1067.75
699.84	1056.75
700.18	1057.92
700.52	1051.60
700.85	1048.56
701.19	1058.39
701.53	1068.69
701.86	1073.14
702.20	1087.18
702.54	1090.92
702.87	1088.35
703.21	1086.71
703.55	1095.14
703.88	1086.01
704.22	1081.80
704.55	1083.67
704.89	1078.52
705.23	1076.18
705.56	1073.14
705.90	1078.05
706.23	1075.94
706.57	1086.24
706.91	1085.31
707.24	1084.60
707.58	1076.18
707.91	1070.33
708.25	1059.09
708.58	1063.07
708.92	1065.41
709.26	1070.33
709.59	1079.22
709.93	1083.90
710.26	1071.26
710.60	1068.22
710.93	1064.94
711.27	1068.69
711.60	1072.20
711.94	1075.71
712.27	1079.22
712.61	1087.88
712.94	1080.86
713.28	1077.58
713.61	1092.80
713.95	1091.16
714.28	1086.24
714.62	1091.86
714.95	1100.52
715.29	1088.82
715.62	1084.60
715.96	1089.05
716.29	1082.26
716.63	1074.31
716.96	1082.03
717.29	1086.24
717.63	1080.63
717.96	1073.37
718.30	1077.82
718.63	1064.01
718.97	1067.28
719.30	1073.14
719.63	1075.01
719.97	1074.07
720.30	1078.75
720.64	1081.33
720.97	1072.67
721.30	1083.67
721.64	1077.58
721.97	1087.88
722.31	1089.99
722.64	1099.12
722.97	1097.01
723.31	1102.16
723.64	1091.86
723.97	1086.71
724.31	1079.22
724.64	1079.22
724.98	1081.09
725.31	1093.73
725.64	1100.99
725.98	1101.46
726.31	1097.48
726.64	1091.16
726.97	1080.16
727.31	1072.90
727.64	1074.77
727.97	1080.39
728.31	1085.54
728.64	1087.88
728.97	1085.77
729.31	1079.69
729.64	1074.07
729.97	1075.94
730.30	1063.31
730.64	1068.45
730.97	1070.56
731.30	1072.67
731.63	1071.50
731.97	1082.50
732.30	1077.35
732.63	1089.29
732.96	1085.07
733.30	1084.14
733.63	1084.14
733.96	1091.86
734.29	1082.97
734.63	1084.84
734.96	1089.05
735.29	1093.26
735.62	1083.67
735.95	1086.71
736.29	1084.84
736.62	1082.97
736.95	1072.90
737.28	1087.88
737.61	1089.52
737.94	1093.73
738.28	1103.09
738.61	1111.52
738.94	1098.88
739.27	1085.07
739.60	1083.43
739.93	1070.56
740.27	1068.92
740.60	1071.03
740.93	1084.60
741.26	1088.12
741.59	1093.03
741.92	1088.12
742.25	1090.92
742.58	1086.48
742.91	1084.84
743.25	1092.56
743.58	1098.18
743.91	1100.29
744.24	1108.48
744.57	1112.92
744.90	1097.48
745.23	1093.97
745.56	1090.92
745.89	1081.33
746.22	1075.24
746.55	1077.58
746.88	1089.75
747.21	1090.22
747.54	1093.50
747.87	1093.26
748.20	1093.26
748.53	1087.88
748.87	1080.39
749.20	1080.63
749.53	1086.94
749.86	1081.33
750.19	1069.62
750.52	1072.20
750.85	1068.69
751.18	1064.94
751.51	1079.46
751.84	1089.75
752.16	1094.43
752.49	1107.07
752.82	1108.71
753.15	1105.90
753.48	1096.31
753.81	1095.60
754.14	1081.80
754.47	1075.24
754.80	1066.82
755.13	1073.14
755.46	1073.14
755.79	1074.77
756.12	1069.16
756.45	1079.22
756.78	1079.92
757.11	1072.43
757.43	1074.31
757.76	1077.58
758.09	1075.48
758.42	1069.62
758.75	1072.20
759.08	1077.35
759.41	1080.86
759.74	1078.28
760.07	1072.43
760.39	1076.88
760.72	1076.41
761.05	1079.92
761.38	1081.56
761.71	1083.20
762.04	1085.07
762.36	1081.56
762.69	1070.33
763.02	1063.07
763.35	1075.01
763.68	1070.09
764.01	1069.62
764.33	1088.58
764.66	1090.69
764.99	1087.65
765.32	1083.43
765.65	1083.43
765.97	1072.43
766.30	1069.16
