SpectraSuite Data File
++++++++++++++++++++++++++++++++++++
Date: Mon Aug 26 10:25:55 PDT 2019
User: corrico
Dark Spectrum Present: No
Reference Spectrum Present: No
Number of Sampled Component Spectra: 1
Spectrometers: USB2+H06089
Integration Time (usec): 10000 (USB2+H06089)
Spectra Averaged: 2 (USB2+H06089)
Boxcar Smoothing: 2 (USB2+H06089)
Correct for Electrical Dark: No (USB2+H06089)
Strobe/Lamp Enabled: No (USB2+H06089)
Correct for Detector Non-linearity: No (USB2+H06089)
Correct for Stray Light: No (USB2+H06089)
Number of Pixels in Processed Spectrum: 2048
>>>>>Begin Processed Spectral Data<<<<<
339.70	1015.79
340.07	1015.79
340.45	988.41
340.82	965.00
341.19	940.90
341.57	922.64
341.94	912.34
342.31	904.85
342.69	908.36
343.06	910.47
343.43	908.13
343.81	905.55
344.18	912.11
344.55	910.23
344.93	912.57
345.30	922.17
345.67	940.90
346.04	944.41
346.42	958.45
346.79	972.96
347.16	970.62
347.54	960.32
347.91	968.51
348.28	972.02
348.65	972.49
349.03	997.07
349.40	1006.66
349.77	1018.84
350.14	1023.05
350.52	1028.67
350.89	1028.90
351.26	1035.92
351.63	1038.03
352.01	1043.18
352.38	1051.37
352.75	1053.94
353.12	1064.71
353.50	1064.71
353.87	1078.05
354.24	1081.09
354.61	1085.31
354.98	1078.99
355.36	1080.63
355.73	1072.90
356.10	1073.14
356.47	1068.69
356.84	1077.82
357.22	1090.22
357.59	1093.73
357.96	1097.48
358.33	1089.29
358.70	1090.22
359.08	1090.22
359.45	1094.43
359.82	1089.75
360.19	1094.20
360.56	1095.84
360.94	1093.97
361.31	1082.50
361.68	1080.63
362.05	1078.52
362.42	1070.09
362.79	1060.26
363.16	1068.22
363.54	1068.45
363.91	1071.26
364.28	1073.14
364.65	1072.90
365.02	1067.75
365.39	1064.71
365.76	1065.18
366.14	1061.67
366.51	1066.82
366.88	1065.41
367.25	1067.28
367.62	1072.20
367.99	1082.73
368.36	1075.24
368.73	1069.62
369.10	1073.60
369.48	1069.62
369.85	1066.35
370.22	1070.33
370.59	1067.75
370.96	1059.09
371.33	1050.43
371.70	1047.16
372.07	1053.48
372.44	1064.94
372.81	1067.99
373.18	1071.97
373.55	1077.35
373.93	1076.18
374.30	1075.71
374.67	1081.33
375.04	1086.71
375.41	1080.39
375.78	1074.77
376.15	1070.09
376.52	1064.94
376.89	1067.28
377.26	1057.92
377.63	1056.28
378.00	1062.60
378.37	1065.65
378.74	1058.86
379.11	1064.24
379.48	1071.50
379.85	1067.52
380.22	1064.48
380.59	1062.14
380.96	1067.28
381.33	1063.07
381.70	1069.39
382.07	1070.33
382.44	1081.33
382.81	1075.71
383.18	1062.84
383.55	1056.99
383.92	1060.50
384.29	1049.73
384.66	1052.77
385.03	1066.82
385.40	1071.73
385.77	1073.14
386.14	1077.58
386.51	1082.50
386.88	1074.54
387.25	1071.97
387.62	1068.45
387.99	1071.73
388.36	1076.41
388.73	1078.52
389.10	1076.18
389.46	1075.24
389.83	1070.33
390.20	1056.99
390.57	1060.50
390.94	1064.01
391.31	1068.92
391.68	1069.62
392.05	1077.58
392.42	1079.69
392.79	1075.71
393.16	1072.67
393.53	1069.86
393.89	1057.45
394.26	1054.41
394.63	1053.71
395.00	1047.62
395.37	1052.30
395.74	1058.62
396.11	1058.62
396.48	1061.90
396.84	1063.77
397.21	1065.18
397.58	1074.07
397.95	1070.33
398.32	1071.97
398.69	1071.26
399.06	1071.97
399.42	1066.82
399.79	1080.63
400.16	1083.90
400.53	1088.35
400.90	1078.99
401.27	1080.39
401.64	1071.03
402.00	1056.75
402.37	1065.65
402.74	1067.05
403.11	1067.52
403.48	1064.48
403.84	1081.33
404.21	1080.39
404.58	1084.84
404.95	1084.37
405.32	1089.05
405.68	1085.07
406.05	1079.46
406.42	1075.48
406.79	1055.11
407.16	1053.48
407.52	1045.05
407.89	1042.47
408.26	1045.99
408.63	1061.20
408.99	1062.60
409.36	1069.16
409.73	1069.62
410.10	1071.97
410.47	1081.09
410.83	1081.56
411.20	1087.18
411.57	1085.07
411.94	1086.48
412.30	1070.33
412.67	1065.65
413.04	1058.16
413.40	1054.65
413.77	1049.50
414.14	1066.11
414.51	1080.63
414.87	1075.94
415.24	1086.48
415.61	1095.84
415.97	1091.39
416.34	1072.20
416.71	1075.94
417.08	1072.90
417.44	1064.01
417.81	1060.03
418.18	1061.20
418.54	1067.99
418.91	1067.52
419.28	1064.24
419.64	1057.92
420.01	1067.99
420.38	1056.52
420.74	1056.05
421.11	1060.96
421.48	1070.56
421.84	1071.03
422.21	1072.90
422.58	1072.43
422.94	1078.99
423.31	1083.43
423.68	1081.80
424.04	1083.67
424.41	1091.39
424.77	1083.43
425.14	1068.22
425.51	1073.14
425.87	1074.31
426.24	1067.99
426.61	1068.92
426.97	1081.09
427.34	1080.86
427.70	1087.88
428.07	1085.07
428.44	1082.26
428.80	1085.07
429.17	1083.67
429.53	1077.35
429.90	1081.80
430.27	1095.60
430.63	1095.14
431.00	1096.54
431.36	1101.46
431.73	1098.65
432.09	1086.71
432.46	1085.07
432.83	1072.20
433.19	1074.07
433.56	1063.77
433.92	1065.88
434.29	1066.58
434.65	1077.11
435.02	1070.33
435.38	1087.65
435.75	1091.39
436.11	1087.88
436.48	1089.05
436.84	1093.73
437.21	1087.18
437.57	1088.12
437.94	1089.52
438.30	1091.86
438.67	1088.12
439.03	1091.39
439.40	1090.69
439.76	1093.97
440.13	1082.50
440.49	1088.58
440.86	1088.35
441.22	1086.94
441.59	1081.56
441.95	1096.07
442.32	1091.86
442.68	1093.73
443.05	1095.14
443.41	1093.03
443.78	1082.03
444.14	1073.37
444.51	1058.86
444.87	1060.03
445.24	1051.13
445.60	1059.09
445.96	1069.86
446.33	1082.03
446.69	1078.05
447.06	1092.56
447.42	1090.92
447.79	1086.01
448.15	1085.31
448.51	1076.88
448.88	1064.71
449.24	1060.73
449.61	1060.50
449.97	1051.37
450.33	1061.43
450.70	1069.39
451.06	1068.22
451.43	1066.82
451.79	1065.88
452.15	1071.73
452.52	1079.22
452.88	1090.92
453.24	1097.48
453.61	1113.86
453.97	1109.88
454.34	1104.97
454.70	1092.09
455.06	1096.07
455.43	1088.82
455.79	1076.65
456.15	1074.54
456.52	1080.63
456.88	1081.33
457.24	1080.86
457.61	1085.77
457.97	1081.33
458.33	1079.46
458.70	1066.35
459.06	1071.26
459.42	1074.77
459.79	1079.69
460.15	1076.18
460.51	1084.84
460.88	1078.05
461.24	1071.26
461.60	1074.77
461.96	1073.84
462.33	1068.69
462.69	1078.52
463.05	1094.20
463.42	1101.92
463.78	1100.75
464.14	1095.60
464.50	1090.22
464.87	1077.35
465.23	1065.41
465.59	1071.73
465.95	1076.88
466.32	1069.39
466.68	1070.80
467.04	1072.67
467.40	1071.73
467.77	1067.99
468.13	1073.14
468.49	1083.43
468.85	1084.14
469.22	1088.35
469.58	1091.16
469.94	1084.84
470.30	1077.82
470.66	1071.73
471.03	1067.05
471.39	1071.50
471.75	1073.37
472.11	1067.99
472.47	1079.92
472.84	1085.77
473.20	1082.03
473.56	1086.48
473.92	1090.22
474.28	1079.92
474.65	1068.92
475.01	1074.77
475.37	1067.75
475.73	1072.20
476.09	1073.60
476.45	1076.41
476.81	1079.46
477.18	1084.14
477.54	1075.71
477.90	1083.43
478.26	1096.07
478.62	1083.43
478.98	1086.94
479.34	1087.18
479.71	1083.43
480.07	1067.99
480.43	1069.16
480.79	1068.92
481.15	1061.90
481.51	1057.45
481.87	1060.50
482.23	1059.56
482.59	1062.14
482.96	1075.01
483.32	1076.41
483.68	1077.11
484.04	1077.82
484.40	1084.37
484.76	1079.69
485.12	1083.67
485.48	1074.77
485.84	1085.54
486.20	1074.54
486.56	1079.69
486.92	1081.80
487.28	1078.05
487.64	1076.65
488.00	1077.58
488.37	1076.65
488.73	1073.14
489.09	1086.71
489.45	1075.71
489.81	1071.03
490.17	1076.88
490.53	1069.39
490.89	1064.24
491.25	1063.31
491.61	1073.60
491.97	1060.03
492.33	1075.24
492.69	1073.37
493.05	1087.41
493.41	1089.52
493.77	1099.82
494.13	1086.48
494.49	1096.78
494.85	1091.16
495.21	1087.88
495.57	1090.22
495.93	1090.22
496.29	1087.41
496.64	1082.26
497.00	1080.16
497.36	1073.37
497.72	1070.33
498.08	1069.39
498.44	1085.31
498.80	1086.24
499.16	1094.90
499.52	1100.05
499.88	1098.18
500.24	1090.69
500.60	1086.48
500.96	1082.50
501.32	1089.75
501.68	1084.37
502.03	1075.24
502.39	1072.67
502.75	1064.24
503.11	1052.54
503.47	1056.05
503.83	1056.05
504.19	1068.22
504.55	1078.05
504.91	1087.41
505.26	1090.46
505.62	1098.18
505.98	1087.18
506.34	1087.41
506.70	1093.03
507.06	1097.24
507.42	1095.14
507.78	1100.52
508.13	1090.69
508.49	1084.84
508.85	1076.88
509.21	1073.37
509.57	1074.77
509.93	1068.45
510.28	1070.80
510.64	1075.01
511.00	1085.31
511.36	1081.56
511.72	1096.78
512.07	1094.20
512.43	1088.82
512.79	1078.75
513.15	1076.88
513.51	1074.77
513.86	1077.82
514.22	1082.97
514.58	1093.50
514.94	1088.82
515.30	1087.41
515.65	1093.73
516.01	1090.46
516.37	1080.86
516.73	1088.58
517.08	1089.52
517.44	1079.69
517.80	1089.99
518.16	1099.58
518.51	1093.26
518.87	1093.50
519.23	1096.54
519.59	1086.01
519.94	1080.63
520.30	1088.12
520.66	1080.86
521.01	1087.18
521.37	1098.41
521.73	1093.50
522.09	1098.65
522.44	1109.18
522.80	1099.35
523.16	1092.09
523.51	1085.07
523.87	1082.97
524.23	1080.86
524.58	1067.52
524.94	1075.24
525.30	1090.92
525.65	1078.52
526.01	1083.43
526.37	1096.07
526.72	1093.73
527.08	1087.88
527.44	1095.84
527.79	1088.82
528.15	1093.50
528.51	1093.03
528.86	1097.24
529.22	1100.05
529.58	1102.16
529.93	1109.18
530.29	1108.95
530.65	1106.84
531.00	1108.24
531.36	1102.16
531.71	1096.54
532.07	1104.73
532.43	1104.03
532.78	1100.75
533.14	1105.44
533.49	1104.26
533.85	1088.58
534.21	1092.80
534.56	1098.41
534.92	1104.50
535.27	1101.22
535.63	1103.09
535.98	1095.84
536.34	1087.88
536.69	1087.65
537.05	1083.90
537.41	1089.29
537.76	1091.63
538.12	1094.20
538.47	1095.84
538.83	1108.48
539.18	1104.03
539.54	1104.03
539.89	1101.22
540.25	1087.65
540.60	1086.01
540.96	1089.29
541.31	1093.26
541.67	1098.18
542.02	1097.01
542.38	1090.46
542.73	1094.67
543.09	1100.29
543.44	1103.80
543.80	1105.20
544.15	1104.03
544.51	1097.24
544.86	1086.01
545.22	1076.18
545.57	1081.56
545.93	1078.99
546.28	1078.75
546.64	1079.22
546.99	1076.88
547.35	1083.90
547.70	1088.82
548.05	1087.88
548.41	1096.54
548.76	1100.29
549.12	1097.01
549.47	1090.22
549.83	1087.88
550.18	1073.84
550.53	1071.50
550.89	1063.54
551.24	1073.37
551.60	1075.01
551.95	1075.94
552.30	1078.28
552.66	1076.18
553.01	1071.26
553.37	1071.73
553.72	1078.75
554.07	1078.75
554.43	1086.48
554.78	1085.07
555.13	1089.75
555.49	1088.12
555.84	1087.18
556.19	1082.97
556.55	1087.65
556.90	1078.52
557.26	1077.82
557.61	1086.48
557.96	1095.60
558.32	1090.22
558.67	1087.41
559.02	1083.20
559.37	1079.46
559.73	1076.41
560.08	1082.50
560.43	1098.88
560.79	1106.61
561.14	1101.22
561.49	1101.22
561.85	1093.50
562.20	1094.20
562.55	1086.94
562.90	1086.01
563.26	1089.75
563.61	1089.29
563.96	1085.31
564.32	1100.29
564.67	1105.44
565.02	1102.16
565.37	1108.95
565.73	1105.44
566.08	1091.86
566.43	1089.75
566.78	1080.39
567.14	1079.69
567.49	1078.75
567.84	1079.46
568.19	1090.22
568.54	1093.73
568.90	1088.58
569.25	1081.56
569.60	1075.48
569.95	1062.60
570.31	1064.24
570.66	1060.73
571.01	1062.84
571.36	1070.33
571.71	1070.09
572.06	1073.37
572.42	1082.97
572.77	1084.37
573.12	1079.69
573.47	1072.43
573.82	1064.94
574.18	1060.03
574.53	1067.05
574.88	1074.54
575.23	1082.26
575.58	1091.16
575.93	1096.78
576.28	1094.20
576.64	1086.48
576.99	1088.35
577.34	1087.41
577.69	1076.65
578.04	1072.43
578.39	1084.84
578.74	1082.03
579.09	1082.50
579.44	1087.65
579.80	1079.69
580.15	1069.16
580.50	1072.90
580.85	1071.03
581.20	1081.56
581.55	1095.84
581.90	1099.35
582.25	1100.29
582.60	1094.90
582.95	1082.26
583.30	1080.86
583.65	1079.92
584.00	1073.37
584.35	1080.39
584.71	1090.46
585.06	1091.16
585.41	1092.09
585.76	1104.03
586.11	1095.60
586.46	1083.90
586.81	1073.84
587.16	1080.16
587.51	1079.22
587.86	1087.41
588.21	1092.33
588.56	1094.67
588.91	1083.90
589.26	1082.50
589.61	1075.94
589.96	1074.77
590.31	1080.63
590.66	1081.80
591.01	1076.41
591.36	1071.97
591.71	1075.01
592.06	1077.58
592.41	1077.58
592.76	1084.84
593.10	1092.09
593.45	1095.37
593.80	1097.01
594.15	1096.78
594.50	1088.35
594.85	1087.41
595.20	1078.99
595.55	1072.20
595.90	1068.69
596.25	1072.90
596.60	1076.18
596.95	1074.07
597.30	1070.80
597.64	1135.63
597.99	1133.05
598.34	1143.12
598.69	1145.93
599.04	1151.31
599.39	1093.26
599.74	1097.95
600.09	1087.18
600.44	1082.73
600.78	1073.84
601.13	1074.07
601.48	1071.97
601.83	1072.90
602.18	1077.11
602.53	1078.99
602.88	1078.75
603.22	1068.69
603.57	1069.86
603.92	1075.48
604.27	1072.20
604.62	1062.60
604.97	1071.73
605.31	1067.99
605.66	1060.73
606.01	1075.24
606.36	1087.65
606.71	1085.07
607.05	1082.03
607.40	1087.41
607.75	1084.84
608.10	1078.99
608.44	1083.90
608.79	1101.46
609.14	1101.22
609.49	1100.99
609.84	1100.99
610.18	1105.67
610.53	1086.24
610.88	1091.16
611.23	1095.60
611.57	1098.88
611.92	1092.56
612.27	1093.73
612.62	1092.33
612.96	1084.60
613.31	1093.73
613.66	1086.94
614.00	1095.60
614.35	1091.86
614.70	1094.90
615.05	1084.37
615.39	1089.75
615.74	1089.29
616.09	1090.22
616.43	1086.48
616.78	1089.99
617.13	1082.50
617.47	1077.11
617.82	1075.71
618.17	1074.77
618.51	1073.37
618.86	1078.75
619.21	1069.16
619.55	1069.62
619.90	1074.77
620.25	1071.26
620.59	1078.99
620.94	1089.05
621.29	1087.41
621.63	1080.86
621.98	1077.82
622.32	1063.54
622.67	1065.65
623.02	1075.48
623.36	1077.35
623.71	1081.56
624.05	1095.37
624.40	1098.18
624.75	1081.80
625.09	1084.60
625.44	1083.90
625.78	1078.28
626.13	1079.46
626.48	1079.46
626.82	1084.84
627.17	1097.24
627.51	1098.88
627.86	1085.77
628.20	1093.26
628.55	1077.58
628.89	1053.48
629.24	1048.33
629.58	1057.92
629.93	1055.11
630.28	1063.31
630.62	1074.31
630.97	1082.26
631.31	1086.01
631.66	1082.73
632.00	1086.24
632.35	1087.41
632.69	1092.33
633.04	1082.26
633.38	1093.73
633.73	1091.16
634.07	1090.92
634.42	1083.90
634.76	1081.09
635.11	1076.65
635.45	1074.77
635.79	1075.24
636.14	1071.50
636.48	1082.97
636.83	1084.84
637.17	1079.92
637.52	1076.41
637.86	1077.82
638.21	1076.65
638.55	1061.90
638.89	1058.86
639.24	1067.75
639.58	1057.69
639.93	1062.14
640.27	1080.16
640.61	1086.71
640.96	1075.48
641.30	1091.39
641.65	1086.94
641.99	1089.52
642.33	1097.01
642.68	1103.80
643.02	1104.97
643.37	1107.07
643.71	1094.20
644.05	1091.63
644.40	1098.18
644.74	1099.82
645.08	1091.39
645.43	1092.09
645.77	1086.94
646.11	1071.26
646.46	1053.94
646.80	1055.11
647.14	1050.90
647.49	1058.62
647.83	1069.16
648.17	1076.88
648.52	1080.63
648.86	1086.01
649.20	1079.46
649.55	1081.80
649.89	1087.41
650.23	1097.71
650.57	1100.29
650.92	1106.37
651.26	1107.07
651.60	1101.22
651.95	1097.24
652.29	1091.86
652.63	1087.41
652.97	1084.60
653.32	1083.43
653.66	1071.50
654.00	1075.48
654.34	1073.60
654.69	1063.77
655.03	1069.86
655.37	1074.54
655.71	1065.18
656.05	1067.52
656.40	1073.84
656.74	1059.33
657.08	1064.94
657.42	1083.43
657.76	1080.86
658.11	1084.84
658.45	1082.73
658.79	1078.05
659.13	1059.33
659.47	1064.48
659.82	1071.26
660.16	1082.03
660.50	1088.12
660.84	1104.03
661.18	1100.52
661.52	1087.41
661.87	1084.37
662.21	1077.35
662.55	1069.86
662.89	1064.71
663.23	1069.16
663.57	1067.52
663.91	1065.88
664.25	1063.77
664.60	1066.35
664.94	1065.65
665.28	1078.52
665.62	1082.03
665.96	1076.18
666.30	1078.52
666.64	1073.37
666.98	1066.11
667.32	1064.24
667.66	1067.28
668.01	1071.73
668.35	1075.48
668.69	1070.09
669.03	1060.50
669.37	1065.41
669.71	1067.52
670.05	1060.96
670.39	1061.90
670.73	1059.33
671.07	1061.43
671.41	1053.01
671.75	1056.28
672.09	1053.24
672.43	1064.94
672.77	1065.65
673.11	1067.28
673.45	1069.16
673.79	1083.43
674.13	1082.03
674.47	1087.65
674.81	1088.35
675.15	1093.73
675.49	1093.26
675.83	1093.26
676.17	1090.92
676.51	1089.29
676.85	1088.35
677.19	1080.86
677.53	1068.22
677.87	1058.16
678.21	1061.43
678.55	1064.94
678.89	1070.09
679.23	1083.20
679.57	1087.18
679.90	1089.52
680.24	1084.60
680.58	1086.24
680.92	1077.58
681.26	1080.63
681.60	1080.16
681.94	1073.60
682.28	1077.82
682.62	1091.16
682.96	1089.75
683.29	1090.92
683.63	1093.03
683.97	1075.94
684.31	1072.20
684.65	1075.24
684.99	1078.28
685.33	1083.90
685.67	1090.69
686.00	1087.18
686.34	1080.16
686.68	1068.92
687.02	1068.69
687.36	1069.16
687.70	1070.33
688.03	1075.48
688.37	1075.71
688.71	1073.84
689.05	1073.60
689.39	1076.88
689.72	1078.28
690.06	1084.37
690.40	1082.50
690.74	1088.12
691.08	1078.75
691.41	1077.82
691.75	1073.84
692.09	1076.65
692.43	1069.16
692.76	1068.22
693.10	1067.52
693.44	1071.73
693.78	1068.92
694.11	1071.50
694.45	1081.80
694.79	1075.01
695.13	1082.26
695.46	1081.56
695.80	1086.48
696.14	1088.82
696.48	1089.52
696.81	1090.46
697.15	1094.90
697.49	1082.73
697.82	1083.67
698.16	1093.73
698.50	1086.01
698.83	1079.69
699.17	1082.26
699.51	1073.37
699.84	1065.18
700.18	1058.16
700.52	1058.62
700.85	1061.43
701.19	1064.24
701.53	1068.45
701.86	1068.92
702.20	1071.50
702.54	1067.05
702.87	1071.97
703.21	1068.69
703.55	1079.92
703.88	1090.92
704.22	1095.37
704.55	1089.99
704.89	1092.80
705.23	1087.41
705.56	1081.80
705.90	1086.48
706.23	1090.46
706.57	1082.97
706.91	1080.63
707.24	1078.75
707.58	1076.65
707.91	1072.20
708.25	1080.63
708.58	1081.80
708.92	1078.75
709.26	1072.67
709.59	1080.16
709.93	1074.54
710.26	1071.97
710.60	1076.65
710.93	1079.46
711.27	1070.09
711.60	1076.88
711.94	1075.71
712.27	1078.05
712.61	1078.75
712.94	1077.11
713.28	1068.22
713.61	1080.63
713.95	1070.33
714.28	1072.90
714.62	1076.41
714.95	1075.71
715.29	1068.92
715.62	1071.50
715.96	1071.73
716.29	1075.24
716.63	1081.56
716.96	1077.82
717.29	1083.20
717.63	1084.60
717.96	1084.14
718.30	1091.63
718.63	1090.92
718.97	1090.22
719.30	1088.12
719.63	1087.41
719.97	1082.26
720.30	1086.24
720.64	1080.16
720.97	1075.24
721.30	1078.99
721.64	1080.39
721.97	1080.63
722.31	1078.75
722.64	1072.90
722.97	1065.65
723.31	1070.33
723.64	1064.71
723.97	1070.80
724.31	1086.48
724.64	1097.48
724.98	1091.16
725.31	1098.41
725.64	1102.63
725.98	1088.58
726.31	1084.60
726.64	1083.90
726.97	1086.48
727.31	1080.39
727.64	1086.01
727.97	1088.12
728.31	1083.67
728.64	1067.99
728.97	1066.35
729.31	1058.39
729.64	1051.60
729.97	1046.45
730.30	1051.84
730.64	1063.07
730.97	1071.73
731.30	1074.54
731.63	1086.48
731.97	1094.43
732.30	1095.14
732.63	1095.60
732.96	1093.73
733.30	1085.31
733.63	1087.18
733.96	1072.90
734.29	1071.50
734.63	1080.63
734.96	1096.54
735.29	1096.31
735.62	1091.39
735.95	1095.84
736.29	1087.41
736.62	1087.88
736.95	1083.43
737.28	1099.35
737.61	1097.48
737.94	1097.01
738.28	1097.95
738.61	1103.09
738.94	1098.65
739.27	1096.54
739.60	1104.03
739.93	1102.86
740.27	1101.46
740.60	1099.12
740.93	1111.29
741.26	1100.75
741.59	1090.46
741.92	1081.56
742.25	1080.86
742.58	1064.48
742.91	1060.73
743.25	1058.39
743.58	1059.56
743.91	1059.33
744.24	1059.56
744.57	1065.18
744.90	1073.60
745.23	1079.22
745.56	1080.39
745.89	1089.99
746.22	1087.18
746.55	1078.99
746.88	1071.26
747.21	1060.50
747.54	1059.33
747.87	1068.92
748.20	1067.52
748.53	1074.07
748.87	1089.99
749.20	1093.26
749.53	1082.26
749.86	1091.16
750.19	1085.54
750.52	1085.77
750.85	1086.71
751.18	1100.52
751.51	1086.48
751.84	1099.12
752.16	1096.54
752.49	1094.90
752.82	1089.05
753.15	1092.33
753.48	1080.16
753.81	1076.88
754.14	1078.05
754.47	1080.86
754.80	1085.07
755.13	1081.33
755.46	1078.28
755.79	1077.35
756.12	1083.43
756.45	1089.99
756.78	1089.99
757.11	1092.80
757.43	1094.20
757.76	1086.24
758.09	1072.20
758.42	1072.43
758.75	1074.54
759.08	1069.39
759.41	1059.79
759.74	1067.05
760.07	1075.01
760.39	1069.86
760.72	1066.35
761.05	1075.01
761.38	1084.37
761.71	1087.41
762.04	1099.35
762.36	1100.52
762.69	1102.16
763.02	1093.50
763.35	1089.52
763.68	1081.09
764.01	1084.37
764.33	1084.60
764.66	1077.11
764.99	1078.05
765.32	1078.52
765.65	1076.65
765.97	1055.58
766.30	1067.28
