SpectraSuite Data File
++++++++++++++++++++++++++++++++++++
Date: Mon Aug 26 10:25:58 PDT 2019
User: corrico
Dark Spectrum Present: No
Reference Spectrum Present: No
Number of Sampled Component Spectra: 1
Spectrometers: USB2+H06089
Integration Time (usec): 10000 (USB2+H06089)
Spectra Averaged: 2 (USB2+H06089)
Boxcar Smoothing: 2 (USB2+H06089)
Correct for Electrical Dark: No (USB2+H06089)
Strobe/Lamp Enabled: No (USB2+H06089)
Correct for Detector Non-linearity: No (USB2+H06089)
Correct for Stray Light: No (USB2+H06089)
Number of Pixels in Processed Spectrum: 2048
>>>>>Begin Processed Spectral Data<<<<<
339.70	1035.69
340.07	1035.69
340.45	997.54
340.82	978.81
341.19	953.77
341.57	925.92
341.94	916.09
342.31	908.13
342.69	892.68
343.06	881.45
343.43	881.45
343.81	881.91
344.18	882.62
344.55	888.00
344.93	899.94
345.30	899.94
345.67	915.85
346.04	923.81
346.42	941.36
346.79	946.98
347.16	959.62
347.54	956.34
347.91	961.73
348.28	961.96
348.65	974.83
349.03	981.39
349.40	1001.75
349.77	1005.26
350.14	1016.26
350.52	1016.49
350.89	1021.88
351.26	1023.75
351.63	1038.03
352.01	1043.88
352.38	1054.18
352.75	1064.94
353.12	1067.75
353.50	1067.28
353.87	1066.11
354.24	1068.69
354.61	1078.99
354.98	1075.01
355.36	1071.73
355.73	1071.50
356.10	1072.90
356.47	1054.88
356.84	1060.03
357.22	1073.37
357.59	1073.84
357.96	1068.45
358.33	1081.33
358.70	1076.65
359.08	1069.39
359.45	1070.09
359.82	1068.92
360.19	1067.75
360.56	1076.65
360.94	1078.75
361.31	1076.41
361.68	1085.77
362.05	1079.92
362.42	1070.56
362.79	1069.86
363.16	1079.22
363.54	1077.58
363.91	1080.86
364.28	1081.80
364.65	1085.31
365.02	1084.60
365.39	1081.33
365.76	1079.69
366.14	1079.22
366.51	1067.52
366.88	1063.54
367.25	1061.43
367.62	1064.94
367.99	1060.73
368.36	1068.69
368.73	1070.56
369.10	1080.16
369.48	1076.88
369.85	1081.80
370.22	1085.07
370.59	1084.14
370.96	1070.09
371.33	1065.18
371.70	1066.35
372.07	1063.07
372.44	1063.07
372.81	1074.54
373.18	1078.52
373.55	1080.39
373.93	1073.84
374.30	1069.16
374.67	1064.01
375.04	1069.62
375.41	1081.09
375.78	1091.63
376.15	1091.16
376.52	1096.31
376.89	1090.22
377.26	1078.05
377.63	1071.50
378.00	1080.39
378.37	1072.20
378.74	1078.75
379.11	1074.54
379.48	1073.37
379.85	1064.01
380.22	1066.58
380.59	1057.45
380.96	1060.50
381.33	1066.82
381.70	1078.28
382.07	1077.82
382.44	1082.03
382.81	1081.80
383.18	1077.11
383.55	1070.33
383.92	1074.54
384.29	1073.60
384.66	1067.52
385.03	1061.90
385.40	1067.99
385.77	1065.88
386.14	1069.86
386.51	1077.58
386.88	1084.14
387.25	1089.99
387.62	1079.46
387.99	1075.71
388.36	1075.01
388.73	1073.37
389.10	1062.84
389.46	1069.39
389.83	1063.54
390.20	1068.45
390.57	1069.39
390.94	1072.90
391.31	1071.03
391.68	1068.22
392.05	1061.43
392.42	1060.26
392.79	1055.11
393.16	1057.22
393.53	1063.31
393.89	1061.90
394.26	1062.14
394.63	1060.73
395.00	1058.86
395.37	1057.92
395.74	1058.16
396.11	1053.48
396.48	1045.28
396.84	1057.45
397.21	1052.30
397.58	1061.43
397.95	1078.75
398.32	1090.46
398.69	1076.41
399.06	1090.69
399.42	1091.16
399.79	1076.88
400.16	1067.52
400.53	1081.09
400.90	1082.50
401.27	1085.54
401.64	1093.03
402.00	1099.35
402.37	1088.12
402.74	1082.26
403.11	1074.77
403.48	1073.60
403.84	1067.28
404.21	1066.82
404.58	1070.80
404.95	1069.62
405.32	1061.67
405.68	1062.37
406.05	1075.94
406.42	1066.35
406.79	1066.11
407.16	1075.01
407.52	1082.50
407.89	1079.46
408.26	1095.60
408.63	1104.97
408.99	1103.33
409.36	1104.97
409.73	1097.71
410.10	1080.86
410.47	1077.58
410.83	1078.28
411.20	1075.94
411.57	1083.67
411.94	1093.50
412.30	1080.63
412.67	1069.86
413.04	1071.26
413.40	1060.96
413.77	1047.39
414.14	1051.84
414.51	1059.09
414.87	1060.26
415.24	1066.11
415.61	1081.09
415.97	1082.26
416.34	1081.56
416.71	1080.39
417.08	1079.69
417.44	1072.43
417.81	1067.75
418.18	1070.56
418.54	1071.73
418.91	1066.58
419.28	1074.77
419.64	1078.52
420.01	1073.60
420.38	1073.60
420.74	1080.39
421.11	1075.48
421.48	1076.65
421.84	1090.69
422.21	1078.99
422.58	1070.09
422.94	1061.67
423.31	1066.11
423.68	1054.41
424.04	1065.41
424.41	1075.24
424.77	1083.20
425.14	1072.90
425.51	1071.03
425.87	1068.69
426.24	1069.86
426.61	1072.43
426.97	1078.05
427.34	1087.88
427.70	1092.56
428.07	1087.18
428.44	1082.03
428.80	1085.31
429.17	1070.56
429.53	1070.80
429.90	1075.48
430.27	1074.54
430.63	1072.20
431.00	1082.26
431.36	1077.11
431.73	1073.60
432.09	1075.48
432.46	1080.16
432.83	1079.22
433.19	1076.65
433.56	1069.39
433.92	1074.54
434.29	1077.58
434.65	1084.60
435.02	1083.43
435.38	1099.82
435.75	1092.33
436.11	1082.50
436.48	1075.24
436.84	1082.26
437.21	1082.03
437.57	1081.33
437.94	1086.01
438.30	1075.48
438.67	1076.88
439.03	1073.14
439.40	1078.52
439.76	1071.73
440.13	1091.39
440.49	1088.12
440.86	1086.94
441.22	1091.86
441.59	1091.63
441.95	1085.77
442.32	1093.26
442.68	1085.77
443.05	1078.28
443.41	1091.63
443.78	1082.26
444.14	1076.65
444.51	1085.31
444.87	1097.48
445.24	1094.20
445.60	1107.78
445.96	1106.84
446.33	1115.03
446.69	1105.44
447.06	1101.92
447.42	1101.46
447.79	1090.69
448.15	1078.28
448.51	1081.33
448.88	1074.31
449.24	1068.45
449.61	1083.20
449.97	1091.63
450.33	1088.82
450.70	1089.05
451.06	1084.37
451.43	1086.01
451.79	1081.56
452.15	1085.77
452.52	1089.52
452.88	1091.86
453.24	1089.52
453.61	1085.31
453.97	1085.07
454.34	1084.14
454.70	1089.29
455.06	1091.86
455.43	1095.14
455.79	1087.65
456.15	1086.94
456.52	1073.60
456.88	1065.18
457.24	1062.84
457.61	1064.71
457.97	1072.20
458.33	1071.03
458.70	1074.54
459.06	1077.11
459.42	1077.82
459.79	1079.22
460.15	1094.90
460.51	1092.09
460.88	1092.09
461.24	1094.43
461.60	1091.39
461.96	1076.18
462.33	1078.99
462.69	1079.69
463.05	1083.90
463.42	1082.73
463.78	1090.92
464.14	1086.24
464.50	1089.99
464.87	1078.05
465.23	1079.46
465.59	1087.65
465.95	1095.14
466.32	1091.16
466.68	1093.03
467.04	1090.46
467.40	1083.67
467.77	1081.80
468.13	1073.60
468.49	1075.71
468.85	1071.97
469.22	1075.24
469.58	1085.77
469.94	1089.52
470.30	1093.50
470.66	1103.33
471.03	1096.78
471.39	1083.43
471.75	1091.63
472.11	1090.69
472.47	1087.65
472.84	1092.33
473.20	1096.31
473.56	1096.54
473.92	1103.09
474.28	1094.67
474.65	1094.67
475.01	1091.63
475.37	1081.56
475.73	1067.52
476.09	1074.77
476.45	1072.43
476.81	1071.50
477.18	1081.56
477.54	1093.50
477.90	1098.88
478.26	1107.78
478.62	1108.48
478.98	1096.07
479.34	1085.77
479.71	1071.26
480.07	1062.37
480.43	1069.39
480.79	1074.54
481.15	1076.65
481.51	1084.14
481.87	1086.94
482.23	1077.58
482.59	1075.94
482.96	1087.88
483.32	1089.75
483.68	1082.97
484.04	1084.37
484.40	1088.35
484.76	1079.46
485.12	1077.35
485.48	1080.86
485.84	1082.03
486.20	1084.60
486.56	1091.39
486.92	1093.50
487.28	1092.09
487.64	1092.33
488.00	1091.39
488.37	1086.94
488.73	1084.37
489.09	1088.35
489.45	1084.37
489.81	1081.09
490.17	1085.77
490.53	1084.14
490.89	1078.28
491.25	1082.73
491.61	1083.20
491.97	1067.99
492.33	1070.56
492.69	1081.09
493.05	1079.22
493.41	1085.07
493.77	1090.46
494.13	1084.84
494.49	1084.84
494.85	1092.80
495.21	1089.52
495.57	1097.95
495.93	1104.26
496.29	1110.35
496.64	1100.29
497.00	1097.71
497.36	1088.12
497.72	1093.03
498.08	1085.07
498.44	1078.52
498.80	1075.94
499.16	1076.88
499.52	1079.46
499.88	1074.07
500.24	1083.90
500.60	1092.56
500.96	1089.75
501.32	1078.99
501.68	1079.46
502.03	1077.58
502.39	1070.33
502.75	1072.43
503.11	1069.86
503.47	1071.50
503.83	1075.24
504.19	1077.58
504.55	1086.94
504.91	1093.26
505.26	1094.20
505.62	1098.88
505.98	1098.88
506.34	1095.60
506.70	1090.92
507.06	1096.07
507.42	1092.33
507.78	1086.24
508.13	1082.03
508.49	1081.80
508.85	1079.92
509.21	1080.63
509.57	1087.88
509.93	1094.20
510.28	1091.39
510.64	1086.94
511.00	1080.86
511.36	1072.20
511.72	1070.33
512.07	1074.07
512.43	1071.03
512.79	1072.20
513.15	1082.03
513.51	1076.88
513.86	1086.71
514.22	1081.56
514.58	1075.01
514.94	1068.45
515.30	1078.28
515.65	1062.60
516.01	1076.65
516.37	1085.54
516.73	1089.29
517.08	1087.41
517.44	1104.50
517.80	1102.86
518.16	1097.48
518.51	1094.20
518.87	1083.20
519.23	1082.26
519.59	1084.60
519.94	1081.56
520.30	1084.84
520.66	1082.73
521.01	1080.39
521.37	1067.52
521.73	1074.77
522.09	1078.28
522.44	1089.29
522.80	1092.80
523.16	1100.52
523.51	1102.16
523.87	1097.24
524.23	1090.69
524.58	1079.46
524.94	1068.22
525.30	1069.39
525.65	1069.62
526.01	1068.45
526.37	1070.33
526.72	1080.16
527.08	1080.39
527.44	1083.67
527.79	1090.92
528.15	1093.50
528.51	1094.20
528.86	1092.33
529.22	1098.88
529.58	1104.97
529.93	1110.12
530.29	1112.46
530.65	1118.07
531.00	1113.39
531.36	1106.61
531.71	1092.80
532.07	1084.60
532.43	1078.75
532.78	1074.77
533.14	1073.84
533.49	1083.90
533.85	1089.29
534.21	1094.90
534.56	1099.12
534.92	1101.92
535.27	1104.03
535.63	1104.03
535.98	1100.05
536.34	1094.20
536.69	1097.24
537.05	1099.35
537.41	1103.80
537.76	1103.09
538.12	1098.41
538.47	1098.65
538.83	1090.69
539.18	1089.05
539.54	1086.01
539.89	1087.65
540.25	1085.77
540.60	1088.12
540.96	1086.94
541.31	1084.37
541.67	1098.88
542.02	1078.99
542.38	1074.54
542.73	1079.22
543.09	1086.01
543.44	1077.58
543.80	1091.63
544.15	1102.86
544.51	1098.41
544.86	1102.39
545.22	1096.07
545.57	1099.82
545.93	1089.29
546.28	1086.01
546.64	1082.26
546.99	1089.52
547.35	1082.50
547.70	1092.80
548.05	1097.01
548.41	1103.33
548.76	1095.14
549.12	1100.52
549.47	1088.82
549.83	1092.80
550.18	1077.58
550.53	1078.52
550.89	1085.54
551.24	1091.39
551.60	1086.24
551.95	1098.18
552.30	1109.88
552.66	1098.41
553.01	1096.78
553.37	1088.58
553.72	1082.50
554.07	1078.28
554.43	1085.54
554.78	1093.97
555.13	1101.46
555.49	1096.31
555.84	1099.35
556.19	1097.95
556.55	1094.90
556.90	1093.03
557.26	1092.09
557.61	1087.18
557.96	1080.63
558.32	1083.90
558.67	1082.50
559.02	1085.77
559.37	1083.43
559.73	1083.90
560.08	1071.50
560.43	1072.20
560.79	1071.50
561.14	1070.09
561.49	1077.82
561.85	1086.48
562.20	1084.84
562.55	1094.43
562.90	1092.80
563.26	1092.33
563.61	1091.63
563.96	1098.88
564.32	1101.22
564.67	1105.20
565.02	1104.03
565.37	1103.56
565.73	1110.12
566.08	1108.71
566.43	1102.63
566.78	1104.50
567.14	1102.39
567.49	1079.46
567.84	1061.67
568.19	1066.11
568.54	1059.56
568.90	1054.18
569.25	1071.50
569.60	1077.82
569.95	1082.97
570.31	1089.52
570.66	1089.52
571.01	1082.50
571.36	1087.41
571.71	1090.92
572.06	1083.90
572.42	1085.54
572.77	1092.56
573.12	1089.75
573.47	1081.56
573.82	1089.75
574.18	1089.29
574.53	1079.22
574.88	1084.37
575.23	1081.33
575.58	1074.77
575.93	1073.60
576.28	1070.56
576.64	1056.28
576.99	1065.41
577.34	1061.90
577.69	1058.39
578.04	1055.82
578.39	1075.71
578.74	1072.20
579.09	1085.31
579.44	1087.88
579.80	1096.78
580.15	1091.39
580.50	1077.35
580.85	1070.33
581.20	1074.31
581.55	1077.58
581.90	1070.80
582.25	1078.28
582.60	1069.62
582.95	1070.80
583.30	1063.54
583.65	1066.82
584.00	1070.33
584.35	1073.84
584.71	1061.43
585.06	1071.03
585.41	1065.18
585.76	1069.86
586.11	1068.92
586.46	1071.03
586.81	1058.16
587.16	1069.86
587.51	1063.77
587.86	1065.18
588.21	1064.01
588.56	1070.33
588.91	1068.69
589.26	1075.24
589.61	1060.96
589.96	1074.31
590.31	1069.86
590.66	1070.33
591.01	1070.56
591.36	1085.54
591.71	1090.92
592.06	1091.39
592.41	1090.22
592.76	1089.75
593.10	1093.03
593.45	1080.86
593.80	1096.54
594.15	1095.60
594.50	1087.65
594.85	1083.67
595.20	1081.33
595.55	1069.16
595.90	1063.31
596.25	1062.84
596.60	1058.62
596.95	1066.58
597.30	1071.73
597.64	1127.20
597.99	1136.80
598.34	1144.29
598.69	1136.33
599.04	1144.05
599.39	1095.14
599.74	1094.90
600.09	1097.95
600.44	1103.80
600.78	1089.75
601.13	1086.24
601.48	1089.05
601.83	1089.29
602.18	1096.54
602.53	1095.60
602.88	1097.71
603.22	1084.37
603.57	1080.39
603.92	1067.75
604.27	1076.18
604.62	1070.09
604.97	1083.67
605.31	1085.77
605.66	1087.88
606.01	1085.77
606.36	1093.97
606.71	1090.69
607.05	1091.16
607.40	1091.86
607.75	1082.97
608.10	1081.33
608.44	1090.46
608.79	1082.50
609.14	1085.31
609.49	1094.67
609.84	1096.78
610.18	1093.97
610.53	1100.29
610.88	1102.63
611.23	1101.92
611.57	1098.41
611.92	1090.22
612.27	1092.80
612.62	1092.80
612.96	1096.31
613.31	1093.03
613.66	1095.14
614.00	1095.60
614.35	1098.65
614.70	1099.82
615.05	1094.43
615.39	1096.31
615.74	1088.58
616.09	1092.56
616.43	1089.99
616.78	1091.39
617.13	1081.56
617.47	1086.48
617.82	1075.01
618.17	1075.48
618.51	1084.37
618.86	1095.60
619.21	1100.99
619.55	1101.69
619.90	1093.03
620.25	1089.29
620.59	1080.86
620.94	1067.28
621.29	1067.99
621.63	1070.09
621.98	1071.97
622.32	1063.77
622.67	1069.16
623.02	1068.22
623.36	1077.82
623.71	1071.97
624.05	1081.80
624.40	1087.18
624.75	1087.18
625.09	1089.99
625.44	1094.90
625.78	1090.46
626.13	1091.63
626.48	1107.07
626.82	1099.35
627.17	1100.52
627.51	1100.52
627.86	1093.03
628.20	1080.86
628.55	1083.90
628.89	1080.16
629.24	1078.05
629.58	1074.54
629.93	1075.24
630.28	1070.80
630.62	1069.39
630.97	1083.67
631.31	1087.88
631.66	1082.97
632.00	1081.33
632.35	1073.84
632.69	1074.54
633.04	1082.97
633.38	1087.88
633.73	1093.26
634.07	1106.14
634.42	1089.75
634.76	1091.63
635.11	1090.22
635.45	1092.33
635.79	1090.46
636.14	1099.58
636.48	1095.14
636.83	1089.52
637.17	1084.84
637.52	1087.88
637.86	1085.54
638.21	1077.58
638.55	1079.46
638.89	1078.05
639.24	1072.20
639.58	1080.16
639.93	1082.50
640.27	1090.92
640.61	1089.99
640.96	1099.12
641.30	1097.01
641.65	1099.58
641.99	1092.33
642.33	1093.26
642.68	1080.16
643.02	1070.33
643.37	1057.45
643.71	1056.99
644.05	1060.26
644.40	1066.82
644.74	1076.88
645.08	1087.18
645.43	1089.52
645.77	1085.77
646.11	1082.73
646.46	1076.18
646.80	1068.69
647.14	1063.07
647.49	1059.56
647.83	1071.26
648.17	1078.52
648.52	1080.63
648.86	1081.09
649.20	1092.09
649.55	1088.82
649.89	1085.54
650.23	1092.09
650.57	1097.24
650.92	1086.48
651.26	1079.22
651.60	1083.67
651.95	1094.43
652.29	1096.31
652.63	1105.67
652.97	1102.86
653.32	1094.43
653.66	1089.99
654.00	1089.29
654.34	1082.50
654.69	1086.71
655.03	1087.41
655.37	1085.31
655.71	1089.05
656.05	1095.37
656.40	1104.50
656.74	1098.88
657.08	1095.84
657.42	1085.77
657.76	1084.84
658.11	1082.50
658.45	1089.52
658.79	1095.14
659.13	1095.60
659.47	1091.39
659.82	1084.84
660.16	1072.43
660.50	1063.77
660.84	1073.84
661.18	1072.90
661.52	1071.73
661.87	1083.90
662.21	1096.78
662.55	1092.09
662.89	1095.14
663.23	1100.52
663.57	1092.56
663.91	1085.31
664.25	1080.39
664.60	1079.22
664.94	1082.73
665.28	1095.60
665.62	1100.99
665.96	1100.99
666.30	1097.71
666.64	1092.80
666.98	1084.84
667.32	1074.31
667.66	1079.46
668.01	1083.20
668.35	1085.77
668.69	1088.82
669.03	1089.29
669.37	1083.90
669.71	1076.41
670.05	1073.60
670.39	1072.67
670.73	1077.82
671.07	1085.31
671.41	1088.82
671.75	1082.73
672.09	1078.52
672.43	1077.11
672.77	1075.01
673.11	1078.52
673.45	1080.16
673.79	1085.07
674.13	1080.16
674.47	1072.20
674.81	1067.99
675.15	1069.16
675.49	1065.41
675.83	1074.31
676.17	1093.73
676.51	1096.07
676.85	1104.50
677.19	1111.75
677.53	1113.16
677.87	1093.50
678.21	1093.50
678.55	1085.31
678.89	1089.75
679.23	1081.33
679.57	1081.09
679.90	1079.69
680.24	1078.05
680.58	1066.35
680.92	1060.73
681.26	1072.67
681.60	1070.56
681.94	1070.33
682.28	1070.56
682.62	1078.75
682.96	1075.48
683.29	1081.33
683.63	1086.24
683.97	1087.41
684.31	1081.80
684.65	1082.03
684.99	1083.67
685.33	1083.67
685.67	1081.09
686.00	1080.86
686.34	1073.14
686.68	1072.43
687.02	1077.58
687.36	1078.99
687.70	1084.84
688.03	1102.16
688.37	1097.24
688.71	1092.33
689.05	1086.71
689.39	1078.52
689.72	1067.52
690.06	1069.16
690.40	1074.07
690.74	1082.03
691.08	1086.48
691.41	1088.82
691.75	1091.16
692.09	1084.60
692.43	1089.52
692.76	1088.35
693.10	1100.29
693.44	1105.67
693.78	1102.63
694.11	1104.03
694.45	1109.65
694.79	1092.56
695.13	1093.26
695.46	1095.84
695.80	1097.48
696.14	1100.52
696.48	1097.48
696.81	1083.43
697.15	1079.46
697.49	1072.67
697.82	1066.58
698.16	1066.82
698.50	1075.94
698.83	1079.46
699.17	1071.03
699.51	1074.77
699.84	1073.60
700.18	1069.62
700.52	1079.46
700.85	1085.07
701.19	1081.09
701.53	1084.60
701.86	1082.26
702.20	1072.43
702.54	1072.43
702.87	1075.24
703.21	1078.99
703.55	1076.18
703.88	1073.60
704.22	1075.48
704.55	1079.92
704.89	1079.69
705.23	1089.75
705.56	1086.71
705.90	1087.88
706.23	1082.73
706.57	1074.77
706.91	1067.99
707.24	1086.71
707.58	1085.54
707.91	1082.73
708.25	1080.16
708.58	1079.46
708.92	1069.39
709.26	1071.73
709.59	1072.90
709.93	1082.97
710.26	1075.71
710.60	1072.20
710.93	1066.58
711.27	1063.31
711.60	1061.67
711.94	1071.97
712.27	1074.77
712.61	1077.82
712.94	1085.07
713.28	1084.84
713.61	1077.35
713.95	1066.82
714.28	1065.41
714.62	1063.31
714.95	1059.33
715.29	1059.79
715.62	1066.82
715.96	1067.28
716.29	1064.71
716.63	1068.45
716.96	1075.24
717.29	1076.88
717.63	1076.41
717.96	1075.48
718.30	1071.97
718.63	1067.75
718.97	1066.11
719.30	1074.07
719.63	1080.39
719.97	1085.54
720.30	1088.35
720.64	1103.09
720.97	1093.03
721.30	1085.54
721.64	1087.65
721.97	1087.41
722.31	1078.05
722.64	1081.80
722.97	1082.97
723.31	1075.01
723.64	1080.39
723.97	1071.73
724.31	1067.28
724.64	1066.11
724.98	1066.82
725.31	1060.73
725.64	1063.31
725.98	1058.62
726.31	1063.31
726.64	1067.75
726.97	1073.84
727.31	1074.54
727.64	1084.14
727.97	1080.39
728.31	1080.39
728.64	1079.92
728.97	1074.77
729.31	1077.58
729.64	1071.50
729.97	1074.31
730.30	1086.71
730.64	1084.37
730.97	1081.56
731.30	1086.94
731.63	1087.41
731.97	1068.92
732.30	1083.90
732.63	1096.07
732.96	1101.22
733.30	1106.37
733.63	1112.92
733.96	1105.90
734.29	1092.09
734.63	1095.60
734.96	1076.41
735.29	1079.46
735.62	1082.03
735.95	1089.29
736.29	1084.84
736.62	1102.86
736.95	1109.65
737.28	1113.16
737.61	1112.46
737.94	1105.44
738.28	1095.37
738.61	1081.33
738.94	1085.77
739.27	1082.03
739.60	1089.29
739.93	1099.35
740.27	1100.29
740.60	1087.88
740.93	1082.73
741.26	1085.54
741.59	1078.28
741.92	1071.50
742.25	1070.33
742.58	1077.35
742.91	1070.33
743.25	1060.73
743.58	1070.80
743.91	1078.28
744.24	1071.73
744.57	1074.77
744.90	1087.41
745.23	1087.18
745.56	1086.48
745.89	1090.22
746.22	1093.26
746.55	1097.95
746.88	1089.29
747.21	1096.07
747.54	1095.84
747.87	1086.48
748.20	1076.18
748.53	1079.69
748.87	1079.69
749.20	1075.01
749.53	1082.03
749.86	1088.12
750.19	1091.86
750.52	1078.52
750.85	1085.54
751.18	1086.48
751.51	1081.80
751.84	1084.84
752.16	1083.67
752.49	1081.80
752.82	1079.69
753.15	1081.80
753.48	1080.63
753.81	1086.71
754.14	1081.09
754.47	1081.80
754.80	1072.20
755.13	1073.60
755.46	1071.97
755.79	1074.54
756.12	1083.20
756.45	1097.24
756.78	1098.18
757.11	1093.50
757.43	1091.86
757.76	1078.52
758.09	1072.43
758.42	1071.50
758.75	1075.24
759.08	1076.88
759.41	1080.39
759.74	1084.60
760.07	1090.46
760.39	1102.63
760.72	1108.01
761.05	1117.61
761.38	1113.86
761.71	1114.09
762.04	1112.46
762.36	1106.37
762.69	1093.97
763.02	1096.54
763.35	1090.92
763.68	1075.24
764.01	1079.69
764.33	1089.52
764.66	1083.43
764.99	1076.18
765.32	1081.33
765.65	1071.73
765.97	1052.07
766.30	1049.03
