SpectraSuite Data File
++++++++++++++++++++++++++++++++++++
Date: Mon Aug 26 10:25:57 PDT 2019
User: corrico
Dark Spectrum Present: No
Reference Spectrum Present: No
Number of Sampled Component Spectra: 1
Spectrometers: USB2+H06089
Integration Time (usec): 10000 (USB2+H06089)
Spectra Averaged: 2 (USB2+H06089)
Boxcar Smoothing: 2 (USB2+H06089)
Correct for Electrical Dark: No (USB2+H06089)
Strobe/Lamp Enabled: No (USB2+H06089)
Correct for Detector Non-linearity: No (USB2+H06089)
Correct for Stray Light: No (USB2+H06089)
Number of Pixels in Processed Spectrum: 2048
>>>>>Begin Processed Spectral Data<<<<<
339.70	1000.58
340.07	1000.58
340.45	977.88
340.82	965.71
341.19	937.38
341.57	915.62
341.94	910.94
342.31	899.47
342.69	883.55
343.06	890.34
343.43	887.53
343.81	882.38
344.18	889.40
344.55	896.43
344.93	908.83
345.30	915.15
345.67	920.53
346.04	925.68
346.42	936.21
346.79	938.79
347.16	946.75
347.54	958.68
347.91	972.73
348.28	986.07
348.65	995.66
349.03	1006.20
349.40	1008.77
349.77	1015.56
350.14	1011.11
350.52	1018.84
350.89	1023.28
351.26	1031.47
351.63	1040.60
352.01	1063.54
352.38	1067.99
352.75	1071.73
353.12	1067.05
353.50	1063.31
353.87	1054.88
354.24	1057.69
354.61	1065.88
354.98	1081.09
355.36	1081.56
355.73	1087.65
356.10	1089.05
356.47	1086.94
356.84	1078.28
357.22	1075.01
357.59	1063.31
357.96	1056.99
358.33	1053.01
358.70	1053.48
359.08	1053.94
359.45	1052.54
359.82	1051.60
360.19	1055.58
360.56	1062.84
360.94	1077.11
361.31	1081.80
361.68	1077.58
362.05	1088.82
362.42	1085.07
362.79	1078.99
363.16	1094.67
363.54	1098.65
363.91	1086.94
364.28	1085.77
364.65	1080.39
365.02	1074.31
365.39	1074.54
365.76	1078.28
366.14	1063.07
366.51	1062.37
366.88	1057.69
367.25	1063.77
367.62	1064.48
367.99	1070.56
368.36	1069.16
368.73	1067.99
369.10	1075.71
369.48	1071.26
369.85	1084.60
370.22	1093.97
370.59	1087.41
370.96	1078.52
371.33	1079.22
371.70	1068.45
372.07	1068.22
372.44	1071.50
372.81	1070.09
373.18	1070.80
373.55	1071.03
373.93	1065.65
374.30	1073.37
374.67	1065.88
375.04	1063.54
375.41	1070.56
375.78	1062.60
376.15	1053.71
376.52	1053.71
376.89	1063.31
377.26	1055.82
377.63	1062.14
378.00	1067.05
378.37	1066.58
378.74	1066.82
379.11	1077.82
379.48	1085.07
379.85	1083.43
380.22	1095.37
380.59	1096.31
380.96	1095.37
381.33	1091.86
381.70	1094.43
382.07	1084.37
382.44	1076.18
382.81	1067.52
383.18	1063.31
383.55	1051.37
383.92	1051.84
384.29	1043.41
384.66	1043.88
385.03	1045.05
385.40	1051.60
385.77	1050.20
386.14	1058.86
386.51	1053.24
386.88	1056.75
387.25	1060.26
387.62	1059.56
387.99	1051.84
388.36	1055.11
388.73	1061.20
389.10	1064.24
389.46	1073.60
389.83	1078.28
390.20	1083.20
390.57	1071.73
390.94	1068.69
391.31	1067.28
391.68	1067.75
392.05	1063.31
392.42	1067.75
392.79	1072.67
393.16	1068.69
393.53	1072.67
393.89	1071.97
394.26	1070.56
394.63	1075.01
395.00	1086.71
395.37	1094.43
395.74	1104.73
396.11	1105.90
396.48	1095.14
396.84	1089.75
397.21	1081.80
397.58	1090.46
397.95	1093.50
398.32	1098.18
398.69	1091.63
399.06	1092.56
399.42	1075.48
399.79	1070.56
400.16	1060.73
400.53	1060.03
400.90	1062.37
401.27	1069.16
401.64	1070.80
402.00	1075.01
402.37	1075.24
402.74	1077.35
403.11	1072.90
403.48	1072.67
403.84	1077.11
404.21	1080.86
404.58	1081.80
404.95	1088.12
405.32	1099.58
405.68	1096.07
406.05	1098.41
406.42	1090.69
406.79	1087.65
407.16	1080.63
407.52	1084.60
407.89	1084.37
408.26	1085.77
408.63	1088.82
408.99	1090.92
409.36	1089.52
409.73	1087.41
410.10	1086.71
410.47	1078.99
410.83	1082.26
411.20	1074.31
411.57	1074.07
411.94	1075.71
412.30	1080.16
412.67	1082.03
413.04	1086.24
413.40	1084.60
413.77	1087.18
414.14	1096.07
414.51	1081.33
414.87	1084.60
415.24	1078.28
415.61	1066.82
415.97	1053.01
416.34	1062.14
416.71	1059.79
417.08	1065.88
417.44	1061.20
417.81	1070.09
418.18	1070.09
418.54	1076.65
418.91	1080.16
419.28	1088.12
419.64	1077.58
420.01	1075.71
420.38	1079.92
420.74	1084.84
421.11	1090.22
421.48	1091.63
421.84	1086.24
422.21	1077.35
422.58	1074.77
422.94	1067.28
423.31	1064.48
423.68	1070.56
424.04	1072.20
424.41	1064.48
424.77	1073.60
425.14	1087.41
425.51	1075.24
425.87	1072.43
426.24	1077.82
426.61	1073.37
426.97	1067.52
427.34	1087.88
427.70	1086.01
428.07	1084.84
428.44	1081.56
428.80	1083.20
429.17	1073.84
429.53	1073.60
429.90	1067.28
430.27	1063.07
430.63	1073.14
431.00	1071.73
431.36	1082.73
431.73	1092.09
432.09	1110.58
432.46	1096.78
432.83	1101.69
433.19	1093.03
433.56	1081.80
433.92	1075.48
434.29	1076.88
434.65	1082.26
435.02	1085.77
435.38	1087.41
435.75	1086.94
436.11	1075.94
436.48	1068.22
436.84	1065.88
437.21	1076.65
437.57	1072.67
437.94	1083.90
438.30	1082.73
438.67	1083.67
439.03	1086.01
439.40	1090.92
439.76	1096.54
440.13	1086.24
440.49	1095.84
440.86	1088.35
441.22	1086.48
441.59	1075.24
441.95	1073.14
442.32	1063.31
442.68	1065.41
443.05	1062.14
443.41	1068.22
443.78	1080.39
444.14	1082.50
444.51	1079.46
444.87	1080.86
445.24	1077.82
445.60	1076.88
445.96	1071.26
446.33	1071.50
446.69	1069.39
447.06	1082.73
447.42	1082.73
447.79	1084.84
448.15	1091.86
448.51	1091.16
448.88	1083.20
449.24	1081.56
449.61	1082.26
449.97	1076.88
450.33	1079.46
450.70	1075.71
451.06	1063.77
451.43	1067.99
451.79	1070.33
452.15	1073.60
452.52	1075.71
452.88	1088.35
453.24	1085.07
453.61	1084.14
453.97	1081.56
454.34	1082.97
454.70	1080.86
455.06	1077.58
455.43	1064.94
455.79	1058.86
456.15	1062.37
456.52	1064.71
456.88	1074.54
457.24	1085.31
457.61	1088.12
457.97	1087.65
458.33	1091.16
458.70	1088.82
459.06	1089.52
459.42	1089.75
459.79	1078.52
460.15	1074.31
460.51	1064.71
460.88	1067.52
461.24	1068.92
461.60	1078.75
461.96	1082.97
462.33	1084.14
462.69	1084.14
463.05	1085.54
463.42	1086.94
463.78	1081.56
464.14	1087.18
464.50	1075.01
464.87	1072.43
465.23	1060.73
465.59	1072.90
465.95	1062.14
466.32	1075.71
466.68	1072.20
467.04	1082.73
467.40	1084.14
467.77	1094.43
468.13	1087.18
468.49	1099.35
468.85	1094.20
469.22	1088.82
469.58	1087.65
469.94	1086.01
470.30	1078.99
470.66	1074.31
471.03	1067.05
471.39	1074.77
471.75	1082.50
472.11	1084.14
472.47	1091.39
472.84	1095.37
473.20	1094.43
473.56	1098.65
473.92	1107.78
474.28	1099.35
474.65	1099.35
475.01	1091.86
475.37	1086.48
475.73	1080.63
476.09	1084.14
476.45	1080.86
476.81	1083.67
477.18	1083.20
477.54	1071.73
477.90	1083.67
478.26	1077.35
478.62	1071.97
478.98	1069.16
479.34	1072.90
479.71	1067.05
480.07	1071.73
480.43	1072.20
480.79	1073.84
481.15	1086.71
481.51	1093.03
481.87	1101.22
482.23	1100.29
482.59	1103.80
482.96	1089.75
483.32	1087.65
483.68	1082.97
484.04	1083.90
484.40	1071.26
484.76	1078.75
485.12	1072.43
485.48	1072.67
485.84	1071.26
486.20	1082.73
486.56	1083.67
486.92	1075.94
487.28	1061.43
487.64	1061.20
488.00	1064.01
488.37	1057.69
488.73	1065.65
489.09	1079.92
489.45	1083.20
489.81	1080.16
490.17	1079.69
490.53	1081.09
490.89	1079.46
491.25	1077.35
491.61	1080.86
491.97	1082.26
492.33	1081.80
492.69	1075.94
493.05	1086.01
493.41	1075.48
493.77	1074.07
494.13	1068.22
494.49	1086.01
494.85	1081.33
495.21	1079.92
495.57	1086.24
495.93	1094.20
496.29	1087.65
496.64	1079.69
497.00	1082.97
497.36	1082.03
497.72	1078.28
498.08	1064.24
498.44	1077.11
498.80	1076.88
499.16	1070.09
499.52	1077.11
499.88	1090.46
500.24	1081.80
500.60	1084.84
500.96	1094.67
501.32	1093.73
501.68	1083.20
502.03	1082.73
502.39	1080.63
502.75	1076.88
503.11	1061.67
503.47	1065.18
503.83	1067.05
504.19	1061.90
504.55	1064.94
504.91	1078.75
505.26	1084.84
505.62	1081.56
505.98	1092.80
506.34	1082.97
506.70	1086.01
507.06	1092.09
507.42	1097.01
507.78	1092.09
508.13	1108.01
508.49	1106.14
508.85	1096.31
509.21	1099.58
509.57	1104.03
509.93	1089.75
510.28	1077.82
510.64	1075.71
511.00	1067.52
511.36	1065.88
511.72	1074.54
512.07	1085.77
512.43	1104.97
512.79	1110.12
513.15	1118.78
513.51	1116.44
513.86	1118.07
514.22	1105.20
514.58	1105.44
514.94	1091.63
515.30	1093.97
515.65	1086.24
516.01	1086.48
516.37	1088.58
516.73	1097.95
517.08	1101.92
517.44	1109.41
517.80	1105.90
518.16	1105.44
518.51	1102.16
518.87	1098.41
519.23	1096.54
519.59	1101.22
519.94	1110.35
520.30	1109.18
520.66	1097.24
521.01	1097.71
521.37	1096.54
521.73	1089.75
522.09	1094.20
522.44	1097.95
522.80	1087.65
523.16	1083.67
523.51	1078.28
523.87	1073.60
524.23	1086.71
524.58	1107.78
524.94	1115.27
525.30	1116.90
525.65	1110.58
526.01	1111.05
526.37	1099.12
526.72	1098.41
527.08	1104.26
527.44	1111.52
527.79	1104.97
528.15	1107.78
528.51	1111.05
528.86	1115.50
529.22	1115.03
529.58	1111.05
529.93	1103.09
530.29	1085.77
530.65	1077.58
531.00	1087.65
531.36	1084.84
531.71	1084.84
532.07	1096.54
532.43	1103.80
532.78	1098.41
533.14	1104.97
533.49	1110.12
533.85	1105.44
534.21	1096.07
534.56	1094.43
534.92	1099.82
535.27	1094.20
535.63	1096.31
535.98	1100.29
536.34	1089.52
536.69	1084.60
537.05	1086.01
537.41	1090.46
537.76	1089.75
538.12	1098.65
538.47	1095.84
538.83	1097.71
539.18	1086.48
539.54	1091.63
539.89	1088.58
540.25	1091.39
540.60	1092.09
540.96	1097.95
541.31	1088.82
541.67	1094.90
542.02	1089.52
542.38	1084.84
542.73	1083.67
543.09	1078.52
543.44	1076.88
543.80	1076.65
544.15	1074.31
544.51	1080.16
544.86	1074.54
545.22	1074.54
545.57	1070.56
545.93	1077.82
546.28	1075.24
546.64	1088.58
546.99	1094.20
547.35	1097.01
547.70	1098.65
548.05	1098.65
548.41	1101.92
548.76	1094.43
549.12	1099.58
549.47	1097.71
549.83	1092.56
550.18	1083.20
550.53	1083.43
550.89	1077.11
551.24	1075.48
551.60	1076.18
551.95	1075.24
552.30	1082.97
552.66	1090.46
553.01	1087.18
553.37	1087.41
553.72	1094.90
554.07	1089.05
554.43	1081.33
554.78	1092.80
555.13	1097.48
555.49	1097.01
555.84	1096.31
556.19	1096.54
556.55	1080.63
556.90	1067.28
557.26	1074.54
557.61	1077.11
557.96	1085.54
558.32	1094.90
558.67	1100.29
559.02	1093.97
559.37	1090.46
559.73	1085.31
560.08	1086.01
560.43	1091.86
560.79	1092.09
561.14	1082.26
561.49	1086.48
561.85	1084.60
562.20	1083.90
562.55	1072.43
562.90	1081.09
563.26	1081.33
563.61	1083.90
563.96	1084.14
564.32	1090.46
564.67	1092.56
565.02	1080.16
565.37	1075.48
565.73	1082.73
566.08	1083.90
566.43	1075.94
566.78	1086.01
567.14	1084.37
567.49	1085.54
567.84	1083.20
568.19	1089.52
568.54	1091.86
568.90	1100.75
569.25	1090.92
569.60	1093.26
569.95	1101.69
570.31	1092.56
570.66	1085.77
571.01	1092.56
571.36	1093.73
571.71	1084.84
572.06	1080.16
572.42	1073.84
572.77	1063.07
573.12	1070.33
573.47	1062.37
573.82	1070.09
574.18	1068.92
574.53	1068.45
574.88	1057.22
575.23	1058.62
575.58	1055.11
575.93	1065.88
576.28	1072.90
576.64	1075.01
576.99	1080.86
577.34	1082.73
577.69	1078.05
578.04	1064.48
578.39	1064.24
578.74	1067.75
579.09	1074.77
579.44	1078.28
579.80	1095.84
580.15	1092.09
580.50	1087.88
580.85	1081.56
581.20	1081.09
581.55	1083.90
581.90	1086.94
582.25	1085.07
582.60	1090.46
582.95	1084.60
583.30	1075.94
583.65	1073.37
584.00	1066.82
584.35	1064.48
584.71	1068.92
585.06	1074.31
585.41	1075.94
585.76	1076.41
586.11	1077.58
586.46	1068.45
586.81	1056.05
587.16	1048.33
587.51	1050.43
587.86	1042.94
588.21	1055.58
588.56	1064.24
588.91	1077.35
589.26	1076.41
589.61	1086.24
589.96	1079.92
590.31	1077.11
590.66	1074.54
591.01	1085.54
591.36	1079.22
591.71	1075.94
592.06	1075.71
592.41	1078.52
592.76	1085.54
593.10	1081.09
593.45	1089.29
593.80	1089.52
594.15	1090.92
594.50	1082.03
594.85	1097.01
595.20	1102.16
595.55	1100.75
595.90	1091.16
596.25	1098.41
596.60	1089.99
596.95	1091.39
597.30	1090.22
597.64	1155.99
597.99	1151.08
598.34	1152.71
598.69	1141.25
599.04	1139.14
599.39	1069.39
599.74	1061.43
600.09	1060.73
600.44	1062.37
600.78	1067.52
601.13	1071.97
601.48	1070.33
601.83	1069.62
602.18	1070.56
602.53	1073.60
602.88	1072.43
603.22	1073.84
603.57	1071.26
603.92	1070.80
604.27	1063.77
604.62	1070.33
604.97	1074.31
605.31	1075.01
605.66	1070.80
606.01	1071.73
606.36	1071.50
606.71	1069.86
607.05	1072.20
607.40	1086.48
607.75	1096.54
608.10	1103.80
608.44	1110.82
608.79	1112.46
609.14	1101.92
609.49	1102.39
609.84	1092.56
610.18	1091.16
610.53	1088.82
610.88	1095.60
611.23	1091.39
611.57	1094.20
611.92	1095.84
612.27	1100.52
612.62	1102.39
612.96	1107.54
613.31	1108.71
613.66	1098.41
614.00	1089.75
614.35	1081.80
614.70	1070.09
615.05	1063.31
615.39	1071.97
615.74	1078.99
616.09	1071.97
616.43	1075.94
616.78	1077.82
617.13	1070.56
617.47	1075.24
617.82	1081.80
618.17	1077.35
618.51	1084.14
618.86	1095.37
619.21	1086.48
619.55	1088.12
619.90	1098.41
620.25	1097.01
620.59	1083.43
620.94	1083.43
621.29	1085.07
621.63	1079.92
621.98	1079.22
622.32	1075.71
622.67	1078.28
623.02	1077.35
623.36	1076.41
623.71	1076.41
624.05	1085.31
624.40	1077.58
624.75	1070.80
625.09	1069.16
625.44	1062.84
625.78	1059.09
626.13	1071.73
626.48	1071.50
626.82	1076.88
627.17	1085.77
627.51	1101.46
627.86	1096.78
628.20	1106.14
628.55	1107.31
628.89	1110.12
629.24	1100.05
629.58	1100.52
629.93	1098.18
630.28	1099.82
630.62	1089.99
630.97	1087.65
631.31	1088.58
631.66	1082.73
632.00	1068.45
632.35	1072.43
632.69	1070.56
633.04	1071.73
633.38	1071.03
633.73	1076.18
634.07	1077.11
634.42	1073.84
634.76	1065.65
635.11	1075.71
635.45	1074.54
635.79	1069.16
636.14	1067.28
636.48	1072.67
636.83	1068.45
637.17	1073.60
637.52	1084.14
637.86	1098.41
638.21	1090.69
638.55	1097.95
638.89	1086.48
639.24	1070.33
639.58	1062.60
639.93	1076.18
640.27	1067.75
640.61	1084.37
640.96	1095.14
641.30	1082.03
641.65	1071.97
641.99	1065.18
642.33	1061.67
642.68	1053.24
643.02	1064.71
643.37	1072.43
643.71	1082.26
644.05	1081.33
644.40	1080.86
644.74	1087.41
645.08	1085.07
645.43	1088.12
645.77	1082.03
646.11	1088.12
646.46	1087.41
646.80	1089.52
647.14	1087.18
647.49	1086.24
647.83	1087.41
648.17	1089.52
648.52	1091.39
648.86	1082.26
649.20	1083.67
649.55	1076.41
649.89	1076.88
650.23	1070.56
650.57	1082.50
650.92	1089.29
651.26	1100.52
651.60	1096.31
651.95	1097.71
652.29	1094.20
652.63	1091.86
652.97	1086.94
653.32	1082.97
653.66	1070.56
654.00	1069.86
654.34	1068.22
654.69	1067.99
655.03	1069.16
655.37	1079.92
655.71	1080.86
656.05	1080.63
656.40	1077.35
656.74	1081.56
657.08	1086.71
657.42	1079.46
657.76	1090.22
658.11	1091.16
658.45	1091.39
658.79	1069.39
659.13	1073.14
659.47	1057.92
659.82	1065.65
660.16	1056.28
660.50	1075.94
660.84	1079.92
661.18	1078.52
661.52	1071.97
661.87	1079.46
662.21	1083.20
662.55	1081.56
662.89	1089.05
663.23	1082.03
663.57	1089.99
663.91	1073.84
664.25	1069.16
664.60	1059.79
664.94	1068.92
665.28	1061.43
665.62	1078.28
665.96	1085.77
666.30	1093.50
666.64	1086.71
666.98	1087.65
667.32	1078.99
667.66	1077.35
668.01	1074.77
668.35	1076.18
668.69	1071.73
669.03	1071.50
669.37	1075.24
669.71	1079.22
670.05	1082.50
670.39	1086.71
670.73	1088.12
671.07	1079.46
671.41	1079.22
671.75	1079.22
672.09	1070.33
672.43	1065.88
672.77	1062.37
673.11	1056.99
673.45	1060.96
673.79	1062.14
674.13	1060.03
674.47	1070.33
674.81	1070.33
675.15	1071.73
675.49	1082.50
675.83	1086.48
676.17	1082.50
676.51	1092.33
676.85	1081.80
677.19	1072.67
677.53	1072.90
677.87	1060.73
678.21	1055.82
678.55	1068.45
678.89	1060.03
679.23	1064.94
679.57	1072.67
679.90	1075.01
680.24	1069.62
680.58	1082.50
680.92	1084.14
681.26	1090.92
681.60	1087.88
681.94	1083.67
682.28	1081.33
682.62	1075.01
682.96	1066.82
683.29	1067.52
683.63	1074.07
683.97	1078.75
684.31	1078.52
684.65	1076.65
684.99	1076.65
685.33	1079.69
685.67	1070.33
686.00	1072.67
686.34	1076.65
686.68	1069.39
687.02	1060.03
687.36	1070.33
687.70	1069.39
688.03	1065.88
688.37	1074.77
688.71	1078.05
689.05	1068.92
689.39	1070.80
689.72	1080.39
690.06	1076.65
690.40	1081.80
690.74	1083.67
691.08	1080.16
691.41	1063.77
691.75	1066.82
692.09	1073.14
692.43	1079.92
692.76	1082.26
693.10	1095.14
693.44	1092.33
693.78	1080.16
694.11	1087.41
694.45	1088.58
694.79	1090.22
695.13	1095.84
695.46	1100.29
695.80	1090.46
696.14	1083.20
696.48	1085.31
696.81	1077.82
697.15	1077.35
697.49	1075.01
697.82	1082.26
698.16	1074.77
698.50	1082.50
698.83	1077.11
699.17	1075.71
699.51	1078.05
699.84	1084.37
700.18	1076.88
700.52	1081.80
700.85	1080.16
701.19	1072.20
701.53	1068.22
701.86	1072.43
702.20	1072.20
702.54	1076.88
702.87	1085.31
703.21	1089.29
703.55	1081.33
703.88	1073.37
704.22	1079.92
704.55	1080.16
704.89	1076.41
705.23	1075.94
705.56	1078.52
705.90	1071.73
706.23	1067.28
706.57	1072.43
706.91	1087.41
707.24	1090.69
707.58	1087.65
707.91	1083.67
708.25	1078.52
708.58	1075.24
708.92	1073.14
709.26	1074.77
709.59	1084.84
709.93	1084.14
710.26	1074.07
710.60	1067.99
710.93	1080.63
711.27	1078.75
711.60	1070.56
711.94	1080.86
712.27	1092.80
712.61	1072.90
712.94	1057.22
713.28	1067.75
713.61	1066.35
713.95	1063.54
714.28	1074.54
714.62	1085.54
714.95	1087.65
715.29	1092.33
715.62	1088.82
715.96	1085.54
716.29	1079.22
716.63	1078.05
716.96	1073.60
717.29	1072.67
717.63	1077.11
717.96	1083.43
718.30	1086.24
718.63	1079.69
718.97	1077.82
719.30	1075.71
719.63	1083.90
719.97	1072.43
720.30	1082.97
720.64	1085.54
720.97	1084.60
721.30	1078.05
721.64	1083.67
721.97	1067.99
722.31	1078.75
722.64	1069.86
722.97	1072.20
723.31	1079.22
723.64	1091.16
723.97	1074.07
724.31	1079.46
724.64	1075.94
724.98	1077.35
725.31	1079.46
725.64	1090.46
725.98	1092.33
726.31	1081.80
726.64	1079.69
726.97	1082.73
727.31	1076.41
727.64	1080.86
727.97	1085.54
728.31	1090.46
728.64	1082.03
728.97	1073.14
729.31	1073.14
729.64	1072.67
729.97	1061.90
730.30	1061.90
730.64	1087.88
730.97	1079.69
731.30	1085.54
731.63	1087.18
731.97	1082.03
732.30	1064.48
732.63	1066.58
732.96	1072.43
733.30	1073.84
733.63	1077.58
733.96	1083.90
734.29	1086.48
734.63	1090.92
734.96	1087.65
735.29	1099.58
735.62	1096.78
735.95	1095.60
736.29	1076.88
736.62	1069.62
736.95	1057.22
737.28	1063.07
737.61	1067.05
737.94	1079.92
738.28	1089.75
738.61	1093.73
738.94	1090.69
739.27	1096.07
739.60	1104.03
739.93	1104.26
740.27	1101.46
740.60	1102.63
740.93	1103.33
741.26	1095.37
741.59	1105.90
741.92	1097.48
742.25	1094.43
742.58	1088.58
742.91	1090.46
743.25	1090.69
743.58	1096.78
743.91	1093.26
744.24	1082.50
744.57	1079.46
744.90	1062.84
745.23	1072.20
745.56	1073.14
745.89	1074.07
746.22	1073.84
746.55	1077.58
746.88	1062.60
747.21	1064.71
747.54	1075.24
747.87	1074.31
748.20	1076.18
748.53	1086.94
748.87	1083.20
749.20	1069.86
749.53	1073.84
749.86	1069.62
750.19	1073.37
750.52	1071.50
750.85	1086.94
751.18	1080.39
751.51	1084.14
751.84	1077.82
752.16	1076.88
752.49	1068.45
752.82	1074.54
753.15	1066.82
753.48	1067.99
753.81	1073.37
754.14	1074.54
754.47	1066.35
754.80	1062.84
755.13	1056.75
755.46	1057.22
755.79	1052.54
756.12	1049.03
756.45	1065.18
756.78	1070.56
757.11	1071.50
757.43	1072.67
757.76	1077.35
758.09	1077.35
758.42	1079.46
758.75	1078.05
759.08	1082.97
759.41	1081.56
759.74	1077.58
760.07	1073.14
760.39	1069.16
760.72	1065.65
761.05	1068.45
761.38	1070.56
761.71	1071.26
762.04	1077.11
762.36	1085.77
762.69	1089.29
763.02	1085.54
763.35	1094.90
763.68	1104.50
764.01	1099.58
764.33	1100.05
764.66	1103.09
764.99	1101.46
765.32	1098.88
765.65	1097.71
765.97	1092.80
766.30	1091.63
