SpectraSuite Data File
++++++++++++++++++++++++++++++++++++
Date: Mon Aug 26 10:25:58 PDT 2019
User: corrico
Dark Spectrum Present: No
Reference Spectrum Present: No
Number of Sampled Component Spectra: 1
Spectrometers: USB2+H06089
Integration Time (usec): 10000 (USB2+H06089)
Spectra Averaged: 2 (USB2+H06089)
Boxcar Smoothing: 2 (USB2+H06089)
Correct for Electrical Dark: No (USB2+H06089)
Strobe/Lamp Enabled: No (USB2+H06089)
Correct for Detector Non-linearity: No (USB2+H06089)
Correct for Stray Light: No (USB2+H06089)
Number of Pixels in Processed Spectrum: 2048
>>>>>Begin Processed Spectral Data<<<<<
339.70	1042.71
340.07	1042.71
340.45	998.71
340.82	974.37
341.19	955.41
341.57	928.02
341.94	925.21
342.31	933.64
342.69	930.13
343.06	924.51
343.43	925.45
343.81	915.62
344.18	903.68
344.55	907.66
344.93	911.40
345.30	921.94
345.67	924.04
346.04	936.21
346.42	943.47
346.79	956.34
347.16	958.68
347.54	963.60
347.91	980.45
348.28	987.71
348.65	988.64
349.03	997.07
349.40	1006.90
349.77	1005.03
350.14	1013.92
350.52	1020.24
350.89	1028.20
351.26	1043.88
351.63	1046.69
352.01	1051.84
352.38	1054.88
352.75	1052.30
353.12	1056.75
353.50	1059.79
353.87	1061.20
354.24	1057.45
354.61	1064.01
354.98	1059.09
355.36	1061.20
355.73	1067.28
356.10	1076.41
356.47	1085.77
356.84	1091.39
357.22	1101.69
357.59	1095.37
357.96	1087.88
358.33	1085.31
358.70	1090.46
359.08	1084.37
359.45	1078.99
359.82	1088.58
360.19	1086.48
360.56	1077.35
360.94	1068.22
361.31	1076.18
361.68	1077.82
362.05	1070.56
362.42	1071.50
362.79	1079.92
363.16	1077.11
363.54	1073.37
363.91	1072.67
364.28	1075.94
364.65	1074.77
365.02	1076.41
365.39	1073.60
365.76	1070.33
366.14	1067.05
366.51	1070.56
366.88	1071.73
367.25	1071.97
367.62	1075.94
367.99	1075.94
368.36	1069.39
368.73	1065.65
369.10	1075.24
369.48	1076.65
369.85	1081.80
370.22	1087.41
370.59	1091.39
370.96	1080.86
371.33	1071.73
371.70	1074.54
372.07	1077.35
372.44	1079.22
372.81	1082.03
373.18	1094.67
373.55	1083.43
373.93	1080.63
374.30	1074.77
374.67	1078.52
375.04	1070.09
375.41	1074.77
375.78	1061.20
376.15	1063.07
376.52	1057.22
376.89	1064.01
377.26	1057.22
377.63	1071.97
378.00	1069.39
378.37	1068.45
378.74	1065.18
379.11	1068.92
379.48	1070.56
379.85	1076.88
380.22	1085.77
380.59	1085.54
380.96	1083.67
381.33	1076.88
381.70	1070.80
382.07	1067.52
382.44	1065.41
382.81	1061.67
383.18	1065.88
383.55	1060.03
383.92	1053.71
384.29	1057.22
384.66	1068.45
385.03	1055.82
385.40	1065.41
385.77	1064.94
386.14	1065.41
386.51	1059.09
386.88	1063.54
387.25	1066.82
387.62	1066.82
387.99	1069.62
388.36	1070.33
388.73	1074.54
389.10	1073.60
389.46	1083.90
389.83	1081.09
390.20	1087.88
390.57	1091.63
390.94	1087.18
391.31	1079.69
391.68	1083.20
392.05	1079.22
392.42	1076.18
392.79	1070.80
393.16	1073.14
393.53	1072.20
393.89	1079.69
394.26	1079.92
394.63	1095.14
395.00	1089.29
395.37	1079.92
395.74	1076.41
396.11	1084.84
396.48	1078.05
396.84	1077.35
397.21	1087.65
397.58	1090.22
397.95	1083.43
398.32	1075.94
398.69	1084.37
399.06	1079.46
399.42	1077.35
399.79	1068.45
400.16	1074.54
400.53	1071.73
400.90	1074.77
401.27	1073.84
401.64	1081.09
402.00	1074.31
402.37	1074.31
402.74	1074.07
403.11	1074.07
403.48	1081.80
403.84	1096.31
404.21	1089.05
404.58	1084.84
404.95	1084.14
405.32	1082.50
405.68	1072.43
406.05	1083.90
406.42	1095.60
406.79	1089.99
407.16	1082.26
407.52	1093.03
407.89	1091.16
408.26	1091.86
408.63	1092.80
408.99	1090.92
409.36	1078.05
409.73	1071.03
410.10	1067.52
410.47	1069.39
410.83	1069.86
411.20	1077.58
411.57	1081.56
411.94	1082.50
412.30	1089.75
412.67	1089.29
413.04	1070.09
413.40	1064.24
413.77	1063.07
414.14	1047.39
414.51	1054.41
414.87	1067.52
415.24	1072.67
415.61	1063.31
415.97	1071.03
416.34	1063.54
416.71	1066.35
417.08	1070.09
417.44	1077.35
417.81	1079.69
418.18	1082.73
418.54	1079.69
418.91	1081.09
419.28	1071.97
419.64	1065.88
420.01	1060.26
420.38	1061.67
420.74	1059.09
421.11	1065.41
421.48	1071.73
421.84	1075.94
422.21	1078.05
422.58	1080.39
422.94	1090.92
423.31	1089.29
423.68	1093.50
424.04	1089.29
424.41	1087.88
424.77	1067.05
425.14	1066.35
425.51	1061.43
425.87	1062.37
426.24	1056.52
426.61	1065.65
426.97	1062.14
427.34	1058.86
427.70	1063.54
428.07	1072.67
428.44	1079.22
428.80	1087.41
429.17	1090.69
429.53	1086.71
429.90	1087.18
430.27	1078.28
430.63	1082.97
431.00	1085.54
431.36	1081.80
431.73	1072.20
432.09	1077.58
432.46	1056.75
432.83	1056.28
433.19	1056.05
433.56	1064.71
433.92	1068.45
434.29	1080.39
434.65	1088.35
435.02	1092.56
435.38	1096.54
435.75	1085.07
436.11	1086.01
436.48	1077.11
436.84	1080.63
437.21	1075.24
437.57	1085.07
437.94	1082.50
438.30	1085.77
438.67	1082.26
439.03	1076.41
439.40	1069.86
439.76	1077.82
440.13	1076.65
440.49	1083.67
440.86	1090.46
441.22	1088.12
441.59	1081.80
441.95	1075.48
442.32	1066.35
442.68	1056.75
443.05	1061.67
443.41	1064.01
443.78	1066.58
444.14	1066.58
444.51	1069.39
444.87	1076.41
445.24	1069.62
445.60	1077.35
445.96	1076.88
446.33	1088.12
446.69	1079.22
447.06	1085.07
447.42	1079.92
447.79	1090.22
448.15	1077.82
448.51	1082.73
448.88	1080.39
449.24	1073.84
449.61	1071.50
449.97	1069.39
450.33	1068.22
450.70	1072.20
451.06	1087.88
451.43	1081.33
451.79	1086.48
452.15	1086.01
452.52	1081.33
452.88	1070.33
453.24	1077.35
453.61	1082.03
453.97	1086.24
454.34	1085.54
454.70	1089.52
455.06	1086.94
455.43	1092.09
455.79	1086.24
456.15	1096.07
456.52	1096.07
456.88	1099.12
457.24	1086.94
457.61	1084.84
457.97	1080.86
458.33	1088.35
458.70	1086.24
459.06	1086.94
459.42	1087.41
459.79	1096.07
460.15	1094.67
460.51	1093.97
460.88	1089.75
461.24	1094.43
461.60	1082.03
461.96	1073.14
462.33	1071.97
462.69	1080.86
463.05	1073.37
463.42	1072.43
463.78	1071.26
464.14	1067.05
464.50	1064.24
464.87	1064.24
465.23	1065.65
465.59	1069.62
465.95	1073.60
466.32	1075.48
466.68	1093.97
467.04	1101.69
467.40	1108.71
467.77	1114.33
468.13	1112.22
468.49	1093.26
468.85	1084.14
469.22	1074.77
469.58	1070.09
469.94	1072.20
470.30	1077.35
470.66	1087.65
471.03	1089.52
471.39	1087.65
471.75	1098.18
472.11	1104.03
472.47	1094.67
472.84	1091.16
473.20	1086.71
473.56	1074.07
473.92	1064.71
474.28	1069.86
474.65	1077.82
475.01	1077.82
475.37	1084.14
475.73	1089.29
476.09	1079.69
476.45	1072.20
476.81	1074.31
477.18	1069.86
477.54	1061.20
477.90	1071.73
478.26	1072.43
478.62	1074.54
478.98	1061.67
479.34	1065.18
479.71	1059.79
480.07	1053.24
480.43	1049.50
480.79	1054.18
481.15	1057.92
481.51	1057.45
481.87	1060.03
482.23	1062.84
482.59	1066.11
482.96	1061.20
483.32	1061.67
483.68	1079.92
484.04	1090.22
484.40	1091.63
484.76	1097.95
485.12	1093.73
485.48	1083.90
485.84	1077.35
486.20	1083.90
486.56	1088.12
486.92	1086.48
487.28	1086.01
487.64	1084.84
488.00	1078.05
488.37	1070.56
488.73	1066.11
489.09	1069.86
489.45	1062.14
489.81	1066.82
490.17	1067.99
490.53	1076.88
490.89	1074.31
491.25	1085.07
491.61	1084.37
491.97	1084.37
492.33	1085.77
492.69	1081.80
493.05	1071.26
493.41	1072.90
493.77	1075.01
494.13	1076.88
494.49	1082.73
494.85	1090.92
495.21	1087.65
495.57	1084.60
495.93	1091.63
496.29	1081.56
496.64	1079.22
497.00	1088.12
497.36	1090.92
497.72	1072.20
498.08	1086.01
498.44	1089.29
498.80	1082.97
499.16	1085.54
499.52	1096.07
499.88	1091.86
500.24	1094.43
500.60	1097.01
500.96	1094.20
501.32	1100.99
501.68	1101.92
502.03	1091.39
502.39	1093.03
502.75	1087.18
503.11	1083.67
503.47	1082.97
503.83	1090.92
504.19	1082.73
504.55	1084.37
504.91	1080.86
505.26	1086.48
505.62	1082.97
505.98	1087.88
506.34	1092.56
506.70	1093.03
507.06	1089.75
507.42	1087.65
507.78	1086.01
508.13	1086.24
508.49	1085.77
508.85	1079.92
509.21	1083.20
509.57	1083.43
509.93	1077.82
510.28	1079.46
510.64	1080.16
511.00	1080.39
511.36	1077.35
511.72	1081.56
512.07	1083.67
512.43	1077.11
512.79	1079.92
513.15	1086.71
513.51	1096.07
513.86	1097.01
514.22	1102.63
514.58	1104.03
514.94	1099.12
515.30	1089.75
515.65	1086.01
516.01	1089.99
516.37	1087.41
516.73	1095.84
517.08	1094.20
517.44	1080.39
517.80	1073.60
518.16	1067.99
518.51	1058.86
518.87	1057.22
519.23	1070.80
519.59	1079.46
519.94	1091.39
520.30	1097.95
520.66	1100.52
521.01	1103.09
521.37	1098.41
521.73	1088.82
522.09	1086.94
522.44	1088.35
522.80	1092.80
523.16	1093.97
523.51	1102.39
523.87	1098.18
524.23	1104.50
524.58	1106.84
524.94	1110.35
525.30	1107.78
525.65	1111.75
526.01	1117.37
526.37	1112.69
526.72	1108.01
527.08	1102.16
527.44	1101.46
527.79	1086.24
528.15	1086.48
528.51	1080.63
528.86	1080.16
529.22	1086.24
529.58	1092.56
529.93	1092.09
530.29	1109.88
530.65	1118.54
531.00	1113.63
531.36	1113.39
531.71	1108.24
532.07	1097.95
532.43	1093.73
532.78	1096.78
533.14	1101.69
533.49	1093.50
533.85	1099.35
534.21	1103.56
534.56	1093.97
534.92	1088.82
535.27	1093.03
535.63	1080.86
535.98	1070.33
536.34	1069.16
536.69	1066.35
537.05	1068.92
537.41	1071.03
537.76	1075.48
538.12	1088.35
538.47	1095.14
538.83	1106.61
539.18	1108.71
539.54	1108.95
539.89	1098.65
540.25	1089.99
540.60	1076.18
540.96	1074.54
541.31	1082.03
541.67	1089.05
542.02	1099.12
542.38	1099.35
542.73	1094.67
543.09	1094.20
543.44	1086.71
543.80	1078.99
544.15	1080.39
544.51	1090.92
544.86	1087.41
545.22	1090.69
545.57	1090.69
545.93	1089.99
546.28	1094.90
546.64	1104.50
546.99	1115.03
547.35	1122.52
547.70	1122.05
548.05	1121.58
548.41	1103.80
548.76	1097.01
549.12	1090.69
549.47	1107.31
549.83	1093.26
550.18	1092.33
550.53	1084.60
550.89	1082.26
551.24	1073.37
551.60	1080.39
551.95	1095.37
552.30	1097.48
552.66	1097.24
553.01	1087.41
553.37	1082.97
553.72	1078.05
554.07	1074.54
554.43	1071.26
554.78	1077.82
555.13	1080.86
555.49	1070.33
555.84	1071.73
556.19	1070.56
556.55	1076.65
556.90	1082.26
557.26	1091.63
557.61	1089.75
557.96	1094.43
558.32	1084.14
558.67	1079.46
559.02	1082.97
559.37	1092.33
559.73	1087.88
560.08	1090.92
560.43	1083.67
560.79	1074.07
561.14	1069.39
561.49	1066.58
561.85	1063.07
562.20	1067.28
562.55	1066.35
562.90	1061.90
563.26	1065.41
563.61	1071.50
563.96	1074.07
564.32	1068.69
564.67	1077.82
565.02	1079.22
565.37	1076.65
565.73	1080.63
566.08	1091.63
566.43	1086.94
566.78	1094.67
567.14	1081.33
567.49	1076.41
567.84	1075.01
568.19	1066.11
568.54	1062.60
568.90	1075.24
569.25	1071.26
569.60	1064.24
569.95	1076.18
570.31	1086.94
570.66	1099.58
571.01	1105.90
571.36	1117.61
571.71	1117.37
572.06	1103.09
572.42	1088.82
572.77	1082.50
573.12	1081.33
573.47	1082.73
573.82	1073.60
574.18	1081.33
574.53	1091.86
574.88	1093.50
575.23	1088.12
575.58	1092.09
575.93	1080.16
576.28	1072.67
576.64	1053.24
576.99	1050.20
577.34	1069.16
577.69	1079.22
578.04	1076.65
578.39	1092.09
578.74	1093.03
579.09	1087.65
579.44	1085.31
579.80	1095.14
580.15	1091.16
580.50	1091.39
580.85	1090.69
581.20	1082.26
581.55	1068.92
581.90	1070.80
582.25	1071.97
582.60	1070.80
582.95	1083.67
583.30	1095.84
583.65	1089.75
584.00	1089.52
584.35	1089.52
584.71	1082.50
585.06	1071.97
585.41	1078.52
585.76	1084.37
586.11	1087.65
586.46	1083.67
586.81	1093.73
587.16	1091.16
587.51	1091.16
587.86	1081.80
588.21	1078.28
588.56	1077.58
588.91	1085.31
589.26	1078.52
589.61	1084.60
589.96	1095.37
590.31	1089.29
590.66	1084.14
591.01	1090.92
591.36	1090.46
591.71	1092.56
592.06	1092.80
592.41	1098.88
592.76	1096.54
593.10	1088.58
593.45	1093.26
593.80	1086.24
594.15	1087.88
594.50	1085.07
594.85	1092.80
595.20	1085.07
595.55	1085.77
595.90	1075.24
596.25	1076.88
596.60	1074.54
596.95	1074.54
597.30	1071.26
597.64	1114.80
597.99	1124.63
598.34	1128.84
598.69	1131.65
599.04	1147.10
599.39	1106.61
599.74	1090.69
600.09	1084.84
600.44	1082.73
600.78	1075.71
601.13	1077.58
601.48	1086.48
601.83	1093.97
602.18	1093.73
602.53	1097.24
602.88	1102.16
603.22	1108.01
603.57	1109.65
603.92	1116.44
604.27	1120.18
604.62	1120.41
604.97	1108.48
605.31	1099.82
605.66	1095.37
606.01	1093.03
606.36	1085.31
606.71	1088.82
607.05	1093.50
607.40	1086.01
607.75	1084.14
608.10	1084.14
608.44	1078.05
608.79	1072.67
609.14	1067.75
609.49	1064.71
609.84	1071.50
610.18	1082.97
610.53	1077.11
610.88	1095.14
611.23	1098.88
611.57	1086.94
611.92	1082.97
612.27	1086.48
612.62	1082.97
612.96	1082.97
613.31	1079.46
613.66	1075.71
614.00	1073.84
614.35	1071.26
614.70	1075.94
615.05	1081.80
615.39	1086.94
615.74	1086.94
616.09	1082.03
616.43	1078.05
616.78	1082.03
617.13	1078.28
617.47	1085.07
617.82	1090.22
618.17	1085.54
618.51	1085.54
618.86	1094.90
619.21	1086.94
619.55	1099.35
619.90	1101.22
620.25	1093.50
620.59	1080.63
620.94	1089.52
621.29	1080.39
621.63	1080.39
621.98	1089.29
622.32	1090.46
622.67	1082.97
623.02	1071.03
623.36	1064.48
623.71	1056.28
624.05	1058.62
624.40	1061.43
624.75	1071.50
625.09	1075.71
625.44	1084.60
625.78	1084.14
626.13	1089.05
626.48	1079.92
626.82	1078.28
627.17	1075.94
627.51	1073.60
627.86	1064.48
628.20	1067.28
628.55	1075.01
628.89	1068.92
629.24	1067.05
629.58	1068.22
629.93	1073.14
630.28	1083.43
630.62	1092.33
630.97	1102.16
631.31	1110.58
631.66	1105.67
632.00	1093.97
632.35	1093.97
632.69	1088.58
633.04	1078.28
633.38	1084.60
633.73	1090.69
634.07	1094.43
634.42	1098.88
634.76	1103.33
635.11	1102.63
635.45	1095.84
635.79	1087.18
636.14	1078.75
636.48	1084.60
636.83	1083.90
637.17	1084.14
637.52	1085.77
637.86	1086.01
638.21	1084.37
638.55	1081.56
638.89	1077.11
639.24	1076.65
639.58	1086.94
639.93	1082.26
640.27	1085.77
640.61	1092.56
640.96	1096.54
641.30	1086.01
641.65	1080.16
641.99	1081.09
642.33	1074.07
642.68	1075.01
643.02	1076.41
643.37	1089.75
643.71	1096.31
644.05	1099.12
644.40	1094.90
644.74	1098.88
645.08	1100.05
645.43	1102.63
645.77	1105.44
646.11	1102.86
646.46	1089.75
646.80	1083.90
647.14	1066.58
647.49	1069.62
647.83	1069.16
648.17	1083.67
648.52	1077.35
648.86	1080.63
649.20	1073.84
649.55	1074.54
649.89	1066.82
650.23	1082.50
650.57	1088.82
650.92	1092.56
651.26	1090.69
651.60	1097.24
651.95	1086.71
652.29	1085.31
652.63	1080.16
652.97	1087.88
653.32	1089.29
653.66	1093.26
654.00	1098.18
654.34	1101.22
654.69	1101.69
655.03	1100.05
655.37	1109.41
655.71	1104.03
656.05	1102.39
656.40	1094.20
656.74	1086.24
657.08	1082.03
657.42	1078.28
657.76	1079.92
658.11	1078.52
658.45	1079.92
658.79	1064.48
659.13	1068.45
659.47	1073.60
659.82	1073.37
660.16	1081.09
660.50	1085.31
660.84	1082.26
661.18	1077.11
661.52	1084.37
661.87	1083.67
662.21	1080.16
662.55	1079.22
662.89	1069.86
663.23	1078.75
663.57	1082.50
663.91	1082.73
664.25	1078.75
664.60	1094.90
664.94	1091.86
665.28	1080.86
665.62	1094.20
665.96	1100.52
666.30	1096.54
666.64	1090.46
666.98	1086.24
667.32	1073.37
667.66	1072.90
668.01	1073.14
668.35	1063.31
668.69	1075.94
669.03	1080.16
669.37	1078.52
669.71	1088.12
670.05	1090.22
670.39	1098.18
670.73	1091.16
671.07	1089.52
671.41	1078.52
671.75	1088.82
672.09	1069.39
672.43	1076.65
672.77	1072.90
673.11	1064.48
673.45	1053.71
673.79	1055.58
674.13	1050.20
674.47	1051.13
674.81	1053.01
675.15	1063.54
675.49	1064.94
675.83	1068.92
676.17	1072.43
676.51	1075.24
676.85	1078.05
677.19	1087.41
677.53	1089.99
677.87	1089.52
678.21	1088.58
678.55	1085.54
678.89	1078.75
679.23	1082.73
679.57	1084.60
679.90	1086.94
680.24	1079.69
680.58	1089.05
680.92	1085.54
681.26	1080.63
681.60	1085.31
681.94	1087.88
682.28	1081.33
682.62	1077.58
682.96	1082.97
683.29	1075.24
683.63	1078.99
683.97	1092.80
684.31	1088.58
684.65	1087.88
684.99	1085.77
685.33	1081.33
685.67	1061.67
686.00	1060.73
686.34	1064.48
686.68	1066.11
687.02	1069.62
687.36	1079.69
687.70	1090.22
688.03	1089.99
688.37	1092.56
688.71	1092.80
689.05	1093.50
689.39	1086.48
689.72	1089.52
690.06	1092.56
690.40	1084.37
690.74	1072.90
691.08	1067.05
691.41	1055.11
691.75	1053.01
692.09	1053.24
692.43	1060.03
692.76	1067.99
693.10	1076.65
693.44	1082.50
693.78	1089.05
694.11	1085.77
694.45	1087.88
694.79	1080.16
695.13	1075.01
695.46	1071.73
695.80	1077.58
696.14	1074.07
696.48	1079.69
696.81	1075.01
697.15	1080.16
697.49	1082.26
697.82	1089.52
698.16	1089.29
698.50	1088.35
698.83	1088.58
699.17	1091.16
699.51	1084.14
699.84	1080.16
700.18	1078.52
700.52	1067.75
700.85	1062.84
701.19	1069.16
701.53	1076.41
701.86	1093.26
702.20	1098.88
702.54	1102.16
702.87	1098.65
703.21	1094.67
703.55	1087.88
703.88	1094.20
704.22	1080.86
704.55	1074.54
704.89	1071.50
705.23	1071.26
705.56	1071.03
705.90	1074.31
706.23	1075.48
706.57	1077.58
706.91	1076.65
707.24	1069.86
707.58	1074.07
707.91	1082.73
708.25	1092.09
708.58	1094.67
708.92	1089.75
709.26	1087.41
709.59	1083.67
709.93	1080.39
710.26	1067.28
710.60	1073.60
710.93	1083.90
711.27	1084.84
711.60	1076.88
711.94	1085.54
712.27	1089.75
712.61	1087.88
712.94	1095.37
713.28	1100.29
713.61	1099.35
713.95	1097.71
714.28	1093.97
714.62	1082.73
714.95	1076.88
715.29	1083.90
715.62	1075.94
715.96	1074.54
716.29	1075.24
716.63	1077.82
716.96	1064.48
717.29	1068.69
717.63	1060.50
717.96	1060.96
718.30	1058.62
718.63	1077.35
718.97	1084.14
719.30	1092.56
719.63	1095.14
719.97	1091.16
720.30	1082.97
720.64	1089.75
720.97	1095.60
721.30	1093.97
721.64	1108.71
721.97	1094.90
722.31	1084.37
722.64	1070.80
722.97	1066.35
723.31	1059.56
723.64	1071.03
723.97	1075.94
724.31	1078.28
724.64	1088.82
724.98	1076.41
725.31	1082.73
725.64	1074.54
725.98	1071.73
726.31	1072.67
726.64	1082.73
726.97	1069.39
727.31	1073.14
727.64	1075.71
727.97	1075.94
728.31	1078.99
728.64	1080.16
728.97	1078.28
729.31	1086.01
729.64	1086.94
729.97	1081.09
730.30	1085.54
730.64	1086.48
730.97	1076.65
731.30	1069.16
731.63	1072.90
731.97	1075.71
732.30	1077.35
732.63	1081.56
732.96	1085.07
733.30	1084.84
733.63	1080.63
733.96	1071.73
734.29	1071.97
734.63	1074.54
734.96	1070.33
735.29	1078.05
735.62	1092.33
735.95	1099.58
736.29	1097.24
736.62	1104.50
736.95	1092.09
737.28	1083.67
737.61	1080.16
737.94	1079.22
738.28	1080.39
738.61	1086.48
738.94	1083.20
739.27	1080.63
739.60	1067.75
739.93	1054.18
740.27	1056.75
740.60	1061.67
740.93	1061.43
741.26	1067.28
741.59	1077.82
741.92	1084.37
742.25	1080.39
742.58	1077.82
742.91	1088.35
743.25	1092.33
743.58	1088.35
743.91	1084.60
744.24	1091.39
744.57	1088.58
744.90	1086.71
745.23	1085.54
745.56	1092.80
745.89	1084.60
746.22	1076.65
746.55	1077.58
746.88	1073.37
747.21	1073.84
747.54	1071.73
747.87	1072.43
748.20	1069.39
748.53	1071.26
748.87	1072.90
749.20	1083.20
749.53	1086.01
749.86	1083.20
750.19	1075.71
750.52	1069.16
750.85	1064.48
751.18	1062.14
751.51	1065.65
751.84	1067.52
752.16	1066.11
752.49	1065.88
752.82	1070.09
753.15	1071.50
753.48	1073.84
753.81	1079.22
754.14	1077.35
754.47	1075.24
754.80	1071.73
755.13	1076.88
755.46	1078.75
755.79	1078.52
756.12	1086.01
756.45	1079.46
756.78	1068.45
757.11	1061.20
757.43	1068.69
757.76	1060.96
758.09	1067.99
758.42	1081.56
758.75	1086.01
759.08	1074.07
759.41	1080.63
759.74	1080.39
760.07	1068.22
760.39	1063.07
760.72	1069.86
761.05	1066.11
761.38	1078.99
761.71	1087.65
762.04	1085.07
762.36	1082.97
762.69	1081.09
763.02	1064.48
763.35	1063.54
763.68	1071.73
764.01	1074.77
764.33	1088.35
764.66	1098.41
764.99	1096.07
765.32	1100.29
765.65	1094.67
765.97	1087.41
766.30	1091.63
