SpectraSuite Data File
++++++++++++++++++++++++++++++++++++
Date: Mon Aug 26 10:25:59 PDT 2019
User: corrico
Dark Spectrum Present: No
Reference Spectrum Present: No
Number of Sampled Component Spectra: 1
Spectrometers: USB2+H06089
Integration Time (usec): 10000 (USB2+H06089)
Spectra Averaged: 2 (USB2+H06089)
Boxcar Smoothing: 2 (USB2+H06089)
Correct for Electrical Dark: No (USB2+H06089)
Strobe/Lamp Enabled: No (USB2+H06089)
Correct for Detector Non-linearity: No (USB2+H06089)
Correct for Stray Light: No (USB2+H06089)
Number of Pixels in Processed Spectrum: 2048
>>>>>Begin Processed Spectral Data<<<<<
339.70	1026.32
340.07	1026.32
340.45	998.71
340.82	983.73
341.19	961.26
341.57	940.66
341.94	932.94
342.31	923.58
342.69	908.83
343.06	908.83
343.43	889.87
343.81	886.59
344.18	889.64
344.55	897.83
344.93	902.51
345.30	931.07
345.67	941.13
346.04	946.28
346.42	946.04
346.79	950.49
347.16	948.39
347.54	963.13
347.91	980.22
348.28	992.15
348.65	999.64
349.03	1005.73
349.40	1008.54
349.77	1013.92
350.14	1025.39
350.52	1034.98
350.89	1041.07
351.26	1049.96
351.63	1044.11
352.01	1055.35
352.38	1048.09
352.75	1061.20
353.12	1059.56
353.50	1063.54
353.87	1067.52
354.24	1077.11
354.61	1075.24
354.98	1077.11
355.36	1080.86
355.73	1078.28
356.10	1083.43
356.47	1085.54
356.84	1080.63
357.22	1077.11
357.59	1082.73
357.96	1086.01
358.33	1088.58
358.70	1087.41
359.08	1093.26
359.45	1088.35
359.82	1083.67
360.19	1063.31
360.56	1060.96
360.94	1060.96
361.31	1058.39
361.68	1057.45
362.05	1071.26
362.42	1075.48
362.79	1074.07
363.16	1072.90
363.54	1081.33
363.91	1082.97
364.28	1087.65
364.65	1090.46
365.02	1094.67
365.39	1090.22
365.76	1082.03
366.14	1080.86
366.51	1083.67
366.88	1078.05
367.25	1076.18
367.62	1087.65
367.99	1074.54
368.36	1068.45
368.73	1064.01
369.10	1067.28
369.48	1060.26
369.85	1065.65
370.22	1063.77
370.59	1068.92
370.96	1062.60
371.33	1067.52
371.70	1065.65
372.07	1062.37
372.44	1058.86
372.81	1054.18
373.18	1047.62
373.55	1055.82
373.93	1066.82
374.30	1076.88
374.67	1080.39
375.04	1082.26
375.41	1079.92
375.78	1072.67
376.15	1066.11
376.52	1069.62
376.89	1075.01
377.26	1075.01
377.63	1082.97
378.00	1077.58
378.37	1072.20
378.74	1070.33
379.11	1069.62
379.48	1064.01
379.85	1060.96
380.22	1066.82
380.59	1060.26
380.96	1064.71
381.33	1058.86
381.70	1063.07
382.07	1060.73
382.44	1066.82
382.81	1060.96
383.18	1058.16
383.55	1049.26
383.92	1058.62
384.29	1063.31
384.66	1061.90
385.03	1070.33
385.40	1086.71
385.77	1084.60
386.14	1085.77
386.51	1089.75
386.88	1086.94
387.25	1094.43
387.62	1086.01
387.99	1075.24
388.36	1067.75
388.73	1071.26
389.10	1055.82
389.46	1063.54
389.83	1068.45
390.20	1079.69
390.57	1082.97
390.94	1087.65
391.31	1077.82
391.68	1079.22
392.05	1078.28
392.42	1074.77
392.79	1071.50
393.16	1074.54
393.53	1069.16
393.89	1056.75
394.26	1053.94
394.63	1068.92
395.00	1076.18
395.37	1083.20
395.74	1088.12
396.11	1085.07
396.48	1072.43
396.84	1061.90
397.21	1060.50
397.58	1061.20
397.95	1071.50
398.32	1064.01
398.69	1078.75
399.06	1078.05
399.42	1087.88
399.79	1079.92
400.16	1082.73
400.53	1076.65
400.90	1076.18
401.27	1069.39
401.64	1075.01
402.00	1077.82
402.37	1074.54
402.74	1074.77
403.11	1078.75
403.48	1071.73
403.84	1072.43
404.21	1073.60
404.58	1062.14
404.95	1057.22
405.32	1056.05
405.68	1055.58
406.05	1043.88
406.42	1056.28
406.79	1064.01
407.16	1069.86
407.52	1071.73
407.89	1077.11
408.26	1067.99
408.63	1069.16
408.99	1069.39
409.36	1071.26
409.73	1075.48
410.10	1086.94
410.47	1085.31
410.83	1087.41
411.20	1089.52
411.57	1083.67
411.94	1073.37
412.30	1071.03
412.67	1072.43
413.04	1069.62
413.40	1072.90
413.77	1078.75
414.14	1084.37
414.51	1078.05
414.87	1072.67
415.24	1076.41
415.61	1073.60
415.97	1064.01
416.34	1060.96
416.71	1063.54
417.08	1061.67
417.44	1049.73
417.81	1050.67
418.18	1057.69
418.54	1066.35
418.91	1068.69
419.28	1087.41
419.64	1089.29
420.01	1094.67
420.38	1089.99
420.74	1085.54
421.11	1090.22
421.48	1088.12
421.84	1069.86
422.21	1062.60
422.58	1064.01
422.94	1063.07
423.31	1058.86
423.68	1070.56
424.04	1082.26
424.41	1077.11
424.77	1055.11
425.14	1057.92
425.51	1063.31
425.87	1056.99
426.24	1060.50
426.61	1084.14
426.97	1090.69
427.34	1084.14
427.70	1073.84
428.07	1075.48
428.44	1065.41
428.80	1063.31
429.17	1067.99
429.53	1082.73
429.90	1078.05
430.27	1079.69
430.63	1079.92
431.00	1076.88
431.36	1063.31
431.73	1072.67
432.09	1078.75
432.46	1081.56
432.83	1079.69
433.19	1092.56
433.56	1086.24
433.92	1073.14
434.29	1069.86
434.65	1077.11
435.02	1072.20
435.38	1072.67
435.75	1077.11
436.11	1065.88
436.48	1065.88
436.84	1060.26
437.21	1067.52
437.57	1071.50
437.94	1077.11
438.30	1067.75
438.67	1068.92
439.03	1062.84
439.40	1064.48
439.76	1068.69
440.13	1078.05
440.49	1078.52
440.86	1079.22
441.22	1072.90
441.59	1068.69
441.95	1050.43
442.32	1050.90
442.68	1041.30
443.05	1037.79
443.41	1040.13
443.78	1050.20
444.14	1055.35
444.51	1076.88
444.87	1075.94
445.24	1079.46
445.60	1086.71
445.96	1085.07
446.33	1072.67
446.69	1072.90
447.06	1065.41
447.42	1056.99
447.79	1065.88
448.15	1069.39
448.51	1078.28
448.88	1080.39
449.24	1089.52
449.61	1077.11
449.97	1084.60
450.33	1083.90
450.70	1090.69
451.06	1080.86
451.43	1090.92
451.79	1076.88
452.15	1071.26
452.52	1073.37
452.88	1080.39
453.24	1066.58
453.61	1072.20
453.97	1076.41
454.34	1078.99
454.70	1079.46
455.06	1087.41
455.43	1089.05
455.79	1081.09
456.15	1076.41
456.52	1067.28
456.88	1075.71
457.24	1070.80
457.61	1073.84
457.97	1067.99
458.33	1078.75
458.70	1069.16
459.06	1074.54
459.42	1082.97
459.79	1086.94
460.15	1080.16
460.51	1083.43
460.88	1081.33
461.24	1080.86
461.60	1082.97
461.96	1078.28
462.33	1074.31
462.69	1070.33
463.05	1063.77
463.42	1060.26
463.78	1069.39
464.14	1071.26
464.50	1070.56
464.87	1074.31
465.23	1076.41
465.59	1075.01
465.95	1075.24
466.32	1086.01
466.68	1088.82
467.04	1086.48
467.40	1090.46
467.77	1097.01
468.13	1092.33
468.49	1090.69
468.85	1083.90
469.22	1075.71
469.58	1080.39
469.94	1071.73
470.30	1078.05
470.66	1082.26
471.03	1086.71
471.39	1072.67
471.75	1076.18
472.11	1071.26
472.47	1077.58
472.84	1086.94
473.20	1094.43
473.56	1100.75
473.92	1104.97
474.28	1104.73
474.65	1100.29
475.01	1099.12
475.37	1099.82
475.73	1089.52
476.09	1081.09
476.45	1081.09
476.81	1078.28
477.18	1072.43
477.54	1067.99
477.90	1073.37
478.26	1072.20
478.62	1074.31
478.98	1073.14
479.34	1076.41
479.71	1083.20
480.07	1079.22
480.43	1080.39
480.79	1085.54
481.15	1088.12
481.51	1074.31
481.87	1079.46
482.23	1078.99
482.59	1069.86
482.96	1071.97
483.32	1084.60
483.68	1084.37
484.04	1082.73
484.40	1091.16
484.76	1093.50
485.12	1084.60
485.48	1075.71
485.84	1078.75
486.20	1080.16
486.56	1076.88
486.92	1071.73
487.28	1066.82
487.64	1064.71
488.00	1062.37
488.37	1068.22
488.73	1082.97
489.09	1103.09
489.45	1096.31
489.81	1093.26
490.17	1090.46
490.53	1081.09
490.89	1066.35
491.25	1066.82
491.61	1066.58
491.97	1072.20
492.33	1071.26
492.69	1071.50
493.05	1074.31
493.41	1082.26
493.77	1073.37
494.13	1072.90
494.49	1076.41
494.85	1087.41
495.21	1075.94
495.57	1082.50
495.93	1086.01
496.29	1086.71
496.64	1074.31
497.00	1077.11
497.36	1071.73
497.72	1071.26
498.08	1063.54
498.44	1057.22
498.80	1071.50
499.16	1073.14
499.52	1079.22
499.88	1088.35
500.24	1088.35
500.60	1079.69
500.96	1072.20
501.32	1073.14
501.68	1073.84
502.03	1086.01
502.39	1083.67
502.75	1093.26
503.11	1090.46
503.47	1091.16
503.83	1084.37
504.19	1085.77
504.55	1085.07
504.91	1087.65
505.26	1084.84
505.62	1082.50
505.98	1077.82
506.34	1079.46
506.70	1081.80
507.06	1071.97
507.42	1076.41
507.78	1093.97
508.13	1092.33
508.49	1084.84
508.85	1087.88
509.21	1091.63
509.57	1072.20
509.93	1073.37
510.28	1082.50
510.64	1085.07
511.00	1083.20
511.36	1089.75
511.72	1090.92
512.07	1083.90
512.43	1086.48
512.79	1092.33
513.15	1102.86
513.51	1108.71
513.86	1119.71
514.22	1131.88
514.58	1131.41
514.94	1115.03
515.30	1107.07
515.65	1104.97
516.01	1098.18
516.37	1089.05
516.73	1096.07
517.08	1086.71
517.44	1083.90
517.80	1074.07
518.16	1074.77
518.51	1070.09
518.87	1075.01
519.23	1069.62
519.59	1081.09
519.94	1086.01
520.30	1086.48
520.66	1087.65
521.01	1095.14
521.37	1097.71
521.73	1100.75
522.09	1101.92
522.44	1112.22
522.80	1106.61
523.16	1096.78
523.51	1094.67
523.87	1088.82
524.23	1089.75
524.58	1086.94
524.94	1091.63
525.30	1093.73
525.65	1097.71
526.01	1081.33
526.37	1082.50
526.72	1070.56
527.08	1062.84
527.44	1068.22
527.79	1083.67
528.15	1075.24
528.51	1088.82
528.86	1098.88
529.22	1101.22
529.58	1100.75
529.93	1111.99
530.29	1112.69
530.65	1109.18
531.00	1109.88
531.36	1106.61
531.71	1101.92
532.07	1102.63
532.43	1107.31
532.78	1108.01
533.14	1105.67
533.49	1110.82
533.85	1106.61
534.21	1097.71
534.56	1100.05
534.92	1098.41
535.27	1095.14
535.63	1095.37
535.98	1099.58
536.34	1090.92
536.69	1094.20
537.05	1095.84
537.41	1103.56
537.76	1097.24
538.12	1099.35
538.47	1097.95
538.83	1095.60
539.18	1082.03
539.54	1085.54
539.89	1083.20
540.25	1085.07
540.60	1084.37
540.96	1099.12
541.31	1097.24
541.67	1105.90
542.02	1107.54
542.38	1105.67
542.73	1095.37
543.09	1091.39
543.44	1077.82
543.80	1074.77
544.15	1082.97
544.51	1086.01
544.86	1094.20
545.22	1100.99
545.57	1108.24
545.93	1101.22
546.28	1094.20
546.64	1086.94
546.99	1087.18
547.35	1078.28
547.70	1086.71
548.05	1090.69
548.41	1090.46
548.76	1090.22
549.12	1099.12
549.47	1085.54
549.83	1088.12
550.18	1091.39
550.53	1086.01
550.89	1074.07
551.24	1083.90
551.60	1084.84
551.95	1078.75
552.30	1080.16
552.66	1075.01
553.01	1068.45
553.37	1063.54
553.72	1072.67
554.07	1077.58
554.43	1084.37
554.78	1088.12
555.13	1086.94
555.49	1086.48
555.84	1082.97
556.19	1078.52
556.55	1072.20
556.90	1080.39
557.26	1079.22
557.61	1086.24
557.96	1097.48
558.32	1100.29
558.67	1090.46
559.02	1100.75
559.37	1102.16
559.73	1090.46
560.08	1095.84
560.43	1092.33
560.79	1080.86
561.14	1070.80
561.49	1075.24
561.85	1074.07
562.20	1085.07
562.55	1082.03
562.90	1085.31
563.26	1087.88
563.61	1075.94
563.96	1058.39
564.32	1061.20
564.67	1053.48
565.02	1045.28
565.37	1059.09
565.73	1073.84
566.08	1073.14
566.43	1088.58
566.78	1092.56
567.14	1082.97
567.49	1093.03
567.84	1094.67
568.19	1091.39
568.54	1085.54
568.90	1090.92
569.25	1076.88
569.60	1072.43
569.95	1063.07
570.31	1072.67
570.66	1081.80
571.01	1087.41
571.36	1087.41
571.71	1102.16
572.06	1100.05
572.42	1095.37
572.77	1087.18
573.12	1089.29
573.47	1083.67
573.82	1080.63
574.18	1077.35
574.53	1080.39
574.88	1077.82
575.23	1072.43
575.58	1078.05
575.93	1078.75
576.28	1072.90
576.64	1084.37
576.99	1082.50
577.34	1066.82
577.69	1068.92
578.04	1075.94
578.39	1069.86
578.74	1076.88
579.09	1090.46
579.44	1075.94
579.80	1073.14
580.15	1066.58
580.50	1061.20
580.85	1057.22
581.20	1068.22
581.55	1063.54
581.90	1077.82
582.25	1085.31
582.60	1095.14
582.95	1096.07
583.30	1097.24
583.65	1088.35
584.00	1080.39
584.35	1071.03
584.71	1061.90
585.06	1067.05
585.41	1073.37
585.76	1074.31
586.11	1083.90
586.46	1095.84
586.81	1091.63
587.16	1087.41
587.51	1079.92
587.86	1074.54
588.21	1065.18
588.56	1073.84
588.91	1080.63
589.26	1078.75
589.61	1079.92
589.96	1090.22
590.31	1088.58
590.66	1080.39
591.01	1083.43
591.36	1079.69
591.71	1078.75
592.06	1074.31
592.41	1070.56
592.76	1070.80
593.10	1072.90
593.45	1058.39
593.80	1055.82
594.15	1059.09
594.50	1058.86
594.85	1054.41
595.20	1066.35
595.55	1063.77
595.90	1060.96
596.25	1071.03
596.60	1075.94
596.95	1065.65
597.30	1066.82
597.64	1126.27
597.99	1127.20
598.34	1127.67
598.69	1142.18
599.04	1154.35
599.39	1092.80
599.74	1090.22
600.09	1087.18
600.44	1076.41
600.78	1079.69
601.13	1076.88
601.48	1079.46
601.83	1081.33
602.18	1086.01
602.53	1072.90
602.88	1088.58
603.22	1093.73
603.57	1096.54
603.92	1096.07
604.27	1092.80
604.62	1082.97
604.97	1079.46
605.31	1074.31
605.66	1073.84
606.01	1076.88
606.36	1077.82
606.71	1075.01
607.05	1083.43
607.40	1081.33
607.75	1100.75
608.10	1096.78
608.44	1092.56
608.79	1081.56
609.14	1078.52
609.49	1060.73
609.84	1061.90
610.18	1068.92
610.53	1075.01
610.88	1082.73
611.23	1086.48
611.57	1095.37
611.92	1093.03
612.27	1097.24
612.62	1102.16
612.96	1104.03
613.31	1107.54
613.66	1110.12
614.00	1097.71
614.35	1090.92
614.70	1086.24
615.05	1074.07
615.39	1065.65
615.74	1076.18
616.09	1080.16
616.43	1082.26
616.78	1093.73
617.13	1104.97
617.47	1103.80
617.82	1105.90
618.17	1101.22
618.51	1096.31
618.86	1084.14
619.21	1077.58
619.55	1067.75
619.90	1075.71
620.25	1070.33
620.59	1068.92
620.94	1082.26
621.29	1093.97
621.63	1086.48
621.98	1084.37
622.32	1085.07
622.67	1074.77
623.02	1062.14
623.36	1064.71
623.71	1065.41
624.05	1070.09
624.40	1065.41
624.75	1069.62
625.09	1072.43
625.44	1075.71
625.78	1069.86
626.13	1074.54
626.48	1070.80
626.82	1075.71
627.17	1077.82
627.51	1081.80
627.86	1082.73
628.20	1080.86
628.55	1072.67
628.89	1077.58
629.24	1078.52
629.58	1079.46
629.93	1083.90
630.28	1090.92
630.62	1089.05
630.97	1088.82
631.31	1082.73
631.66	1085.77
632.00	1081.33
632.35	1076.18
632.69	1064.94
633.04	1078.28
633.38	1073.60
633.73	1064.24
634.07	1059.09
634.42	1065.88
634.76	1051.37
635.11	1049.03
635.45	1057.22
635.79	1071.03
636.14	1070.33
636.48	1078.75
636.83	1075.24
637.17	1074.07
637.52	1060.26
637.86	1061.67
638.21	1060.96
638.55	1067.99
638.89	1070.56
639.24	1076.18
639.58	1084.37
639.93	1084.60
640.27	1083.90
640.61	1088.12
640.96	1086.24
641.30	1077.35
641.65	1072.90
641.99	1078.75
642.33	1065.41
642.68	1056.99
643.02	1061.90
643.37	1067.52
643.71	1066.58
644.05	1076.41
644.40	1087.88
644.74	1087.88
645.08	1087.65
645.43	1089.05
645.77	1096.78
646.11	1098.88
646.46	1097.01
646.80	1093.97
647.14	1091.63
647.49	1086.94
647.83	1089.99
648.17	1099.58
648.52	1100.99
648.86	1098.18
649.20	1090.92
649.55	1079.22
649.89	1072.20
650.23	1062.84
650.57	1063.07
650.92	1066.58
651.26	1082.03
651.60	1080.39
651.95	1089.29
652.29	1095.84
652.63	1098.41
652.97	1097.95
653.32	1101.92
653.66	1101.69
654.00	1096.78
654.34	1098.88
654.69	1090.22
655.03	1094.43
655.37	1090.92
655.71	1087.18
656.05	1088.12
656.40	1085.31
656.74	1077.11
657.08	1077.35
657.42	1070.33
657.76	1063.77
658.11	1069.86
658.45	1076.88
658.79	1075.24
659.13	1082.26
659.47	1080.86
659.82	1072.90
660.16	1074.77
660.50	1080.39
660.84	1089.99
661.18	1090.69
661.52	1100.75
661.87	1102.16
662.21	1093.97
662.55	1087.65
662.89	1087.88
663.23	1081.33
663.57	1079.46
663.91	1074.54
664.25	1076.65
664.60	1085.77
664.94	1083.20
665.28	1071.97
665.62	1086.94
665.96	1087.41
666.30	1082.26
666.64	1087.88
666.98	1080.86
667.32	1082.97
667.66	1080.39
668.01	1071.50
668.35	1071.73
668.69	1081.80
669.03	1074.77
669.37	1063.54
669.71	1070.80
670.05	1074.54
670.39	1066.11
670.73	1069.86
671.07	1084.60
671.41	1082.26
671.75	1079.22
672.09	1078.52
672.43	1067.28
672.77	1061.43
673.11	1054.41
673.45	1049.50
673.79	1057.45
674.13	1055.82
674.47	1057.22
674.81	1059.33
675.15	1058.62
675.49	1060.26
675.83	1075.01
676.17	1072.20
676.51	1074.31
676.85	1076.18
677.19	1083.20
677.53	1084.37
677.87	1092.33
678.21	1094.20
678.55	1087.88
678.89	1075.24
679.23	1071.50
679.57	1068.69
679.90	1069.62
680.24	1077.35
680.58	1080.86
680.92	1078.05
681.26	1069.86
681.60	1070.09
681.94	1071.73
682.28	1075.48
682.62	1081.33
682.96	1082.50
683.29	1086.48
683.63	1084.37
683.97	1080.39
684.31	1076.41
684.65	1076.88
684.99	1072.43
685.33	1068.69
685.67	1074.77
686.00	1073.37
686.34	1078.28
686.68	1085.77
687.02	1090.69
687.36	1088.12
687.70	1085.31
688.03	1083.43
688.37	1071.50
688.71	1069.39
689.05	1064.48
689.39	1077.11
689.72	1086.71
690.06	1088.12
690.40	1084.60
690.74	1082.73
691.08	1081.80
691.41	1069.86
691.75	1060.73
692.09	1068.45
692.43	1075.94
692.76	1072.67
693.10	1070.56
693.44	1080.39
693.78	1077.58
694.11	1083.90
694.45	1081.80
694.79	1088.58
695.13	1088.35
695.46	1087.18
695.80	1079.22
696.14	1069.86
696.48	1067.05
696.81	1070.09
697.15	1069.86
697.49	1079.22
697.82	1087.18
698.16	1081.80
698.50	1089.05
698.83	1084.37
699.17	1073.60
699.51	1070.80
699.84	1073.37
700.18	1062.37
700.52	1063.77
700.85	1069.62
701.19	1079.46
701.53	1079.92
701.86	1087.65
702.20	1084.37
702.54	1075.24
702.87	1068.92
703.21	1076.18
703.55	1072.67
703.88	1078.05
704.22	1084.14
704.55	1078.28
704.89	1079.46
705.23	1081.56
705.56	1078.99
705.90	1081.56
706.23	1086.94
706.57	1082.26
706.91	1079.69
707.24	1078.28
707.58	1073.84
707.91	1069.86
708.25	1072.43
708.58	1082.03
708.92	1091.39
709.26	1089.75
709.59	1101.69
709.93	1111.52
710.26	1106.84
710.60	1107.31
710.93	1109.65
711.27	1095.84
711.60	1084.84
711.94	1073.14
712.27	1068.45
712.61	1059.09
712.94	1065.41
713.28	1064.01
713.61	1066.35
713.95	1064.94
714.28	1075.48
714.62	1077.82
714.95	1079.46
715.29	1083.20
715.62	1086.48
715.96	1078.52
716.29	1077.82
716.63	1086.48
716.96	1084.37
717.29	1085.07
717.63	1094.43
717.96	1093.50
718.30	1076.41
718.63	1071.03
718.97	1063.54
719.30	1060.26
719.63	1062.14
719.97	1065.18
720.30	1075.24
720.64	1078.75
720.97	1076.88
721.30	1064.01
721.64	1066.58
721.97	1065.88
722.31	1068.69
722.64	1064.01
722.97	1070.33
723.31	1071.50
723.64	1069.86
723.97	1069.62
724.31	1070.09
724.64	1065.88
724.98	1062.84
725.31	1068.69
725.64	1067.75
725.98	1074.31
726.31	1078.52
726.64	1081.80
726.97	1081.80
727.31	1085.07
727.64	1082.26
727.97	1079.22
728.31	1088.58
728.64	1072.90
728.97	1076.65
729.31	1076.88
729.64	1077.35
729.97	1069.86
730.30	1083.43
730.64	1082.73
730.97	1088.12
731.30	1089.29
731.63	1088.35
731.97	1086.71
732.30	1086.48
732.63	1079.92
732.96	1084.84
733.30	1096.07
733.63	1091.63
733.96	1088.35
734.29	1099.35
734.63	1102.16
734.96	1092.56
735.29	1093.97
735.62	1092.33
735.95	1082.26
736.29	1078.52
736.62	1080.86
736.95	1077.35
737.28	1075.94
737.61	1074.31
737.94	1080.63
738.28	1074.31
738.61	1083.20
738.94	1075.48
739.27	1072.20
739.60	1072.43
739.93	1070.80
740.27	1064.94
740.60	1072.20
740.93	1076.18
741.26	1064.48
741.59	1070.56
741.92	1075.48
742.25	1081.56
742.58	1081.33
742.91	1086.94
743.25	1079.69
743.58	1069.62
743.91	1063.07
744.24	1079.92
744.57	1081.33
744.90	1086.94
745.23	1087.65
745.56	1092.09
745.89	1073.37
746.22	1075.71
746.55	1066.35
746.88	1069.16
747.21	1063.77
747.54	1071.03
747.87	1066.82
748.20	1070.33
748.53	1079.92
748.87	1081.56
749.20	1084.84
749.53	1086.01
749.86	1093.73
750.19	1092.80
750.52	1086.48
750.85	1086.71
751.18	1085.77
751.51	1089.05
751.84	1076.41
752.16	1094.90
752.49	1086.24
752.82	1085.54
753.15	1074.31
753.48	1082.73
753.81	1069.86
754.14	1073.84
754.47	1069.86
754.80	1082.03
755.13	1088.35
755.46	1085.07
755.79	1078.28
756.12	1081.56
756.45	1075.94
756.78	1071.26
757.11	1087.88
757.43	1107.07
757.76	1110.82
758.09	1109.41
758.42	1108.01
758.75	1093.97
759.08	1073.37
759.41	1078.99
759.74	1084.84
760.07	1086.71
760.39	1088.12
760.72	1095.60
761.05	1089.05
761.38	1087.65
761.71	1093.73
762.04	1098.18
762.36	1101.69
762.69	1100.99
763.02	1100.99
763.35	1092.80
763.68	1090.69
764.01	1090.22
764.33	1082.50
764.66	1073.14
764.99	1068.22
765.32	1062.14
765.65	1052.30
765.97	1064.71
766.30	1076.65
