SpectraSuite Data File
++++++++++++++++++++++++++++++++++++
Date: Mon Aug 26 10:25:59 PDT 2019
User: corrico
Dark Spectrum Present: No
Reference Spectrum Present: No
Number of Sampled Component Spectra: 1
Spectrometers: USB2+H06089
Integration Time (usec): 10000 (USB2+H06089)
Spectra Averaged: 2 (USB2+H06089)
Boxcar Smoothing: 2 (USB2+H06089)
Correct for Electrical Dark: No (USB2+H06089)
Strobe/Lamp Enabled: No (USB2+H06089)
Correct for Detector Non-linearity: No (USB2+H06089)
Correct for Stray Light: No (USB2+H06089)
Number of Pixels in Processed Spectrum: 2048
>>>>>Begin Processed Spectral Data<<<<<
339.70	1052.07
340.07	1052.07
340.45	1009.71
340.82	990.51
341.19	962.90
341.57	929.43
341.94	923.81
342.31	913.75
342.69	898.53
343.06	899.00
343.43	906.72
343.81	897.13
344.18	911.17
344.55	918.19
344.93	922.64
345.30	921.70
345.67	929.89
346.04	928.96
346.42	935.98
346.79	948.62
347.16	957.51
347.54	957.75
347.91	961.73
348.28	972.73
348.65	976.94
349.03	983.26
349.40	1006.43
349.77	1018.13
350.14	1025.15
350.52	1029.60
350.89	1033.35
351.26	1031.71
351.63	1030.30
352.01	1036.62
352.38	1036.86
352.75	1042.94
353.12	1050.20
353.50	1058.62
353.87	1058.86
354.24	1059.79
354.61	1064.94
354.98	1070.33
355.36	1072.67
355.73	1068.45
356.10	1074.31
356.47	1078.05
356.84	1074.07
357.22	1073.37
357.59	1064.71
357.96	1072.67
358.33	1064.48
358.70	1063.54
359.08	1057.22
359.45	1074.54
359.82	1065.65
360.19	1070.09
360.56	1071.26
360.94	1074.54
361.31	1072.43
361.68	1078.99
362.05	1075.24
362.42	1067.75
362.79	1061.43
363.16	1055.35
363.54	1056.05
363.91	1060.96
364.28	1065.41
364.65	1063.54
365.02	1067.05
365.39	1045.28
365.76	1042.71
366.14	1054.41
366.51	1063.77
366.88	1062.84
367.25	1074.77
367.62	1075.48
367.99	1079.46
368.36	1081.09
368.73	1078.05
369.10	1068.22
369.48	1068.92
369.85	1057.45
370.22	1056.05
370.59	1060.50
370.96	1069.62
371.33	1075.24
371.70	1067.52
372.07	1066.11
372.44	1069.16
372.81	1077.58
373.18	1072.90
373.55	1074.77
373.93	1074.31
374.30	1075.71
374.67	1069.16
375.04	1066.11
375.41	1072.67
375.78	1083.20
376.15	1072.67
376.52	1070.09
376.89	1066.35
377.26	1059.56
377.63	1043.88
378.00	1046.45
378.37	1052.54
378.74	1064.71
379.11	1073.84
379.48	1082.26
379.85	1088.82
380.22	1080.16
380.59	1076.18
380.96	1077.82
381.33	1081.80
381.70	1075.01
382.07	1082.50
382.44	1082.73
382.81	1075.71
383.18	1070.80
383.55	1076.65
383.92	1079.46
384.29	1078.99
384.66	1073.14
385.03	1084.37
385.40	1082.03
385.77	1075.71
386.14	1073.14
386.51	1075.24
386.88	1065.41
387.25	1063.77
387.62	1064.71
387.99	1061.67
388.36	1060.50
388.73	1071.26
389.10	1078.99
389.46	1078.75
389.83	1082.73
390.20	1096.78
390.57	1087.18
390.94	1080.16
391.31	1084.14
391.68	1091.16
392.05	1078.75
392.42	1080.63
392.79	1075.48
393.16	1075.24
393.53	1072.43
393.89	1066.11
394.26	1067.52
394.63	1073.84
395.00	1064.24
395.37	1064.24
395.74	1075.01
396.11	1071.97
396.48	1070.09
396.84	1083.43
397.21	1079.69
397.58	1076.65
397.95	1078.99
398.32	1077.11
398.69	1076.18
399.06	1070.56
399.42	1067.52
399.79	1057.92
400.16	1059.09
400.53	1055.11
400.90	1067.52
401.27	1072.90
401.64	1083.20
402.00	1085.07
402.37	1085.77
402.74	1086.24
403.11	1082.73
403.48	1086.24
403.84	1085.77
404.21	1087.18
404.58	1079.22
404.95	1074.77
405.32	1066.35
405.68	1071.26
406.05	1059.56
406.42	1069.39
406.79	1074.54
407.16	1076.18
407.52	1071.73
407.89	1086.71
408.26	1075.94
408.63	1078.28
408.99	1084.14
409.36	1084.60
409.73	1074.54
410.10	1073.14
410.47	1065.18
410.83	1059.33
411.20	1064.48
411.57	1061.43
411.94	1061.43
412.30	1074.07
412.67	1074.07
413.04	1062.60
413.40	1071.73
413.77	1072.67
414.14	1075.01
414.51	1073.37
414.87	1086.71
415.24	1084.37
415.61	1085.31
415.97	1078.05
416.34	1078.99
416.71	1074.31
417.08	1075.24
417.44	1074.31
417.81	1083.67
418.18	1088.35
418.54	1081.56
418.91	1083.67
419.28	1091.39
419.64	1076.41
420.01	1076.65
420.38	1075.94
420.74	1080.16
421.11	1073.84
421.48	1074.31
421.84	1065.65
422.21	1079.92
422.58	1066.11
422.94	1066.82
423.31	1081.80
423.68	1084.60
424.04	1069.16
424.41	1073.14
424.77	1074.54
425.14	1068.92
425.51	1065.65
425.87	1069.39
426.24	1067.52
426.61	1059.56
426.97	1065.88
427.34	1069.62
427.70	1072.67
428.07	1074.07
428.44	1071.03
428.80	1065.41
429.17	1064.24
429.53	1064.24
429.90	1067.75
430.27	1077.35
430.63	1075.71
431.00	1073.84
431.36	1075.71
431.73	1077.82
432.09	1076.88
432.46	1075.01
432.83	1082.50
433.19	1082.73
433.56	1074.31
433.92	1081.33
434.29	1084.84
434.65	1078.28
435.02	1078.05
435.38	1082.26
435.75	1078.28
436.11	1074.07
436.48	1082.73
436.84	1076.65
437.21	1077.11
437.57	1078.99
437.94	1078.05
438.30	1074.07
438.67	1078.75
439.03	1078.75
439.40	1071.03
439.76	1075.48
440.13	1073.60
440.49	1073.37
440.86	1077.35
441.22	1079.46
441.59	1081.09
441.95	1083.90
442.32	1076.88
442.68	1078.28
443.05	1078.99
443.41	1072.90
443.78	1069.16
444.14	1068.22
444.51	1063.07
444.87	1065.65
445.24	1070.09
445.60	1077.35
445.96	1083.67
446.33	1092.56
446.69	1096.07
447.06	1093.50
447.42	1092.56
447.79	1095.14
448.15	1090.46
448.51	1086.71
448.88	1079.69
449.24	1073.37
449.61	1074.54
449.97	1066.58
450.33	1064.24
450.70	1070.56
451.06	1073.60
451.43	1078.99
451.79	1085.77
452.15	1090.22
452.52	1093.50
452.88	1082.97
453.24	1080.63
453.61	1081.80
453.97	1080.63
454.34	1078.52
454.70	1090.46
455.06	1084.84
455.43	1082.26
455.79	1082.50
456.15	1084.60
456.52	1086.01
456.88	1085.31
457.24	1075.71
457.61	1063.07
457.97	1056.75
458.33	1049.26
458.70	1053.94
459.06	1066.35
459.42	1087.65
459.79	1098.88
460.15	1103.56
460.51	1093.26
460.88	1099.58
461.24	1087.18
461.60	1081.33
461.96	1086.48
462.33	1089.29
462.69	1078.52
463.05	1081.33
463.42	1082.26
463.78	1071.26
464.14	1072.43
464.50	1078.75
464.87	1076.88
465.23	1071.97
465.59	1073.14
465.95	1078.52
466.32	1079.46
466.68	1073.60
467.04	1076.18
467.40	1076.65
467.77	1076.65
468.13	1078.75
468.49	1085.54
468.85	1091.39
469.22	1087.18
469.58	1086.01
469.94	1075.94
470.30	1074.77
470.66	1063.54
471.03	1074.07
471.39	1072.20
471.75	1069.39
472.11	1074.07
472.47	1080.86
472.84	1081.33
473.20	1079.46
473.56	1084.60
473.92	1081.80
474.28	1080.39
474.65	1072.67
475.01	1077.11
475.37	1071.03
475.73	1072.67
476.09	1080.16
476.45	1088.82
476.81	1088.12
477.18	1099.58
477.54	1094.20
477.90	1089.52
478.26	1081.56
478.62	1083.90
478.98	1077.58
479.34	1078.05
479.71	1075.01
480.07	1073.14
480.43	1059.79
480.79	1060.26
481.15	1063.07
481.51	1058.62
481.87	1060.50
482.23	1075.24
482.59	1078.28
482.96	1083.90
483.32	1089.75
483.68	1089.29
484.04	1080.86
484.40	1080.16
484.76	1087.41
485.12	1079.69
485.48	1083.43
485.84	1089.75
486.20	1087.18
486.56	1075.48
486.92	1089.29
487.28	1092.33
487.64	1091.63
488.00	1107.54
488.37	1110.35
488.73	1097.24
489.09	1088.82
489.45	1080.39
489.81	1074.54
490.17	1065.18
490.53	1066.58
490.89	1068.69
491.25	1068.22
491.61	1063.07
491.97	1078.99
492.33	1083.90
492.69	1092.56
493.05	1092.33
493.41	1086.94
493.77	1071.26
494.13	1064.71
494.49	1061.67
494.85	1070.56
495.21	1076.88
495.57	1079.69
495.93	1097.48
496.29	1091.86
496.64	1092.56
497.00	1089.75
497.36	1085.07
497.72	1069.16
498.08	1073.60
498.44	1072.90
498.80	1076.18
499.16	1084.60
499.52	1085.77
499.88	1085.31
500.24	1089.99
500.60	1087.88
500.96	1087.41
501.32	1090.22
501.68	1088.35
502.03	1080.39
502.39	1078.52
502.75	1084.37
503.11	1078.52
503.47	1088.12
503.83	1090.69
504.19	1091.16
504.55	1083.20
504.91	1092.80
505.26	1087.65
505.62	1095.37
505.98	1099.35
506.34	1094.67
506.70	1094.43
507.06	1088.58
507.42	1085.31
507.78	1083.43
508.13	1093.73
508.49	1094.67
508.85	1098.65
509.21	1089.75
509.57	1081.80
509.93	1074.31
510.28	1064.94
510.64	1059.56
511.00	1060.96
511.36	1078.99
511.72	1094.90
512.07	1108.01
512.43	1113.39
512.79	1115.50
513.15	1111.29
513.51	1103.80
513.86	1094.90
514.22	1094.90
514.58	1095.14
514.94	1085.77
515.30	1083.67
515.65	1084.84
516.01	1086.94
516.37	1079.92
516.73	1085.77
517.08	1082.26
517.44	1093.26
517.80	1100.99
518.16	1107.54
518.51	1105.67
518.87	1108.24
519.23	1098.65
519.59	1096.07
519.94	1112.46
520.30	1111.29
520.66	1113.16
521.01	1116.20
521.37	1113.16
521.73	1103.56
522.09	1102.16
522.44	1100.29
522.80	1102.63
523.16	1094.67
523.51	1089.75
523.87	1090.22
524.23	1086.48
524.58	1077.35
524.94	1075.94
525.30	1078.28
525.65	1081.33
526.01	1087.41
526.37	1095.37
526.72	1104.03
527.08	1107.78
527.44	1106.14
527.79	1094.20
528.15	1090.46
528.51	1089.75
528.86	1087.18
529.22	1090.22
529.58	1102.86
529.93	1104.73
530.29	1101.46
530.65	1093.26
531.00	1093.73
531.36	1104.73
531.71	1100.05
532.07	1107.07
532.43	1115.73
532.78	1104.50
533.14	1089.52
533.49	1095.14
533.85	1098.41
534.21	1088.58
534.56	1086.94
534.92	1088.58
535.27	1093.03
535.63	1086.71
535.98	1094.90
536.34	1105.20
536.69	1108.48
537.05	1107.78
537.41	1106.84
537.76	1104.97
538.12	1104.26
538.47	1094.67
538.83	1095.37
539.18	1095.37
539.54	1092.56
539.89	1095.14
540.25	1100.05
540.60	1090.22
540.96	1094.20
541.31	1096.78
541.67	1090.92
542.02	1095.14
542.38	1100.75
542.73	1096.07
543.09	1090.46
543.44	1093.03
543.80	1092.56
544.15	1094.43
544.51	1099.12
544.86	1100.99
545.22	1090.92
545.57	1079.69
545.93	1073.37
546.28	1061.20
546.64	1059.79
546.99	1058.62
547.35	1057.22
547.70	1063.07
548.05	1066.58
548.41	1068.22
548.76	1075.24
549.12	1080.63
549.47	1074.77
549.83	1080.86
550.18	1086.94
550.53	1087.65
550.89	1087.41
551.24	1087.88
551.60	1084.60
551.95	1087.65
552.30	1094.67
552.66	1107.54
553.01	1118.31
553.37	1117.61
553.72	1107.78
554.07	1101.69
554.43	1096.54
554.78	1093.73
555.13	1088.58
555.49	1090.69
555.84	1100.05
556.19	1092.56
556.55	1081.56
556.90	1087.88
557.26	1086.71
557.61	1076.88
557.96	1075.94
558.32	1075.94
558.67	1080.86
559.02	1081.56
559.37	1085.07
559.73	1092.33
560.08	1103.09
560.43	1099.12
560.79	1109.18
561.14	1102.63
561.49	1094.43
561.85	1074.54
562.20	1078.28
562.55	1063.54
562.90	1066.82
563.26	1064.71
563.61	1076.88
563.96	1075.48
564.32	1080.63
564.67	1082.26
565.02	1084.37
565.37	1082.73
565.73	1079.69
566.08	1085.54
566.43	1084.84
566.78	1089.05
567.14	1094.20
567.49	1097.48
567.84	1100.52
568.19	1099.82
568.54	1104.03
568.90	1105.90
569.25	1100.29
569.60	1094.90
569.95	1088.35
570.31	1076.41
570.66	1086.01
571.01	1079.22
571.36	1074.07
571.71	1083.20
572.06	1093.03
572.42	1078.75
572.77	1082.73
573.12	1080.16
573.47	1078.99
573.82	1078.28
574.18	1086.94
574.53	1085.31
574.88	1081.09
575.23	1074.31
575.58	1075.01
575.93	1061.90
576.28	1059.79
576.64	1061.43
576.99	1075.48
577.34	1069.62
577.69	1062.14
578.04	1068.22
578.39	1085.54
578.74	1067.05
579.09	1064.94
579.44	1078.52
579.80	1075.24
580.15	1077.11
580.50	1078.99
580.85	1093.73
581.20	1085.54
581.55	1086.24
581.90	1075.01
582.25	1089.05
582.60	1075.71
582.95	1082.03
583.30	1087.88
583.65	1081.09
584.00	1076.65
584.35	1078.28
584.71	1079.92
585.06	1072.90
585.41	1076.65
585.76	1071.50
586.11	1077.82
586.46	1074.77
586.81	1079.69
587.16	1088.12
587.51	1091.16
587.86	1096.78
588.21	1094.20
588.56	1089.99
588.91	1082.03
589.26	1072.67
589.61	1076.41
589.96	1075.71
590.31	1075.71
590.66	1077.11
591.01	1089.99
591.36	1080.39
591.71	1080.16
592.06	1086.48
592.41	1090.46
592.76	1084.60
593.10	1089.75
593.45	1093.50
593.80	1093.73
594.15	1087.88
594.50	1083.20
594.85	1082.97
595.20	1087.65
595.55	1092.09
595.90	1098.18
596.25	1104.03
596.60	1098.41
596.95	1094.43
597.30	1088.35
597.64	1139.84
597.99	1134.46
598.34	1130.95
598.69	1128.14
599.04	1122.52
599.39	1072.90
599.74	1072.20
600.09	1075.94
600.44	1078.28
600.78	1090.69
601.13	1077.82
601.48	1081.80
601.83	1085.77
602.18	1091.16
602.53	1070.33
602.88	1073.37
603.22	1077.35
603.57	1071.50
603.92	1070.33
604.27	1082.97
604.62	1084.84
604.97	1079.92
605.31	1077.35
605.66	1070.09
606.01	1076.88
606.36	1080.63
606.71	1084.60
607.05	1082.50
607.40	1090.46
607.75	1083.90
608.10	1082.50
608.44	1087.18
608.79	1090.22
609.14	1085.77
609.49	1090.92
609.84	1085.77
610.18	1076.65
610.53	1080.16
610.88	1080.39
611.23	1081.33
611.57	1089.05
611.92	1104.50
612.27	1101.69
612.62	1089.05
612.96	1070.09
613.31	1071.73
613.66	1057.45
614.00	1063.07
614.35	1078.28
614.70	1089.52
615.05	1085.54
615.39	1089.99
615.74	1077.82
616.09	1080.39
616.43	1077.11
616.78	1082.50
617.13	1073.84
617.47	1074.31
617.82	1069.39
618.17	1078.52
618.51	1068.45
618.86	1083.67
619.21	1096.54
619.55	1102.39
619.90	1095.84
620.25	1103.56
620.59	1101.22
620.94	1095.60
621.29	1088.35
621.63	1091.86
621.98	1085.31
622.32	1081.80
622.67	1088.12
623.02	1086.48
623.36	1084.84
623.71	1089.99
624.05	1096.54
624.40	1091.16
624.75	1092.80
625.09	1095.60
625.44	1090.69
625.78	1084.14
626.13	1088.58
626.48	1081.80
626.82	1083.20
627.17	1090.46
627.51	1088.35
627.86	1075.94
628.20	1093.26
628.55	1082.03
628.89	1082.03
629.24	1079.92
629.58	1088.35
629.93	1074.54
630.28	1080.16
630.62	1082.50
630.97	1089.29
631.31	1091.16
631.66	1097.48
632.00	1105.67
632.35	1104.50
632.69	1100.05
633.04	1089.29
633.38	1093.50
633.73	1089.05
634.07	1087.65
634.42	1096.31
634.76	1099.12
635.11	1093.73
635.45	1079.92
635.79	1077.82
636.14	1072.20
636.48	1078.99
636.83	1085.31
637.17	1093.97
637.52	1099.35
637.86	1091.16
638.21	1084.84
638.55	1078.28
638.89	1075.71
639.24	1073.14
639.58	1074.54
639.93	1078.28
640.27	1077.35
640.61	1085.31
640.96	1084.14
641.30	1095.60
641.65	1103.56
641.99	1100.52
642.33	1097.48
642.68	1091.39
643.02	1093.50
643.37	1083.43
643.71	1080.39
644.05	1067.05
644.40	1067.28
644.74	1057.69
645.08	1059.79
645.43	1062.37
645.77	1072.67
646.11	1077.35
646.46	1071.50
646.80	1069.62
647.14	1073.14
647.49	1074.07
647.83	1075.94
648.17	1087.18
648.52	1088.12
648.86	1087.41
649.20	1091.39
649.55	1084.37
649.89	1079.46
650.23	1081.56
650.57	1073.37
650.92	1071.50
651.26	1076.41
651.60	1071.26
651.95	1070.09
652.29	1086.48
652.63	1085.77
652.97	1088.58
653.32	1090.69
653.66	1087.88
654.00	1077.11
654.34	1077.11
654.69	1072.43
655.03	1083.20
655.37	1085.77
655.71	1086.94
656.05	1089.99
656.40	1093.26
656.74	1092.56
657.08	1093.03
657.42	1103.09
657.76	1100.99
658.11	1095.37
658.45	1084.84
658.79	1089.99
659.13	1087.65
659.47	1083.20
659.82	1079.69
660.16	1082.26
660.50	1077.58
660.84	1070.09
661.18	1087.88
661.52	1104.97
661.87	1104.97
662.21	1106.37
662.55	1106.84
662.89	1096.31
663.23	1077.11
663.57	1076.88
663.91	1074.31
664.25	1083.20
664.60	1079.92
664.94	1087.41
665.28	1096.78
665.62	1097.95
665.96	1088.12
666.30	1091.39
666.64	1090.46
666.98	1079.92
667.32	1079.46
667.66	1079.69
668.01	1080.63
668.35	1078.75
668.69	1077.11
669.03	1078.52
669.37	1074.31
669.71	1073.14
670.05	1078.28
670.39	1078.52
670.73	1072.90
671.07	1082.03
671.41	1074.31
671.75	1076.88
672.09	1077.58
672.43	1079.22
672.77	1069.62
673.11	1075.94
673.45	1077.58
673.79	1076.88
674.13	1084.14
674.47	1090.22
674.81	1082.26
675.15	1072.67
675.49	1070.09
675.83	1067.28
676.17	1067.28
676.51	1073.60
676.85	1077.58
677.19	1088.35
677.53	1087.65
677.87	1091.63
678.21	1090.92
678.55	1090.46
678.89	1087.18
679.23	1086.48
679.57	1087.18
679.90	1095.37
680.24	1096.54
680.58	1089.05
680.92	1096.78
681.26	1092.80
681.60	1082.73
681.94	1081.80
682.28	1077.35
682.62	1073.37
682.96	1070.33
683.29	1074.07
683.63	1072.20
683.97	1082.50
684.31	1074.54
684.65	1081.80
684.99	1076.65
685.33	1078.28
685.67	1078.05
686.00	1081.56
686.34	1077.35
686.68	1078.05
687.02	1079.69
687.36	1073.84
687.70	1077.58
688.03	1096.78
688.37	1113.63
688.71	1112.92
689.05	1122.99
689.39	1116.67
689.72	1098.41
690.06	1087.65
690.40	1081.80
690.74	1070.33
691.08	1076.88
691.41	1067.99
691.75	1066.35
692.09	1073.60
692.43	1082.50
692.76	1071.73
693.10	1076.65
693.44	1075.71
693.78	1068.92
694.11	1060.96
694.45	1071.73
694.79	1073.60
695.13	1081.09
695.46	1082.50
695.80	1086.01
696.14	1082.97
696.48	1079.92
696.81	1067.99
697.15	1070.09
697.49	1072.90
697.82	1069.86
698.16	1076.65
698.50	1080.63
698.83	1087.88
699.17	1088.35
699.51	1092.09
699.84	1090.69
700.18	1091.63
700.52	1075.71
700.85	1077.58
701.19	1078.05
701.53	1072.90
701.86	1079.22
702.20	1086.48
702.54	1084.14
702.87	1084.14
703.21	1082.73
703.55	1076.65
703.88	1080.39
704.22	1075.48
704.55	1068.92
704.89	1079.22
705.23	1077.35
705.56	1072.90
705.90	1087.88
706.23	1089.05
706.57	1080.63
706.91	1091.39
707.24	1086.71
707.58	1077.35
707.91	1079.92
708.25	1086.48
708.58	1075.48
708.92	1089.29
709.26	1090.22
709.59	1093.97
709.93	1096.78
710.26	1104.73
710.60	1092.80
710.93	1086.94
711.27	1081.09
711.60	1080.16
711.94	1080.86
712.27	1080.63
712.61	1084.60
712.94	1081.33
713.28	1072.43
713.61	1065.88
713.95	1071.03
714.28	1072.43
714.62	1078.99
714.95	1085.07
715.29	1080.86
715.62	1081.09
715.96	1082.50
716.29	1085.77
716.63	1084.37
716.96	1082.97
717.29	1082.73
717.63	1081.56
717.96	1072.90
718.30	1071.03
718.63	1082.26
718.97	1086.94
719.30	1087.41
719.63	1097.48
719.97	1094.43
720.30	1095.84
720.64	1091.86
720.97	1092.09
721.30	1074.31
721.64	1077.58
721.97	1066.11
722.31	1062.60
722.64	1061.90
722.97	1079.22
723.31	1083.90
723.64	1084.60
723.97	1086.24
724.31	1084.60
724.64	1091.39
724.98	1082.03
725.31	1073.84
725.64	1063.77
725.98	1066.35
726.31	1055.82
726.64	1054.88
726.97	1067.05
727.31	1080.16
727.64	1083.67
727.97	1083.67
728.31	1091.86
728.64	1088.35
728.97	1085.07
729.31	1080.39
729.64	1080.86
729.97	1084.60
730.30	1080.16
730.64	1076.41
730.97	1082.97
731.30	1076.41
731.63	1065.41
731.97	1078.28
732.30	1079.69
732.63	1073.37
732.96	1070.56
733.30	1071.50
733.63	1064.24
733.96	1064.48
734.29	1063.07
734.63	1072.43
734.96	1077.82
735.29	1070.09
735.62	1078.75
735.95	1075.24
736.29	1078.05
736.62	1071.50
736.95	1074.07
737.28	1065.65
737.61	1068.22
737.94	1063.31
738.28	1070.56
738.61	1074.31
738.94	1079.92
739.27	1079.69
739.60	1083.43
739.93	1079.46
740.27	1080.86
740.60	1075.71
740.93	1080.16
741.26	1074.54
741.59	1079.92
741.92	1085.07
742.25	1093.03
742.58	1088.35
742.91	1092.09
743.25	1087.18
743.58	1078.28
743.91	1075.71
744.24	1075.71
744.57	1070.80
744.90	1075.48
745.23	1071.73
745.56	1066.35
745.89	1063.07
746.22	1068.92
746.55	1073.14
746.88	1086.01
747.21	1080.86
747.54	1088.12
747.87	1084.14
748.20	1076.18
748.53	1071.97
748.87	1072.20
749.20	1068.45
749.53	1069.16
749.86	1076.18
750.19	1075.24
750.52	1084.37
750.85	1092.33
751.18	1086.71
751.51	1081.56
751.84	1095.14
752.16	1098.41
752.49	1090.69
752.82	1093.26
753.15	1091.86
753.48	1086.48
753.81	1093.26
754.14	1096.07
754.47	1092.33
754.80	1096.31
755.13	1087.41
755.46	1090.69
755.79	1090.46
756.12	1099.58
756.45	1105.44
756.78	1116.20
757.11	1095.60
757.43	1098.65
757.76	1096.54
758.09	1082.97
758.42	1077.82
758.75	1085.54
759.08	1087.88
759.41	1093.50
759.74	1098.41
760.07	1095.84
760.39	1096.07
760.72	1086.48
761.05	1081.56
761.38	1092.09
761.71	1088.82
762.04	1089.05
762.36	1087.88
762.69	1087.88
763.02	1080.16
763.35	1085.77
763.68	1085.77
764.01	1092.33
764.33	1099.35
764.66	1101.92
764.99	1094.67
765.32	1082.50
765.65	1079.22
765.97	1073.37
766.30	1065.88
