SpectraSuite Data File
++++++++++++++++++++++++++++++++++++
Date: Mon Aug 26 10:25:57 PDT 2019
User: corrico
Dark Spectrum Present: No
Reference Spectrum Present: No
Number of Sampled Component Spectra: 1
Spectrometers: USB2+H06089
Integration Time (usec): 10000 (USB2+H06089)
Spectra Averaged: 2 (USB2+H06089)
Boxcar Smoothing: 2 (USB2+H06089)
Correct for Electrical Dark: No (USB2+H06089)
Strobe/Lamp Enabled: No (USB2+H06089)
Correct for Detector Non-linearity: No (USB2+H06089)
Correct for Stray Light: No (USB2+H06089)
Number of Pixels in Processed Spectrum: 2048
>>>>>Begin Processed Spectral Data<<<<<
339.70	1062.60
340.07	1062.60
340.45	1034.98
340.82	1011.81
341.19	977.41
341.57	940.66
341.94	918.43
342.31	891.04
342.69	880.74
343.06	882.15
343.43	891.28
343.81	890.57
344.18	908.36
344.55	910.00
344.93	907.66
345.30	903.45
345.67	917.96
346.04	916.79
346.42	928.26
346.79	953.30
347.16	968.28
347.54	980.68
347.91	989.58
348.28	1000.58
348.65	1003.86
349.03	1007.83
349.40	1006.66
349.77	1009.71
350.14	1017.66
350.52	1017.20
350.89	1033.81
351.26	1046.22
351.63	1070.09
352.01	1078.05
352.38	1079.69
352.75	1078.99
353.12	1074.77
353.50	1067.99
353.87	1068.45
354.24	1074.77
354.61	1067.75
354.98	1075.48
355.36	1072.43
355.73	1063.77
356.10	1068.22
356.47	1075.24
356.84	1076.41
357.22	1069.16
357.59	1072.90
357.96	1063.31
358.33	1061.90
358.70	1056.05
359.08	1067.28
359.45	1067.05
359.82	1072.67
360.19	1074.31
360.56	1065.65
360.94	1059.56
361.31	1056.52
361.68	1053.71
362.05	1052.54
362.42	1070.33
362.79	1071.26
363.16	1075.94
363.54	1076.65
363.91	1067.52
364.28	1061.43
364.65	1065.41
365.02	1066.82
365.39	1072.20
365.76	1078.52
366.14	1073.37
366.51	1078.52
366.88	1078.28
367.25	1078.75
367.62	1073.84
367.99	1066.58
368.36	1057.22
368.73	1051.37
369.10	1042.24
369.48	1053.01
369.85	1066.58
370.22	1074.54
370.59	1070.80
370.96	1081.09
371.33	1073.84
371.70	1064.71
372.07	1056.28
372.44	1067.99
372.81	1059.09
373.18	1057.22
373.55	1062.14
373.93	1073.60
374.30	1065.88
374.67	1075.01
375.04	1080.63
375.41	1091.63
375.78	1078.28
376.15	1085.54
376.52	1085.54
376.89	1076.41
377.26	1066.35
377.63	1062.37
378.00	1053.01
378.37	1052.77
378.74	1065.41
379.11	1061.67
379.48	1074.07
379.85	1088.35
380.22	1088.82
380.59	1084.14
380.96	1086.94
381.33	1075.71
381.70	1069.16
382.07	1064.24
382.44	1074.54
382.81	1076.88
383.18	1084.84
383.55	1090.22
383.92	1089.75
384.29	1084.84
384.66	1086.71
385.03	1086.94
385.40	1087.41
385.77	1086.24
386.14	1079.22
386.51	1080.39
386.88	1078.75
387.25	1074.77
387.62	1077.35
387.99	1084.60
388.36	1078.99
388.73	1076.88
389.10	1072.90
389.46	1078.99
389.83	1072.90
390.20	1071.73
390.57	1069.39
390.94	1066.35
391.31	1061.90
391.68	1064.48
392.05	1075.71
392.42	1064.24
392.79	1059.33
393.16	1059.79
393.53	1057.22
393.89	1056.52
394.26	1073.14
394.63	1079.69
395.00	1073.14
395.37	1079.69
395.74	1072.20
396.11	1066.82
396.48	1059.33
396.84	1064.01
397.21	1067.05
397.58	1064.01
397.95	1068.22
398.32	1083.90
398.69	1088.12
399.06	1082.73
399.42	1089.05
399.79	1087.41
400.16	1075.01
400.53	1078.28
400.90	1072.20
401.27	1067.99
401.64	1072.67
402.00	1073.37
402.37	1062.37
402.74	1067.52
403.11	1073.84
403.48	1064.01
403.84	1072.90
404.21	1076.65
404.58	1070.09
404.95	1055.82
405.32	1071.73
405.68	1075.01
406.05	1066.35
406.42	1071.03
406.79	1076.65
407.16	1064.48
407.52	1055.82
407.89	1063.31
408.26	1055.58
408.63	1056.99
408.99	1056.52
409.36	1060.50
409.73	1053.01
410.10	1063.54
410.47	1065.88
410.83	1072.43
411.20	1075.48
411.57	1084.14
411.94	1085.54
412.30	1090.92
412.67	1095.60
413.04	1089.75
413.40	1085.31
413.77	1080.63
414.14	1069.39
414.51	1058.39
414.87	1056.05
415.24	1064.01
415.61	1065.88
415.97	1071.03
416.34	1080.86
416.71	1078.52
417.08	1072.90
417.44	1081.80
417.81	1079.69
418.18	1078.05
418.54	1087.65
418.91	1096.54
419.28	1089.05
419.64	1098.41
420.01	1084.84
420.38	1084.60
420.74	1080.63
421.11	1074.07
421.48	1070.09
421.84	1082.97
422.21	1076.41
422.58	1070.80
422.94	1077.35
423.31	1077.58
423.68	1072.90
424.04	1073.37
424.41	1071.97
424.77	1063.07
425.14	1061.90
425.51	1072.67
425.87	1067.99
426.24	1066.58
426.61	1072.43
426.97	1071.03
427.34	1056.75
427.70	1060.03
428.07	1071.03
428.44	1071.73
428.80	1071.73
429.17	1077.58
429.53	1081.80
429.90	1070.09
430.27	1067.75
430.63	1069.62
431.00	1076.88
431.36	1078.05
431.73	1083.90
432.09	1089.52
432.46	1083.20
432.83	1072.67
433.19	1073.14
433.56	1067.28
433.92	1064.01
434.29	1064.48
434.65	1073.60
435.02	1072.90
435.38	1071.03
435.75	1073.14
436.11	1079.22
436.48	1072.67
436.84	1075.24
437.21	1083.90
437.57	1074.07
437.94	1073.84
438.30	1074.54
438.67	1069.16
439.03	1072.20
439.40	1079.92
439.76	1074.31
440.13	1077.35
440.49	1075.01
440.86	1069.86
441.22	1070.56
441.59	1075.01
441.95	1073.60
442.32	1085.54
442.68	1083.90
443.05	1086.94
443.41	1082.97
443.78	1082.50
444.14	1075.94
444.51	1077.35
444.87	1077.82
445.24	1081.56
445.60	1077.58
445.96	1074.07
446.33	1079.22
446.69	1078.99
447.06	1080.16
447.42	1073.37
447.79	1072.43
448.15	1069.62
448.51	1069.86
448.88	1063.54
449.24	1071.73
449.61	1072.67
449.97	1067.52
450.33	1056.75
450.70	1055.35
451.06	1055.82
451.43	1051.60
451.79	1059.79
452.15	1068.69
452.52	1081.33
452.88	1083.90
453.24	1091.63
453.61	1082.97
453.97	1079.92
454.34	1075.48
454.70	1082.03
455.06	1073.14
455.43	1077.58
455.79	1083.90
456.15	1087.88
456.52	1083.43
456.88	1091.63
457.24	1099.35
457.61	1098.65
457.97	1091.16
458.33	1084.37
458.70	1082.26
459.06	1074.54
459.42	1072.43
459.79	1074.07
460.15	1071.97
460.51	1067.05
460.88	1072.20
461.24	1064.24
461.60	1060.96
461.96	1069.39
462.33	1086.94
462.69	1086.48
463.05	1084.60
463.42	1083.43
463.78	1081.80
464.14	1071.73
464.50	1071.97
464.87	1083.67
465.23	1088.35
465.59	1084.14
465.95	1089.29
466.32	1079.69
466.68	1080.63
467.04	1093.26
467.40	1101.22
467.77	1104.03
468.13	1113.16
468.49	1107.54
468.85	1097.95
469.22	1097.71
469.58	1095.84
469.94	1091.86
470.30	1100.52
470.66	1092.80
471.03	1092.56
471.39	1093.03
471.75	1090.92
472.11	1079.69
472.47	1085.77
472.84	1076.65
473.20	1074.31
473.56	1074.07
473.92	1077.58
474.28	1083.67
474.65	1086.01
475.01	1083.43
475.37	1082.97
475.73	1090.69
476.09	1088.82
476.45	1088.12
476.81	1082.26
477.18	1084.60
477.54	1079.22
477.90	1078.75
478.26	1078.99
478.62	1085.31
478.98	1088.58
479.34	1098.88
479.71	1102.39
480.07	1108.48
480.43	1110.12
480.79	1110.58
481.15	1100.05
481.51	1100.52
481.87	1098.88
482.23	1097.71
482.59	1095.84
482.96	1087.65
483.32	1073.14
483.68	1074.31
484.04	1067.05
484.40	1067.52
484.76	1076.65
485.12	1081.80
485.48	1075.48
485.84	1075.71
486.20	1071.26
486.56	1065.18
486.92	1062.60
487.28	1059.09
487.64	1053.24
488.00	1058.62
488.37	1060.26
488.73	1063.31
489.09	1076.18
489.45	1084.37
489.81	1079.92
490.17	1080.86
490.53	1086.24
490.89	1078.75
491.25	1080.39
491.61	1091.16
491.97	1092.33
492.33	1088.82
492.69	1089.05
493.05	1085.77
493.41	1068.92
493.77	1075.48
494.13	1072.43
494.49	1073.60
494.85	1073.14
495.21	1086.01
495.57	1072.67
495.93	1071.73
496.29	1074.77
496.64	1083.20
497.00	1071.97
497.36	1084.37
497.72	1086.71
498.08	1087.41
498.44	1084.84
498.80	1093.73
499.16	1081.56
499.52	1072.67
499.88	1074.77
500.24	1073.14
500.60	1071.26
500.96	1080.86
501.32	1098.18
501.68	1090.46
502.03	1082.50
502.39	1076.41
502.75	1076.41
503.11	1062.14
503.47	1069.39
503.83	1084.60
504.19	1094.90
504.55	1091.39
504.91	1095.84
505.26	1088.82
505.62	1084.60
505.98	1082.26
506.34	1076.18
506.70	1077.58
507.06	1076.41
507.42	1076.65
507.78	1081.33
508.13	1080.16
508.49	1085.31
508.85	1094.90
509.21	1084.14
509.57	1080.86
509.93	1088.58
510.28	1081.80
510.64	1072.43
511.00	1070.56
511.36	1073.60
511.72	1070.80
512.07	1064.48
512.43	1075.71
512.79	1081.56
513.15	1080.63
513.51	1089.29
513.86	1104.26
514.22	1093.03
514.58	1103.33
514.94	1099.58
515.30	1093.03
515.65	1084.84
516.01	1093.97
516.37	1086.48
516.73	1093.97
517.08	1087.88
517.44	1081.56
517.80	1086.01
518.16	1091.86
518.51	1084.14
518.87	1093.03
519.23	1100.52
519.59	1101.69
519.94	1096.07
520.30	1096.07
520.66	1093.97
521.01	1097.48
521.37	1083.43
521.73	1092.80
522.09	1094.67
522.44	1098.88
522.80	1100.75
523.16	1107.31
523.51	1112.92
523.87	1114.80
524.23	1117.37
524.58	1112.69
524.94	1109.65
525.30	1095.84
525.65	1097.01
526.01	1089.05
526.37	1086.71
526.72	1093.26
527.08	1094.67
527.44	1092.80
527.79	1096.78
528.15	1097.48
528.51	1088.82
528.86	1093.26
529.22	1096.07
529.58	1097.24
529.93	1099.58
530.29	1097.24
530.65	1089.29
531.00	1086.48
531.36	1088.12
531.71	1094.90
532.07	1099.82
532.43	1099.35
532.78	1106.14
533.14	1102.39
533.49	1093.73
533.85	1100.29
534.21	1102.16
534.56	1087.18
534.92	1078.05
535.27	1084.84
535.63	1073.60
535.98	1073.60
536.34	1078.28
536.69	1091.16
537.05	1092.33
537.41	1088.58
537.76	1086.24
538.12	1085.07
538.47	1075.48
538.83	1067.99
539.18	1073.14
539.54	1077.35
539.89	1083.90
540.25	1090.46
540.60	1093.03
540.96	1098.88
541.31	1100.05
541.67	1103.33
542.02	1105.67
542.38	1112.46
542.73	1110.12
543.09	1111.29
543.44	1104.50
543.80	1097.71
544.15	1084.60
544.51	1089.29
544.86	1084.60
545.22	1085.31
545.57	1082.26
545.93	1087.18
546.28	1080.39
546.64	1076.41
546.99	1082.03
547.35	1089.05
547.70	1096.78
548.05	1094.20
548.41	1091.63
548.76	1085.31
549.12	1083.43
549.47	1079.69
549.83	1088.58
550.18	1101.22
550.53	1092.09
550.89	1098.88
551.24	1089.99
551.60	1083.43
551.95	1075.71
552.30	1083.43
552.66	1073.14
553.01	1072.20
553.37	1082.97
553.72	1079.46
554.07	1072.43
554.43	1075.48
554.78	1077.58
555.13	1065.65
555.49	1071.26
555.84	1074.54
556.19	1081.56
556.55	1090.46
556.90	1099.12
557.26	1102.63
557.61	1102.63
557.96	1091.63
558.32	1091.39
558.67	1084.14
559.02	1079.22
559.37	1085.31
559.73	1096.78
560.08	1093.26
560.43	1098.41
560.79	1090.46
561.14	1088.12
561.49	1085.07
561.85	1081.80
562.20	1082.26
562.55	1086.71
562.90	1074.31
563.26	1068.45
563.61	1080.16
563.96	1081.09
564.32	1090.69
564.67	1099.12
565.02	1105.90
565.37	1093.26
565.73	1087.41
566.08	1088.35
566.43	1088.82
566.78	1089.52
567.14	1089.75
567.49	1092.56
567.84	1083.90
568.19	1081.56
568.54	1072.90
568.90	1068.45
569.25	1061.90
569.60	1072.43
569.95	1082.73
570.31	1082.50
570.66	1085.31
571.01	1095.37
571.36	1083.20
571.71	1081.33
572.06	1082.03
572.42	1079.46
572.77	1073.14
573.12	1082.50
573.47	1076.18
573.82	1077.58
574.18	1084.14
574.53	1086.01
574.88	1087.88
575.23	1093.26
575.58	1095.60
575.93	1095.14
576.28	1092.09
576.64	1093.26
576.99	1083.20
577.34	1085.54
577.69	1084.84
578.04	1091.39
578.39	1085.54
578.74	1094.20
579.09	1090.46
579.44	1097.48
579.80	1100.05
580.15	1103.56
580.50	1097.01
580.85	1102.86
581.20	1092.80
581.55	1082.50
581.90	1072.67
582.25	1078.52
582.60	1081.56
582.95	1082.03
583.30	1093.73
583.65	1098.88
584.00	1107.07
584.35	1099.58
584.71	1098.41
585.06	1097.95
585.41	1094.90
585.76	1087.18
586.11	1087.65
586.46	1085.07
586.81	1084.14
587.16	1087.18
587.51	1090.22
587.86	1092.33
588.21	1089.52
588.56	1073.37
588.91	1073.84
589.26	1072.20
589.61	1066.35
589.96	1075.94
590.31	1089.75
590.66	1087.88
591.01	1086.01
591.36	1084.37
591.71	1080.86
592.06	1081.09
592.41	1076.65
592.76	1073.37
593.10	1075.24
593.45	1081.09
593.80	1078.52
594.15	1086.24
594.50	1091.63
594.85	1098.41
595.20	1094.67
595.55	1089.75
595.90	1090.22
596.25	1082.73
596.60	1082.97
596.95	1074.54
597.30	1078.99
597.64	1131.41
597.99	1138.67
598.34	1130.01
598.69	1134.69
599.04	1131.41
599.39	1087.88
599.74	1088.58
600.09	1086.24
600.44	1084.14
600.78	1080.86
601.13	1062.37
601.48	1057.92
601.83	1058.86
602.18	1059.79
602.53	1061.90
602.88	1065.65
603.22	1071.97
603.57	1073.14
603.92	1078.52
604.27	1087.88
604.62	1086.94
604.97	1083.90
605.31	1081.33
605.66	1086.94
606.01	1073.60
606.36	1071.26
606.71	1071.97
607.05	1080.16
607.40	1070.56
607.75	1077.35
608.10	1078.28
608.44	1073.14
608.79	1072.20
609.14	1085.07
609.49	1092.80
609.84	1093.03
610.18	1095.84
610.53	1093.73
610.88	1087.88
611.23	1081.09
611.57	1086.24
611.92	1077.11
612.27	1084.60
612.62	1078.99
612.96	1080.86
613.31	1076.18
613.66	1082.73
614.00	1076.18
614.35	1080.86
614.70	1075.48
615.05	1081.09
615.39	1083.67
615.74	1084.14
616.09	1082.97
616.43	1080.63
616.78	1077.58
617.13	1067.05
617.47	1066.11
617.82	1061.67
618.17	1073.84
618.51	1070.56
618.86	1076.41
619.21	1072.67
619.55	1074.54
619.90	1066.82
620.25	1065.18
620.59	1080.39
620.94	1083.20
621.29	1084.37
621.63	1085.54
621.98	1101.69
622.32	1089.52
622.67	1084.60
623.02	1077.35
623.36	1079.46
623.71	1068.69
624.05	1066.35
624.40	1077.58
624.75	1081.09
625.09	1080.86
625.44	1084.14
625.78	1096.31
626.13	1090.92
626.48	1104.73
626.82	1105.67
627.17	1100.52
627.51	1093.50
627.86	1101.46
628.20	1091.86
628.55	1081.80
628.89	1089.75
629.24	1086.01
629.58	1081.80
629.93	1075.24
630.28	1078.05
630.62	1070.80
630.97	1076.88
631.31	1076.41
631.66	1087.88
632.00	1089.99
632.35	1092.56
632.69	1094.90
633.04	1084.37
633.38	1074.77
633.73	1076.65
634.07	1071.26
634.42	1066.11
634.76	1079.69
635.11	1093.26
635.45	1093.73
635.79	1092.09
636.14	1093.73
636.48	1087.41
636.83	1075.71
637.17	1074.31
637.52	1081.80
637.86	1083.43
638.21	1086.48
638.55	1095.14
638.89	1095.84
639.24	1095.37
639.58	1093.03
639.93	1086.71
640.27	1086.48
640.61	1089.75
640.96	1087.18
641.30	1071.03
641.65	1074.54
641.99	1061.90
642.33	1056.05
642.68	1054.65
643.02	1062.14
643.37	1065.65
643.71	1075.71
644.05	1073.37
644.40	1083.43
644.74	1089.75
645.08	1078.05
645.43	1074.31
645.77	1080.39
646.11	1074.31
646.46	1074.54
646.80	1085.31
647.14	1087.18
647.49	1088.12
647.83	1090.92
648.17	1084.84
648.52	1090.22
648.86	1089.52
649.20	1084.14
649.55	1071.97
649.89	1080.63
650.23	1073.37
650.57	1071.26
650.92	1077.11
651.26	1084.84
651.60	1077.35
651.95	1086.48
652.29	1088.82
652.63	1073.37
652.97	1074.07
653.32	1082.73
653.66	1067.28
654.00	1059.33
654.34	1076.65
654.69	1079.69
655.03	1076.41
655.37	1083.43
655.71	1092.56
656.05	1082.97
656.40	1075.48
656.74	1078.05
657.08	1070.09
657.42	1067.28
657.76	1071.73
658.11	1069.62
658.45	1065.41
658.79	1075.94
659.13	1076.65
659.47	1080.86
659.82	1081.80
660.16	1084.37
660.50	1086.01
660.84	1081.80
661.18	1074.31
661.52	1085.77
661.87	1085.07
662.21	1075.48
662.55	1080.39
662.89	1085.31
663.23	1084.60
663.57	1086.24
663.91	1086.24
664.25	1091.39
664.60	1090.92
664.94	1079.69
665.28	1078.75
665.62	1076.65
665.96	1066.82
666.30	1069.86
666.64	1071.97
666.98	1069.86
667.32	1075.71
667.66	1081.33
668.01	1077.35
668.35	1070.56
668.69	1075.24
669.03	1072.43
669.37	1066.82
669.71	1063.54
670.05	1077.82
670.39	1079.69
670.73	1089.75
671.07	1088.58
671.41	1090.22
671.75	1083.43
672.09	1079.22
672.43	1080.39
672.77	1097.71
673.11	1094.67
673.45	1101.22
673.79	1100.52
674.13	1099.35
674.47	1086.01
674.81	1083.67
675.15	1079.46
675.49	1073.84
675.83	1075.48
676.17	1076.88
676.51	1083.90
676.85	1086.48
677.19	1083.67
677.53	1081.80
677.87	1082.97
678.21	1075.48
678.55	1068.92
678.89	1075.48
679.23	1068.69
679.57	1060.73
679.90	1067.05
680.24	1071.03
680.58	1076.18
680.92	1069.16
681.26	1075.94
681.60	1076.65
681.94	1077.35
682.28	1069.39
682.62	1071.97
682.96	1076.18
683.29	1076.88
683.63	1076.18
683.97	1073.84
684.31	1072.43
684.65	1068.92
684.99	1066.35
685.33	1065.65
685.67	1070.80
686.00	1067.99
686.34	1069.39
686.68	1072.67
687.02	1072.20
687.36	1070.80
687.70	1086.94
688.03	1089.99
688.37	1085.07
688.71	1078.05
689.05	1086.24
689.39	1077.82
689.72	1066.58
690.06	1069.62
690.40	1076.18
690.74	1068.92
691.08	1065.41
691.41	1075.01
691.75	1078.75
692.09	1075.94
692.43	1080.86
692.76	1094.20
693.10	1087.65
693.44	1082.03
693.78	1083.90
694.11	1075.48
694.45	1074.54
694.79	1080.16
695.13	1082.73
695.46	1092.80
695.80	1099.12
696.14	1094.43
696.48	1086.48
696.81	1088.58
697.15	1077.35
697.49	1073.60
697.82	1074.31
698.16	1082.97
698.50	1076.18
698.83	1082.73
699.17	1077.35
699.51	1065.88
699.84	1067.05
700.18	1071.26
700.52	1072.90
700.85	1078.05
701.19	1087.41
701.53	1082.97
701.86	1087.65
702.20	1085.31
702.54	1079.46
702.87	1075.94
703.21	1078.05
703.55	1072.67
703.88	1066.58
704.22	1067.75
704.55	1072.20
704.89	1072.20
705.23	1067.75
705.56	1076.41
705.90	1085.07
706.23	1081.09
706.57	1075.01
706.91	1073.37
707.24	1074.31
707.58	1075.71
707.91	1073.14
708.25	1072.43
708.58	1077.35
708.92	1076.18
709.26	1070.09
709.59	1070.80
709.93	1070.33
710.26	1065.88
710.60	1061.90
710.93	1056.75
711.27	1053.01
711.60	1056.28
711.94	1069.16
712.27	1070.80
712.61	1073.84
712.94	1078.28
713.28	1079.69
713.61	1085.31
713.95	1072.43
714.28	1073.37
714.62	1064.94
714.95	1054.18
715.29	1042.24
715.62	1049.03
715.96	1054.18
716.29	1066.11
716.63	1078.75
716.96	1074.54
717.29	1082.26
717.63	1085.07
717.96	1073.37
718.30	1080.86
718.63	1085.31
718.97	1084.60
719.30	1077.58
719.63	1090.22
719.97	1082.03
720.30	1079.92
720.64	1081.09
720.97	1087.18
721.30	1084.37
721.64	1076.18
721.97	1070.33
722.31	1072.43
722.64	1069.16
722.97	1073.84
723.31	1079.92
723.64	1091.16
723.97	1082.97
724.31	1085.77
724.64	1087.65
724.98	1087.88
725.31	1078.05
725.64	1073.37
725.98	1069.39
726.31	1055.35
726.64	1052.54
726.97	1067.52
727.31	1078.52
727.64	1073.14
727.97	1087.41
728.31	1090.46
728.64	1079.69
728.97	1076.65
729.31	1079.46
729.64	1069.62
729.97	1061.90
730.30	1066.35
730.64	1063.07
730.97	1060.03
731.30	1061.43
731.63	1068.92
731.97	1064.24
732.30	1071.73
732.63	1085.07
732.96	1082.73
733.30	1082.73
733.63	1082.03
733.96	1071.73
734.29	1063.77
734.63	1066.82
734.96	1067.05
735.29	1063.54
735.62	1067.52
735.95	1065.41
736.29	1058.39
736.62	1062.37
736.95	1069.39
737.28	1065.65
737.61	1069.86
737.94	1076.18
738.28	1063.77
738.61	1062.37
738.94	1070.56
739.27	1069.39
739.60	1069.16
739.93	1077.58
740.27	1079.92
740.60	1080.16
740.93	1079.22
741.26	1087.41
741.59	1083.67
741.92	1081.56
742.25	1073.14
742.58	1068.45
742.91	1062.60
743.25	1065.65
743.58	1060.03
743.91	1071.73
744.24	1082.50
744.57	1094.20
744.90	1098.88
745.23	1104.50
745.56	1098.41
745.89	1093.73
746.22	1087.65
746.55	1083.20
746.88	1076.65
747.21	1082.03
747.54	1076.88
747.87	1079.22
748.20	1077.35
748.53	1087.65
748.87	1081.56
749.20	1087.65
749.53	1071.73
749.86	1083.90
750.19	1087.65
750.52	1103.09
750.85	1099.35
751.18	1107.78
751.51	1096.31
751.84	1097.95
752.16	1080.63
752.49	1079.69
752.82	1081.33
753.15	1082.50
753.48	1071.50
753.81	1082.97
754.14	1084.60
754.47	1073.60
754.80	1077.35
755.13	1084.14
755.46	1070.09
755.79	1070.56
756.12	1083.67
756.45	1079.46
756.78	1083.20
757.11	1085.31
757.43	1090.69
757.76	1091.86
758.09	1086.24
758.42	1073.37
758.75	1086.71
759.08	1083.67
759.41	1070.56
759.74	1075.71
760.07	1079.46
760.39	1069.62
760.72	1064.94
761.05	1071.50
761.38	1071.73
761.71	1070.33
762.04	1069.39
762.36	1067.75
762.69	1074.07
763.02	1079.69
763.35	1081.80
763.68	1077.58
764.01	1079.69
764.33	1079.69
764.66	1080.39
764.99	1082.50
765.32	1087.88
765.65	1093.73
765.97	1086.71
766.30	1089.05
