SpectraSuite Data File
++++++++++++++++++++++++++++++++++++
Date: Mon Aug 26 10:25:58 PDT 2019
User: corrico
Dark Spectrum Present: No
Reference Spectrum Present: No
Number of Sampled Component Spectra: 1
Spectrometers: USB2+H06089
Integration Time (usec): 10000 (USB2+H06089)
Spectra Averaged: 2 (USB2+H06089)
Boxcar Smoothing: 2 (USB2+H06089)
Correct for Electrical Dark: No (USB2+H06089)
Strobe/Lamp Enabled: No (USB2+H06089)
Correct for Detector Non-linearity: No (USB2+H06089)
Correct for Stray Light: No (USB2+H06089)
Number of Pixels in Processed Spectrum: 2048
>>>>>Begin Processed Spectral Data<<<<<
339.70	1025.15
340.07	1025.15
340.45	987.47
340.82	964.30
341.19	947.45
341.57	932.24
341.94	925.92
342.31	927.09
342.69	931.30
343.06	928.02
343.43	921.47
343.81	920.77
344.18	917.49
344.55	913.51
344.93	910.47
345.30	921.00
345.67	928.96
346.04	926.62
346.42	924.04
346.79	928.02
347.16	928.02
347.54	938.32
347.91	952.36
348.28	963.83
348.65	969.68
349.03	982.32
349.40	986.77
349.77	994.26
350.14	1006.43
350.52	1021.64
350.89	1028.90
351.26	1046.22
351.63	1046.92
352.01	1053.94
352.38	1065.41
352.75	1056.99
353.12	1052.07
353.50	1066.58
353.87	1066.58
354.24	1062.60
354.61	1075.24
354.98	1080.39
355.36	1085.77
355.73	1091.63
356.10	1087.41
356.47	1090.22
356.84	1095.14
357.22	1082.50
357.59	1086.94
357.96	1094.43
358.33	1084.84
358.70	1080.39
359.08	1088.35
359.45	1086.71
359.82	1090.92
360.19	1099.58
360.56	1091.16
360.94	1084.84
361.31	1068.92
361.68	1062.60
362.05	1063.54
362.42	1064.01
362.79	1065.18
363.16	1076.65
363.54	1076.65
363.91	1068.45
364.28	1067.99
364.65	1061.43
365.02	1053.01
365.39	1057.22
365.76	1061.90
366.14	1073.84
366.51	1084.14
366.88	1093.03
367.25	1091.16
367.62	1094.67
367.99	1080.16
368.36	1076.41
368.73	1076.65
369.10	1071.97
369.48	1062.14
369.85	1066.11
370.22	1069.16
370.59	1074.54
370.96	1074.31
371.33	1077.11
371.70	1071.73
372.07	1066.82
372.44	1061.43
372.81	1065.18
373.18	1063.77
373.55	1067.99
373.93	1071.97
374.30	1068.69
374.67	1065.88
375.04	1065.41
375.41	1069.16
375.78	1063.54
376.15	1060.50
376.52	1060.03
376.89	1064.24
377.26	1064.48
377.63	1070.09
378.00	1074.07
378.37	1073.60
378.74	1066.35
379.11	1067.05
379.48	1057.92
379.85	1058.39
380.22	1062.37
380.59	1076.88
380.96	1073.37
381.33	1089.52
381.70	1091.86
382.07	1088.35
382.44	1081.33
382.81	1077.11
383.18	1083.43
383.55	1075.24
383.92	1086.48
384.29	1084.14
384.66	1086.48
385.03	1060.26
385.40	1063.54
385.77	1053.01
386.14	1054.18
386.51	1058.62
386.88	1073.14
387.25	1079.46
387.62	1072.20
387.99	1070.56
388.36	1068.22
388.73	1064.24
389.10	1066.11
389.46	1066.35
389.83	1070.09
390.20	1074.07
390.57	1075.94
390.94	1069.39
391.31	1075.48
391.68	1081.56
392.05	1072.20
392.42	1075.94
392.79	1079.22
393.16	1074.54
393.53	1056.99
393.89	1067.28
394.26	1061.90
394.63	1058.39
395.00	1052.54
395.37	1057.45
395.74	1046.69
396.11	1054.18
396.48	1053.94
396.84	1072.43
397.21	1068.92
397.58	1076.18
397.95	1071.03
398.32	1078.28
398.69	1061.90
399.06	1065.65
399.42	1054.41
399.79	1052.07
400.16	1048.56
400.53	1063.31
400.90	1055.35
401.27	1065.41
401.64	1079.46
402.00	1088.58
402.37	1079.22
402.74	1091.86
403.11	1091.16
403.48	1080.39
403.84	1072.90
404.21	1081.56
404.58	1085.07
404.95	1081.56
405.32	1072.90
405.68	1077.35
406.05	1082.73
406.42	1076.65
406.79	1087.41
407.16	1093.50
407.52	1099.35
407.89	1087.65
408.26	1085.31
408.63	1086.48
408.99	1082.50
409.36	1067.75
409.73	1075.48
410.10	1081.33
410.47	1075.48
410.83	1078.99
411.20	1084.60
411.57	1093.97
411.94	1099.35
412.30	1098.18
412.67	1099.12
413.04	1100.75
413.40	1090.92
413.77	1089.75
414.14	1090.22
414.51	1089.99
414.87	1092.33
415.24	1089.75
415.61	1086.24
415.97	1087.41
416.34	1083.67
416.71	1074.31
417.08	1069.86
417.44	1069.86
417.81	1076.65
418.18	1082.03
418.54	1087.65
418.91	1085.07
419.28	1084.84
419.64	1069.62
420.01	1068.45
420.38	1070.56
420.74	1070.56
421.11	1073.14
421.48	1080.39
421.84	1083.43
422.21	1082.97
422.58	1085.77
422.94	1078.99
423.31	1080.63
423.68	1082.50
424.04	1075.01
424.41	1076.65
424.77	1079.92
425.14	1077.11
425.51	1071.50
425.87	1078.28
426.24	1081.80
426.61	1079.92
426.97	1087.41
427.34	1083.67
427.70	1089.52
428.07	1083.67
428.44	1079.69
428.80	1072.90
429.17	1077.58
429.53	1071.73
429.90	1074.77
430.27	1077.58
430.63	1078.75
431.00	1077.82
431.36	1076.41
431.73	1073.60
432.09	1081.56
432.46	1088.58
432.83	1085.77
433.19	1079.22
433.56	1087.65
433.92	1090.46
434.29	1084.14
434.65	1088.58
435.02	1098.65
435.38	1087.41
435.75	1079.46
436.11	1082.73
436.48	1086.94
436.84	1085.54
437.21	1091.39
437.57	1086.01
437.94	1089.29
438.30	1084.84
438.67	1075.71
439.03	1073.37
439.40	1076.18
439.76	1076.41
440.13	1075.48
440.49	1088.82
440.86	1093.03
441.22	1093.97
441.59	1087.18
441.95	1084.60
442.32	1081.09
442.68	1080.16
443.05	1084.37
443.41	1088.35
443.78	1095.37
444.14	1085.07
444.51	1089.29
444.87	1082.50
445.24	1076.88
445.60	1075.24
445.96	1070.09
446.33	1064.48
446.69	1067.99
447.06	1068.92
447.42	1072.67
447.79	1083.43
448.15	1083.67
448.51	1079.22
448.88	1077.11
449.24	1065.88
449.61	1071.97
449.97	1077.11
450.33	1085.31
450.70	1096.78
451.06	1101.46
451.43	1097.01
451.79	1093.97
452.15	1095.14
452.52	1085.54
452.88	1078.05
453.24	1073.84
453.61	1075.94
453.97	1068.22
454.34	1072.20
454.70	1083.20
455.06	1074.31
455.43	1069.62
455.79	1076.65
456.15	1084.84
456.52	1093.97
456.88	1104.03
457.24	1106.61
457.61	1097.71
457.97	1093.26
458.33	1082.73
458.70	1093.73
459.06	1099.12
459.42	1100.75
459.79	1079.92
460.15	1079.69
460.51	1071.03
460.88	1057.92
461.24	1057.22
461.60	1071.50
461.96	1064.24
462.33	1071.50
462.69	1079.22
463.05	1080.86
463.42	1081.33
463.78	1088.82
464.14	1074.77
464.50	1067.28
464.87	1065.41
465.23	1063.54
465.59	1061.43
465.95	1070.56
466.32	1070.33
466.68	1075.94
467.04	1078.75
467.40	1077.82
467.77	1076.65
468.13	1079.22
468.49	1072.43
468.85	1072.43
469.22	1066.58
469.58	1069.62
469.94	1079.46
470.30	1079.69
470.66	1082.03
471.03	1088.82
471.39	1080.63
471.75	1079.69
472.11	1086.24
472.47	1077.35
472.84	1072.90
473.20	1072.90
473.56	1060.73
473.92	1061.90
474.28	1064.48
474.65	1072.43
475.01	1074.31
475.37	1081.80
475.73	1079.46
476.09	1085.07
476.45	1077.82
476.81	1071.03
477.18	1069.16
477.54	1073.60
477.90	1067.99
478.26	1079.22
478.62	1086.01
478.98	1076.65
479.34	1071.73
479.71	1072.43
480.07	1065.41
480.43	1068.45
480.79	1084.84
481.15	1085.54
481.51	1073.60
481.87	1076.18
482.23	1065.65
482.59	1067.52
482.96	1067.99
483.32	1079.46
483.68	1082.73
484.04	1092.33
484.40	1088.58
484.76	1086.71
485.12	1087.65
485.48	1071.50
485.84	1063.31
486.20	1063.07
486.56	1074.07
486.92	1073.84
487.28	1086.24
487.64	1085.31
488.00	1081.80
488.37	1076.18
488.73	1082.03
489.09	1078.28
489.45	1083.67
489.81	1075.94
490.17	1073.84
490.53	1072.43
490.89	1079.46
491.25	1086.01
491.61	1083.67
491.97	1082.73
492.33	1079.46
492.69	1075.24
493.05	1068.22
493.41	1080.86
493.77	1068.45
494.13	1066.82
494.49	1058.86
494.85	1059.56
495.21	1053.01
495.57	1059.09
495.93	1058.86
496.29	1069.62
496.64	1075.24
497.00	1068.92
497.36	1069.16
497.72	1071.50
498.08	1073.37
498.44	1077.11
498.80	1094.20
499.16	1098.65
499.52	1101.69
499.88	1106.84
500.24	1108.01
500.60	1097.95
500.96	1100.52
501.32	1104.03
501.68	1092.80
502.03	1088.58
502.39	1087.88
502.75	1091.16
503.11	1092.09
503.47	1086.94
503.83	1080.16
504.19	1086.01
504.55	1076.18
504.91	1069.86
505.26	1077.82
505.62	1080.39
505.98	1077.35
506.34	1081.09
506.70	1075.94
507.06	1071.50
507.42	1078.52
507.78	1075.71
508.13	1074.54
508.49	1082.97
508.85	1089.05
509.21	1082.26
509.57	1089.05
509.93	1093.97
510.28	1090.69
510.64	1089.29
511.00	1084.37
511.36	1087.88
511.72	1083.67
512.07	1090.22
512.43	1088.58
512.79	1090.69
513.15	1086.01
513.51	1091.39
513.86	1085.07
514.22	1083.90
514.58	1082.73
514.94	1086.48
515.30	1081.09
515.65	1083.90
516.01	1079.46
516.37	1082.26
516.73	1083.43
517.08	1093.97
517.44	1095.60
517.80	1115.03
518.16	1121.35
518.51	1111.75
518.87	1098.88
519.23	1101.69
519.59	1091.39
519.94	1080.63
520.30	1081.56
520.66	1094.43
521.01	1086.94
521.37	1091.16
521.73	1087.88
522.09	1093.26
522.44	1088.58
522.80	1094.90
523.16	1094.43
523.51	1107.54
523.87	1103.56
524.23	1099.12
524.58	1098.18
524.94	1091.39
525.30	1094.67
525.65	1100.52
526.01	1099.12
526.37	1097.48
526.72	1095.84
527.08	1089.99
527.44	1083.43
527.79	1092.56
528.15	1099.82
528.51	1098.18
528.86	1102.86
529.22	1101.69
529.58	1090.46
529.93	1083.43
530.29	1090.22
530.65	1094.20
531.00	1095.14
531.36	1100.99
531.71	1099.58
532.07	1100.99
532.43	1097.24
532.78	1100.52
533.14	1104.97
533.49	1102.63
533.85	1102.86
534.21	1103.80
534.56	1105.44
534.92	1101.46
535.27	1092.09
535.63	1086.24
535.98	1081.80
536.34	1084.84
536.69	1085.77
537.05	1098.65
537.41	1092.33
537.76	1091.63
538.12	1084.84
538.47	1078.05
538.83	1078.75
539.18	1090.22
539.54	1086.48
539.89	1093.26
540.25	1097.48
540.60	1088.58
540.96	1082.26
541.31	1089.99
541.67	1082.97
542.02	1076.18
542.38	1082.73
542.73	1085.07
543.09	1080.39
543.44	1087.18
543.80	1083.67
544.15	1081.09
544.51	1076.41
544.86	1084.14
545.22	1075.48
545.57	1092.80
545.93	1094.90
546.28	1095.37
546.64	1089.05
546.99	1089.75
547.35	1081.33
547.70	1073.84
548.05	1086.01
548.41	1084.60
548.76	1088.35
549.12	1093.03
549.47	1093.97
549.83	1087.41
550.18	1081.80
550.53	1087.65
550.89	1090.92
551.24	1099.12
551.60	1092.33
551.95	1097.01
552.30	1092.33
552.66	1087.88
553.01	1078.52
553.37	1076.18
553.72	1073.60
554.07	1067.75
554.43	1066.82
554.78	1077.35
555.13	1086.71
555.49	1086.01
555.84	1085.54
556.19	1080.16
556.55	1079.46
556.90	1071.73
557.26	1067.99
557.61	1070.09
557.96	1082.03
558.32	1077.58
558.67	1086.48
559.02	1093.50
559.37	1095.84
559.73	1082.97
560.08	1081.80
560.43	1083.90
560.79	1081.80
561.14	1081.09
561.49	1085.31
561.85	1085.07
562.20	1075.48
562.55	1083.67
562.90	1083.43
563.26	1086.48
563.61	1095.60
563.96	1095.37
564.32	1079.69
564.67	1090.69
565.02	1089.05
565.37	1077.11
565.73	1083.67
566.08	1089.75
566.43	1079.46
566.78	1075.01
567.14	1072.90
567.49	1074.77
567.84	1075.71
568.19	1084.37
568.54	1091.63
568.90	1098.41
569.25	1089.99
569.60	1081.80
569.95	1076.41
570.31	1068.92
570.66	1065.88
571.01	1069.16
571.36	1072.90
571.71	1066.82
572.06	1075.94
572.42	1074.54
572.77	1076.18
573.12	1078.28
573.47	1081.56
573.82	1078.05
574.18	1084.60
574.53	1084.37
574.88	1090.22
575.23	1099.35
575.58	1095.84
575.93	1094.20
576.28	1083.67
576.64	1080.63
576.99	1071.97
577.34	1077.35
577.69	1076.18
578.04	1083.43
578.39	1086.01
578.74	1082.50
579.09	1073.84
579.44	1067.52
579.80	1075.48
580.15	1069.39
580.50	1065.18
580.85	1075.48
581.20	1085.54
581.55	1076.65
581.90	1081.33
582.25	1083.67
582.60	1075.24
582.95	1075.01
583.30	1079.46
583.65	1073.14
584.00	1079.69
584.35	1082.97
584.71	1080.16
585.06	1086.01
585.41	1097.24
585.76	1082.73
586.11	1082.50
586.46	1081.80
586.81	1069.39
587.16	1055.58
587.51	1067.28
587.86	1078.75
588.21	1076.41
588.56	1077.82
588.91	1095.84
589.26	1103.80
589.61	1093.97
589.96	1088.35
590.31	1095.60
590.66	1095.84
591.01	1091.39
591.36	1089.29
591.71	1103.09
592.06	1105.20
592.41	1095.84
592.76	1088.58
593.10	1086.48
593.45	1084.37
593.80	1086.71
594.15	1078.99
594.50	1086.01
594.85	1088.82
595.20	1081.33
595.55	1077.58
595.90	1088.12
596.25	1082.50
596.60	1079.69
596.95	1086.94
597.30	1078.28
597.64	1124.16
597.99	1126.03
598.34	1128.37
598.69	1117.37
599.04	1127.20
599.39	1078.52
599.74	1072.20
600.09	1076.88
600.44	1083.20
600.78	1073.14
601.13	1076.41
601.48	1068.92
601.83	1060.73
602.18	1067.05
602.53	1063.07
602.88	1053.71
603.22	1063.54
603.57	1066.82
603.92	1059.56
604.27	1068.69
604.62	1072.43
604.97	1072.43
605.31	1064.01
605.66	1065.18
606.01	1069.16
606.36	1075.48
606.71	1080.39
607.05	1082.97
607.40	1086.48
607.75	1077.11
608.10	1074.31
608.44	1070.56
608.79	1076.88
609.14	1078.28
609.49	1085.31
609.84	1080.16
610.18	1086.71
610.53	1090.69
610.88	1090.92
611.23	1097.71
611.57	1097.95
611.92	1096.54
612.27	1099.12
612.62	1094.43
612.96	1088.82
613.31	1096.54
613.66	1089.52
614.00	1083.43
614.35	1086.48
614.70	1086.01
615.05	1081.80
615.39	1077.82
615.74	1082.50
616.09	1070.33
616.43	1069.86
616.78	1075.94
617.13	1086.71
617.47	1089.75
617.82	1100.05
618.17	1091.16
618.51	1079.69
618.86	1066.58
619.21	1059.09
619.55	1069.86
619.90	1071.03
620.25	1074.31
620.59	1086.94
620.94	1089.75
621.29	1075.48
621.63	1081.09
621.98	1085.31
622.32	1084.14
622.67	1081.09
623.02	1080.63
623.36	1078.52
623.71	1080.86
624.05	1077.82
624.40	1077.82
624.75	1078.52
625.09	1087.88
625.44	1081.33
625.78	1081.33
626.13	1086.24
626.48	1095.37
626.82	1094.43
627.17	1099.58
627.51	1104.03
627.86	1099.82
628.20	1093.50
628.55	1092.56
628.89	1099.82
629.24	1101.22
629.58	1112.92
629.93	1117.84
630.28	1114.09
630.62	1103.56
630.97	1095.60
631.31	1085.54
631.66	1082.73
632.00	1081.80
632.35	1086.71
632.69	1082.26
633.04	1074.54
633.38	1081.33
633.73	1083.43
634.07	1086.71
634.42	1101.22
634.76	1111.29
635.11	1098.65
635.45	1092.80
635.79	1085.31
636.14	1080.63
636.48	1078.52
636.83	1085.31
637.17	1093.97
637.52	1097.95
637.86	1097.01
638.21	1095.84
638.55	1093.50
638.89	1080.16
639.24	1066.58
639.58	1063.54
639.93	1071.73
640.27	1065.65
640.61	1070.33
640.96	1082.50
641.30	1087.88
641.65	1071.73
641.99	1067.52
642.33	1073.14
642.68	1068.45
643.02	1064.71
643.37	1074.07
643.71	1081.33
644.05	1075.48
644.40	1075.48
644.74	1085.54
645.08	1084.14
645.43	1085.77
645.77	1090.46
646.11	1093.26
646.46	1091.63
646.80	1090.46
647.14	1097.24
647.49	1100.52
647.83	1101.92
648.17	1097.48
648.52	1100.75
648.86	1094.90
649.20	1092.33
649.55	1104.03
649.89	1100.52
650.23	1099.82
650.57	1091.63
650.92	1098.88
651.26	1083.90
651.60	1085.31
651.95	1082.03
652.29	1089.05
652.63	1069.39
652.97	1076.18
653.32	1089.05
653.66	1089.99
654.00	1095.14
654.34	1103.56
654.69	1101.69
655.03	1086.94
655.37	1085.07
655.71	1081.33
656.05	1070.80
656.40	1065.88
656.74	1067.52
657.08	1059.33
657.42	1061.43
657.76	1073.37
658.11	1080.16
658.45	1078.75
658.79	1078.28
659.13	1067.99
659.47	1071.03
659.82	1066.11
660.16	1071.73
660.50	1076.18
660.84	1086.24
661.18	1082.50
661.52	1088.58
661.87	1082.73
662.21	1075.71
662.55	1086.48
662.89	1085.31
663.23	1075.48
663.57	1083.20
663.91	1105.90
664.25	1092.80
664.60	1096.07
664.94	1100.99
665.28	1093.97
665.62	1088.12
665.96	1089.75
666.30	1084.84
666.64	1085.07
666.98	1090.46
667.32	1087.65
667.66	1079.69
668.01	1078.99
668.35	1080.63
668.69	1079.46
669.03	1069.16
669.37	1078.99
669.71	1082.73
670.05	1088.58
670.39	1093.03
670.73	1098.41
671.07	1093.97
671.41	1087.18
671.75	1082.50
672.09	1072.90
672.43	1074.77
672.77	1086.48
673.11	1096.31
673.45	1097.24
673.79	1095.37
674.13	1091.16
674.47	1079.92
674.81	1074.07
675.15	1064.01
675.49	1066.58
675.83	1074.31
676.17	1073.14
676.51	1075.71
676.85	1076.65
677.19	1081.80
677.53	1085.07
677.87	1087.65
678.21	1084.60
678.55	1091.63
678.89	1083.43
679.23	1075.48
679.57	1085.07
679.90	1093.97
680.24	1092.33
680.58	1096.78
680.92	1091.16
681.26	1079.92
681.60	1068.22
681.94	1053.24
682.28	1053.48
682.62	1051.84
682.96	1046.69
683.29	1048.33
683.63	1053.24
683.97	1050.90
684.31	1061.20
684.65	1058.39
684.99	1058.86
685.33	1068.22
685.67	1066.82
686.00	1069.62
686.34	1090.22
686.68	1091.63
687.02	1087.41
687.36	1088.58
687.70	1076.65
688.03	1063.54
688.37	1066.58
688.71	1069.39
689.05	1070.09
689.39	1086.01
689.72	1089.99
690.06	1089.75
690.40	1087.88
690.74	1090.92
691.08	1086.24
691.41	1085.07
691.75	1087.88
692.09	1092.80
692.43	1087.65
692.76	1080.16
693.10	1081.33
693.44	1081.80
693.78	1073.84
694.11	1079.92
694.45	1088.35
694.79	1078.99
695.13	1072.20
695.46	1082.73
695.80	1083.67
696.14	1085.77
696.48	1094.90
696.81	1100.29
697.15	1099.82
697.49	1102.39
697.82	1092.80
698.16	1094.20
698.50	1087.18
698.83	1080.16
699.17	1081.33
699.51	1089.05
699.84	1086.48
700.18	1088.58
700.52	1086.24
700.85	1076.18
701.19	1073.37
701.53	1063.07
701.86	1056.28
702.20	1061.43
702.54	1067.75
702.87	1061.43
703.21	1071.03
703.55	1087.65
703.88	1084.84
704.22	1078.99
704.55	1090.92
704.89	1086.01
705.23	1084.14
705.56	1094.43
705.90	1099.12
706.23	1095.37
706.57	1099.82
706.91	1097.01
707.24	1095.60
707.58	1088.82
707.91	1078.28
708.25	1080.63
708.58	1073.37
708.92	1063.77
709.26	1073.60
709.59	1086.94
709.93	1084.84
710.26	1093.26
710.60	1099.12
710.93	1093.03
711.27	1091.39
711.60	1091.63
711.94	1096.54
712.27	1086.48
712.61	1084.60
712.94	1088.58
713.28	1085.77
713.61	1065.18
713.95	1061.90
714.28	1061.67
714.62	1048.09
714.95	1048.09
715.29	1050.90
715.62	1059.56
715.96	1064.71
716.29	1077.58
716.63	1079.22
716.96	1090.69
717.29	1092.33
717.63	1089.29
717.96	1081.09
718.30	1079.46
718.63	1080.63
718.97	1082.50
719.30	1080.39
719.63	1080.39
719.97	1090.46
720.30	1092.09
720.64	1092.80
720.97	1094.67
721.30	1097.48
721.64	1089.52
721.97	1073.37
722.31	1068.45
722.64	1060.96
722.97	1056.52
723.31	1054.65
723.64	1066.35
723.97	1067.99
724.31	1082.03
724.64	1081.80
724.98	1075.48
725.31	1076.65
725.64	1078.28
725.98	1073.84
726.31	1077.82
726.64	1085.07
726.97	1094.20
727.31	1099.58
727.64	1100.05
727.97	1100.99
728.31	1097.95
728.64	1082.73
728.97	1076.41
729.31	1066.82
729.64	1061.43
729.97	1067.28
730.30	1069.62
730.64	1073.84
730.97	1081.09
731.30	1087.18
731.63	1075.01
731.97	1071.73
732.30	1067.99
732.63	1067.05
732.96	1055.35
733.30	1067.28
733.63	1071.97
733.96	1079.46
734.29	1080.63
734.63	1089.52
734.96	1090.69
735.29	1097.24
735.62	1096.07
735.95	1103.56
736.29	1100.05
736.62	1097.01
736.95	1087.65
737.28	1081.33
737.61	1073.84
737.94	1073.84
738.28	1071.50
738.61	1074.07
738.94	1068.69
739.27	1079.92
739.60	1079.69
739.93	1081.56
740.27	1086.24
740.60	1089.29
740.93	1085.07
741.26	1089.52
741.59	1096.54
741.92	1089.52
742.25	1090.92
742.58	1088.82
742.91	1093.73
743.25	1086.94
743.58	1084.84
743.91	1085.07
744.24	1081.80
744.57	1081.56
744.90	1078.75
745.23	1079.22
745.56	1082.03
745.89	1081.09
746.22	1078.99
746.55	1086.71
746.88	1096.07
747.21	1092.09
747.54	1098.41
747.87	1100.05
748.20	1095.14
748.53	1088.58
748.87	1093.73
749.20	1087.18
749.53	1083.90
749.86	1086.94
750.19	1090.69
750.52	1081.80
750.85	1085.77
751.18	1085.77
751.51	1084.84
751.84	1085.54
752.16	1094.90
752.49	1097.24
752.82	1097.24
753.15	1095.37
753.48	1094.90
753.81	1090.69
754.14	1079.92
754.47	1076.41
754.80	1071.26
755.13	1076.65
755.46	1080.86
755.79	1078.05
756.12	1082.73
756.45	1090.22
756.78	1092.56
757.11	1085.07
757.43	1092.33
757.76	1084.14
758.09	1078.05
758.42	1063.77
758.75	1068.22
759.08	1065.41
759.41	1071.26
759.74	1073.60
760.07	1085.54
760.39	1085.31
760.72	1090.22
761.05	1082.97
761.38	1090.22
761.71	1087.41
762.04	1087.88
762.36	1089.52
762.69	1098.18
763.02	1084.37
763.35	1080.86
763.68	1076.88
764.01	1076.88
764.33	1073.37
764.66	1089.05
764.99	1094.20
765.32	1100.05
765.65	1103.33
765.97	1101.69
766.30	1084.14
