SpectraSuite Data File
++++++++++++++++++++++++++++++++++++
Date: Mon Aug 26 10:25:55 PDT 2019
User: corrico
Dark Spectrum Present: No
Reference Spectrum Present: No
Number of Sampled Component Spectra: 1
Spectrometers: USB2+H06089
Integration Time (usec): 10000 (USB2+H06089)
Spectra Averaged: 2 (USB2+H06089)
Boxcar Smoothing: 2 (USB2+H06089)
Correct for Electrical Dark: No (USB2+H06089)
Strobe/Lamp Enabled: No (USB2+H06089)
Correct for Detector Non-linearity: No (USB2+H06089)
Correct for Stray Light: No (USB2+H06089)
Number of Pixels in Processed Spectrum: 2048
>>>>>Begin Processed Spectral Data<<<<<
339.70	981.85
340.07	981.85
340.45	968.98
340.82	960.79
341.19	943.94
341.57	932.94
341.94	918.43
342.31	907.66
342.69	897.83
343.06	899.47
343.43	898.77
343.81	902.74
344.18	898.53
344.55	899.70
344.93	899.00
345.30	900.17
345.67	911.87
346.04	927.09
346.42	937.38
346.79	954.94
347.16	958.22
347.54	964.30
347.91	972.96
348.28	989.81
348.65	997.54
349.03	1011.11
349.40	1014.62
349.77	1023.98
350.14	1025.39
350.52	1024.45
350.89	1032.88
351.26	1047.39
351.63	1047.39
352.01	1050.20
352.38	1063.07
352.75	1061.20
353.12	1055.11
353.50	1068.92
353.87	1073.14
354.24	1071.26
354.61	1082.26
354.98	1091.86
355.36	1081.56
355.73	1077.58
356.10	1075.01
356.47	1068.45
356.84	1066.11
357.22	1070.56
357.59	1076.18
357.96	1071.73
358.33	1073.84
358.70	1076.41
359.08	1072.67
359.45	1060.50
359.82	1060.96
360.19	1058.86
360.56	1057.22
360.94	1050.90
361.31	1067.05
361.68	1070.33
362.05	1067.52
362.42	1058.62
362.79	1069.62
363.16	1069.39
363.54	1075.01
363.91	1083.20
364.28	1086.94
364.65	1082.50
365.02	1070.80
365.39	1071.97
365.76	1066.35
366.14	1070.33
366.51	1067.52
366.88	1077.82
367.25	1073.14
367.62	1073.84
367.99	1070.33
368.36	1079.46
368.73	1078.05
369.10	1082.97
369.48	1088.58
369.85	1092.80
370.22	1088.12
370.59	1081.09
370.96	1071.73
371.33	1065.41
371.70	1056.28
372.07	1061.90
372.44	1065.88
372.81	1057.22
373.18	1060.73
373.55	1067.28
373.93	1054.41
374.30	1056.75
374.67	1073.37
375.04	1078.99
375.41	1076.18
375.78	1086.94
376.15	1083.67
376.52	1089.29
376.89	1073.14
377.26	1073.84
377.63	1065.18
378.00	1064.94
378.37	1049.26
378.74	1060.03
379.11	1067.52
379.48	1072.67
379.85	1069.86
380.22	1074.54
380.59	1068.69
380.96	1067.28
381.33	1075.01
381.70	1071.73
382.07	1080.16
382.44	1079.22
382.81	1073.37
383.18	1064.94
383.55	1085.31
383.92	1083.67
384.29	1091.63
384.66	1093.26
385.03	1089.29
385.40	1068.22
385.77	1064.71
386.14	1058.62
386.51	1064.71
386.88	1059.79
387.25	1061.90
387.62	1059.56
387.99	1057.92
388.36	1047.62
388.73	1053.48
389.10	1062.84
389.46	1067.99
389.83	1067.99
390.20	1076.65
390.57	1077.35
390.94	1082.50
391.31	1075.94
391.68	1078.52
392.05	1071.03
392.42	1071.73
392.79	1058.39
393.16	1067.28
393.53	1069.62
393.89	1070.80
394.26	1077.11
394.63	1082.26
395.00	1070.09
395.37	1063.77
395.74	1059.33
396.11	1048.56
396.48	1045.99
396.84	1050.20
397.21	1049.50
397.58	1041.54
397.95	1045.75
398.32	1049.26
398.69	1042.01
399.06	1047.62
399.42	1066.82
399.79	1071.97
400.16	1077.58
400.53	1086.01
400.90	1081.80
401.27	1077.35
401.64	1074.54
402.00	1060.73
402.37	1062.14
402.74	1070.33
403.11	1075.48
403.48	1074.31
403.84	1082.50
404.21	1078.28
404.58	1068.69
404.95	1058.62
405.32	1063.07
405.68	1065.88
406.05	1065.18
406.42	1071.50
406.79	1071.73
407.16	1071.26
407.52	1073.14
407.89	1091.86
408.26	1092.80
408.63	1094.43
408.99	1099.12
409.36	1099.12
409.73	1084.60
410.10	1081.09
410.47	1077.11
410.83	1062.14
411.20	1060.03
411.57	1060.96
411.94	1064.48
412.30	1062.37
412.67	1075.01
413.04	1071.50
413.40	1075.24
413.77	1075.01
414.14	1088.58
414.51	1083.20
414.87	1081.80
415.24	1071.50
415.61	1071.73
415.97	1067.99
416.34	1072.20
416.71	1079.69
417.08	1087.88
417.44	1087.41
417.81	1087.18
418.18	1090.69
418.54	1087.41
418.91	1080.16
419.28	1075.94
419.64	1079.69
420.01	1076.65
420.38	1070.56
420.74	1077.11
421.11	1081.56
421.48	1071.26
421.84	1065.18
422.21	1064.94
422.58	1063.54
422.94	1059.56
423.31	1061.20
423.68	1072.43
424.04	1078.99
424.41	1084.84
424.77	1086.01
425.14	1086.24
425.51	1073.14
425.87	1060.26
426.24	1053.71
426.61	1058.62
426.97	1068.22
427.34	1068.92
427.70	1078.75
428.07	1084.84
428.44	1086.48
428.80	1077.58
429.17	1076.41
429.53	1081.09
429.90	1078.28
430.27	1071.03
430.63	1063.54
431.00	1074.31
431.36	1071.97
431.73	1065.88
432.09	1070.33
432.46	1076.41
432.83	1070.80
433.19	1065.65
433.56	1074.77
433.92	1065.18
434.29	1064.94
434.65	1070.80
435.02	1084.60
435.38	1085.77
435.75	1093.97
436.11	1099.12
436.48	1091.16
436.84	1077.35
437.21	1058.39
437.57	1060.26
437.94	1066.82
438.30	1072.90
438.67	1076.88
439.03	1085.54
439.40	1089.99
439.76	1086.24
440.13	1075.48
440.49	1070.33
440.86	1070.80
441.22	1062.84
441.59	1057.92
441.95	1060.50
442.32	1065.18
442.68	1068.22
443.05	1064.01
443.41	1071.03
443.78	1081.56
444.14	1080.86
444.51	1077.82
444.87	1086.01
445.24	1077.82
445.60	1073.84
445.96	1079.46
446.33	1090.22
446.69	1088.82
447.06	1094.67
447.42	1092.33
447.79	1090.22
448.15	1086.48
448.51	1087.88
448.88	1091.86
449.24	1096.54
449.61	1095.14
449.97	1094.43
450.33	1093.73
450.70	1084.37
451.06	1078.28
451.43	1076.41
451.79	1080.63
452.15	1093.97
452.52	1097.95
452.88	1101.69
453.24	1109.41
453.61	1097.01
453.97	1079.92
454.34	1069.86
454.70	1067.75
455.06	1064.24
455.43	1066.82
455.79	1058.16
456.15	1066.82
456.52	1073.60
456.88	1067.28
457.24	1068.92
457.61	1085.77
457.97	1092.09
458.33	1093.03
458.70	1096.78
459.06	1098.88
459.42	1096.31
459.79	1091.86
460.15	1094.90
460.51	1091.39
460.88	1089.29
461.24	1086.71
461.60	1086.48
461.96	1079.46
462.33	1075.94
462.69	1071.03
463.05	1074.31
463.42	1070.09
463.78	1062.84
464.14	1064.71
464.50	1072.67
464.87	1063.77
465.23	1069.16
465.59	1070.33
465.95	1075.24
466.32	1079.69
466.68	1087.41
467.04	1084.60
467.40	1086.48
467.77	1089.52
468.13	1079.69
468.49	1091.16
468.85	1084.60
469.22	1081.09
469.58	1079.92
469.94	1084.14
470.30	1069.62
470.66	1075.24
471.03	1081.09
471.39	1078.75
471.75	1083.67
472.11	1084.37
472.47	1083.67
472.84	1090.92
473.20	1083.67
473.56	1081.33
473.92	1083.20
474.28	1084.37
474.65	1072.67
475.01	1075.24
475.37	1076.18
475.73	1073.84
476.09	1075.24
476.45	1078.28
476.81	1084.60
477.18	1078.75
477.54	1078.52
477.90	1077.35
478.26	1075.94
478.62	1072.67
478.98	1075.48
479.34	1065.65
479.71	1065.18
480.07	1060.26
480.43	1056.99
480.79	1047.62
481.15	1055.58
481.51	1059.79
481.87	1054.65
482.23	1046.69
482.59	1060.26
482.96	1064.01
483.32	1057.22
483.68	1061.43
484.04	1073.37
484.40	1067.75
484.76	1066.58
485.12	1070.56
485.48	1084.14
485.84	1083.20
486.20	1078.99
486.56	1076.41
486.92	1068.45
487.28	1071.50
487.64	1071.26
488.00	1075.01
488.37	1076.65
488.73	1081.80
489.09	1072.67
489.45	1072.20
489.81	1077.35
490.17	1073.84
490.53	1071.97
490.89	1074.77
491.25	1080.86
491.61	1076.88
491.97	1076.65
492.33	1081.56
492.69	1083.20
493.05	1080.86
493.41	1075.48
493.77	1078.05
494.13	1074.07
494.49	1081.80
494.85	1078.52
495.21	1075.24
495.57	1069.16
495.93	1074.54
496.29	1059.56
496.64	1061.90
497.00	1076.18
497.36	1073.60
497.72	1071.03
498.08	1080.86
498.44	1078.05
498.80	1065.41
499.16	1068.45
499.52	1066.82
499.88	1063.31
500.24	1065.18
500.60	1068.22
500.96	1089.75
501.32	1093.50
501.68	1094.43
502.03	1094.67
502.39	1110.35
502.75	1094.90
503.11	1088.35
503.47	1081.09
503.83	1089.52
504.19	1079.69
504.55	1085.54
504.91	1092.56
505.26	1093.03
505.62	1086.71
505.98	1087.41
506.34	1079.69
506.70	1075.01
507.06	1077.82
507.42	1075.24
507.78	1074.31
508.13	1079.92
508.49	1088.12
508.85	1089.52
509.21	1089.99
509.57	1088.58
509.93	1091.16
510.28	1091.39
510.64	1088.12
511.00	1094.43
511.36	1087.18
511.72	1083.67
512.07	1071.03
512.43	1075.01
512.79	1070.09
513.15	1087.41
513.51	1093.97
513.86	1113.16
514.22	1112.46
514.58	1110.12
514.94	1103.80
515.30	1090.22
515.65	1087.18
516.01	1084.60
516.37	1083.90
516.73	1082.97
517.08	1097.71
517.44	1086.01
517.80	1083.43
518.16	1086.48
518.51	1085.07
518.87	1077.35
519.23	1082.73
519.59	1078.52
519.94	1090.22
520.30	1085.54
520.66	1086.71
521.01	1092.80
521.37	1093.26
521.73	1083.90
522.09	1084.60
522.44	1079.69
522.80	1071.26
523.16	1080.39
523.51	1077.11
523.87	1079.69
524.23	1089.05
524.58	1093.03
524.94	1094.67
525.30	1104.73
525.65	1103.09
526.01	1107.31
526.37	1106.14
526.72	1107.54
527.08	1095.14
527.44	1102.16
527.79	1103.09
528.15	1096.54
528.51	1094.43
528.86	1095.14
529.22	1090.22
529.58	1085.07
529.93	1085.07
530.29	1088.58
530.65	1093.03
531.00	1096.31
531.36	1093.73
531.71	1103.56
532.07	1100.75
532.43	1102.63
532.78	1100.05
533.14	1100.29
533.49	1098.18
533.85	1101.69
534.21	1097.48
534.56	1091.16
534.92	1086.01
535.27	1078.05
535.63	1075.94
535.98	1077.58
536.34	1085.31
536.69	1085.77
537.05	1084.84
537.41	1084.14
537.76	1084.84
538.12	1081.09
538.47	1082.97
538.83	1090.92
539.18	1087.41
539.54	1082.73
539.89	1088.12
540.25	1091.39
540.60	1092.80
540.96	1089.29
541.31	1093.26
541.67	1089.52
542.02	1091.16
542.38	1090.92
542.73	1094.20
543.09	1087.65
543.44	1086.71
543.80	1072.20
544.15	1066.82
544.51	1064.71
544.86	1061.67
545.22	1064.94
545.57	1067.52
545.93	1067.28
546.28	1079.69
546.64	1094.67
546.99	1089.75
547.35	1096.78
547.70	1107.54
548.05	1095.84
548.41	1091.63
548.76	1087.65
549.12	1086.24
549.47	1086.71
549.83	1088.82
550.18	1089.05
550.53	1091.86
550.89	1100.29
551.24	1088.58
551.60	1089.99
551.95	1093.03
552.30	1089.99
552.66	1082.97
553.01	1082.03
553.37	1090.69
553.72	1090.46
554.07	1097.24
554.43	1109.41
554.78	1111.99
555.13	1111.05
555.49	1103.80
555.84	1094.43
556.19	1090.46
556.55	1083.90
556.90	1071.73
557.26	1072.20
557.61	1078.52
557.96	1073.14
558.32	1085.31
558.67	1088.82
559.02	1094.20
559.37	1096.78
559.73	1087.41
560.08	1087.65
560.43	1084.37
560.79	1072.43
561.14	1073.14
561.49	1083.90
561.85	1068.22
562.20	1065.65
562.55	1075.71
562.90	1075.01
563.26	1073.14
563.61	1081.33
563.96	1088.12
564.32	1091.86
564.67	1086.71
565.02	1084.14
565.37	1088.35
565.73	1088.82
566.08	1084.37
566.43	1089.75
566.78	1089.29
567.14	1083.67
567.49	1088.12
567.84	1082.50
568.19	1085.07
568.54	1086.48
568.90	1089.05
569.25	1085.07
569.60	1082.97
569.95	1081.33
570.31	1076.18
570.66	1083.43
571.01	1087.88
571.36	1093.26
571.71	1086.71
572.06	1089.52
572.42	1074.31
572.77	1066.35
573.12	1078.52
573.47	1090.92
573.82	1085.54
574.18	1094.20
574.53	1100.05
574.88	1092.56
575.23	1093.97
575.58	1101.22
575.93	1106.84
576.28	1098.65
576.64	1092.56
576.99	1085.77
577.34	1087.88
577.69	1086.48
578.04	1089.99
578.39	1088.82
578.74	1078.28
579.09	1072.67
579.44	1071.03
579.80	1060.96
580.15	1060.03
580.50	1069.62
580.85	1075.48
581.20	1078.05
581.55	1089.52
581.90	1089.29
582.25	1089.52
582.60	1095.84
582.95	1091.86
583.30	1087.88
583.65	1097.24
584.00	1102.86
584.35	1092.09
584.71	1085.31
585.06	1086.48
585.41	1076.41
585.76	1065.88
586.11	1060.50
586.46	1069.39
586.81	1069.86
587.16	1084.14
587.51	1084.14
587.86	1093.50
588.21	1097.95
588.56	1099.82
588.91	1093.26
589.26	1095.37
589.61	1099.12
589.96	1097.48
590.31	1097.24
590.66	1096.31
591.01	1095.37
591.36	1095.37
591.71	1090.92
592.06	1103.33
592.41	1098.18
592.76	1095.37
593.10	1089.75
593.45	1083.20
593.80	1072.67
594.15	1076.18
594.50	1084.37
594.85	1074.54
595.20	1079.92
595.55	1080.39
595.90	1079.46
596.25	1074.77
596.60	1083.43
596.95	1085.54
597.30	1087.18
597.64	1138.44
597.99	1136.10
598.34	1126.03
598.69	1121.35
599.04	1111.75
599.39	1057.69
599.74	1058.62
600.09	1069.16
600.44	1072.67
600.78	1085.54
601.13	1088.12
601.48	1098.41
601.83	1102.39
602.18	1107.54
602.53	1096.78
602.88	1105.67
603.22	1088.35
603.57	1090.69
603.92	1080.16
604.27	1079.22
604.62	1069.86
604.97	1079.22
605.31	1070.80
605.66	1084.60
606.01	1081.33
606.36	1076.41
606.71	1064.94
607.05	1067.75
607.40	1053.48
607.75	1062.14
608.10	1062.84
608.44	1077.58
608.79	1077.35
609.14	1077.58
609.49	1078.52
609.84	1087.88
610.18	1090.92
610.53	1086.94
610.88	1089.05
611.23	1095.84
611.57	1091.39
611.92	1090.69
612.27	1092.33
612.62	1097.48
612.96	1089.05
613.31	1085.54
613.66	1076.65
614.00	1078.75
614.35	1083.20
614.70	1090.22
615.05	1091.63
615.39	1093.73
615.74	1089.29
616.09	1081.80
616.43	1075.24
616.78	1071.97
617.13	1068.45
617.47	1062.60
617.82	1059.56
618.17	1049.26
618.51	1053.94
618.86	1062.84
619.21	1070.09
619.55	1071.26
619.90	1078.52
620.25	1077.35
620.59	1078.99
620.94	1082.73
621.29	1082.03
621.63	1083.43
621.98	1092.33
622.32	1095.37
622.67	1090.92
623.02	1100.75
623.36	1106.84
623.71	1099.12
624.05	1087.88
624.40	1086.48
624.75	1078.28
625.09	1071.73
625.44	1067.28
625.78	1069.16
626.13	1077.11
626.48	1080.16
626.82	1076.88
627.17	1086.48
627.51	1083.90
627.86	1089.99
628.20	1087.88
628.55	1098.65
628.89	1094.90
629.24	1095.84
629.58	1085.31
629.93	1092.09
630.28	1081.09
630.62	1077.35
630.97	1087.18
631.31	1088.82
631.66	1078.52
632.00	1073.84
632.35	1070.80
632.69	1071.26
633.04	1065.18
633.38	1068.45
633.73	1073.37
634.07	1077.82
634.42	1065.88
634.76	1066.58
635.11	1064.24
635.45	1070.80
635.79	1066.82
636.14	1071.73
636.48	1085.07
636.83	1083.20
637.17	1069.86
637.52	1079.69
637.86	1077.35
638.21	1073.37
638.55	1074.31
638.89	1085.54
639.24	1080.39
639.58	1083.90
639.93	1078.75
640.27	1080.63
640.61	1086.01
640.96	1093.97
641.30	1083.20
641.65	1080.39
641.99	1077.11
642.33	1071.50
642.68	1065.41
643.02	1079.92
643.37	1078.05
643.71	1090.92
644.05	1090.46
644.40	1094.67
644.74	1082.26
645.08	1082.03
645.43	1070.56
645.77	1070.80
646.11	1053.24
646.46	1058.39
646.80	1068.92
647.14	1071.97
647.49	1069.16
647.83	1089.75
648.17	1094.67
648.52	1090.46
648.86	1088.12
649.20	1093.26
649.55	1087.18
649.89	1086.24
650.23	1086.71
650.57	1094.20
650.92	1091.63
651.26	1082.97
651.60	1090.22
651.95	1086.94
652.29	1083.43
652.63	1097.48
652.97	1105.20
653.32	1092.09
653.66	1100.05
654.00	1091.63
654.34	1070.33
654.69	1072.43
655.03	1069.39
655.37	1068.22
655.71	1068.69
656.05	1072.67
656.40	1075.48
656.74	1079.22
657.08	1064.01
657.42	1060.96
657.76	1066.82
658.11	1066.35
658.45	1068.45
658.79	1084.60
659.13	1095.84
659.47	1095.60
659.82	1093.03
660.16	1104.26
660.50	1100.52
660.84	1098.41
661.18	1092.33
661.52	1090.46
661.87	1086.24
662.21	1079.69
662.55	1075.01
662.89	1087.18
663.23	1083.20
663.57	1072.20
663.91	1077.35
664.25	1084.14
664.60	1068.45
664.94	1064.24
665.28	1062.37
665.62	1064.01
665.96	1060.73
666.30	1073.37
666.64	1075.48
666.98	1091.16
667.32	1084.84
667.66	1090.22
668.01	1091.63
668.35	1100.29
668.69	1089.99
669.03	1091.63
669.37	1088.82
669.71	1076.18
670.05	1070.56
670.39	1067.99
670.73	1070.33
671.07	1075.01
671.41	1084.14
671.75	1088.35
672.09	1100.52
672.43	1103.80
672.77	1099.82
673.11	1101.22
673.45	1103.56
673.79	1093.50
674.13	1083.43
674.47	1074.31
674.81	1069.86
675.15	1070.56
675.49	1075.01
675.83	1091.63
676.17	1094.43
676.51	1094.43
676.85	1093.03
677.19	1089.05
677.53	1074.07
677.87	1077.35
678.21	1072.67
678.55	1067.05
678.89	1069.86
679.23	1073.37
679.57	1076.18
679.90	1084.14
680.24	1078.75
680.58	1078.05
680.92	1081.33
681.26	1078.28
681.60	1083.67
681.94	1097.95
682.28	1099.58
682.62	1097.95
682.96	1101.22
683.29	1093.73
683.63	1087.41
683.97	1075.94
684.31	1081.33
684.65	1084.60
684.99	1094.20
685.33	1100.05
685.67	1122.05
686.00	1110.82
686.34	1101.92
686.68	1089.99
687.02	1083.20
687.36	1068.45
687.70	1067.75
688.03	1065.88
688.37	1070.09
688.71	1069.39
689.05	1076.18
689.39	1091.86
689.72	1097.48
690.06	1099.82
690.40	1105.90
690.74	1093.03
691.08	1086.48
691.41	1092.09
691.75	1094.43
692.09	1093.73
692.43	1100.52
692.76	1106.14
693.10	1101.46
693.44	1094.20
693.78	1096.54
694.11	1096.78
694.45	1084.60
694.79	1079.92
695.13	1075.48
695.46	1067.52
695.80	1076.18
696.14	1087.88
696.48	1099.35
696.81	1098.65
697.15	1097.48
697.49	1090.22
697.82	1082.73
698.16	1081.80
698.50	1085.31
698.83	1081.56
699.17	1088.58
699.51	1081.56
699.84	1072.43
700.18	1074.07
700.52	1078.75
700.85	1080.63
701.19	1088.58
701.53	1091.63
701.86	1091.63
702.20	1086.24
702.54	1069.39
702.87	1064.24
703.21	1067.75
703.55	1066.11
703.88	1078.99
704.22	1089.29
704.55	1094.67
704.89	1085.31
705.23	1089.29
705.56	1086.71
705.90	1083.20
706.23	1084.60
706.57	1087.88
706.91	1084.60
707.24	1083.20
707.58	1078.28
707.91	1078.28
708.25	1080.63
708.58	1085.54
708.92	1081.56
709.26	1079.22
709.59	1081.80
709.93	1078.99
710.26	1074.77
710.60	1073.84
710.93	1086.71
711.27	1074.77
711.60	1069.16
711.94	1070.80
712.27	1071.03
712.61	1067.52
712.94	1069.86
713.28	1069.86
713.61	1064.71
713.95	1067.52
714.28	1063.31
714.62	1062.84
714.95	1072.43
715.29	1076.41
715.62	1071.50
715.96	1074.77
716.29	1075.24
716.63	1063.31
716.96	1051.84
717.29	1056.75
717.63	1050.43
717.96	1050.90
718.30	1057.69
718.63	1066.82
718.97	1066.11
719.30	1075.01
719.63	1078.28
719.97	1079.22
720.30	1081.09
720.64	1075.01
720.97	1070.56
721.30	1076.88
721.64	1071.97
721.97	1064.94
722.31	1071.50
722.64	1077.35
722.97	1070.33
723.31	1088.58
723.64	1109.18
723.97	1115.27
724.31	1114.80
724.64	1126.03
724.98	1115.03
725.31	1111.99
725.64	1101.46
725.98	1094.20
726.31	1086.94
726.64	1086.71
726.97	1078.52
727.31	1088.35
727.64	1088.58
727.97	1080.63
728.31	1079.22
728.64	1086.24
728.97	1080.86
729.31	1089.99
729.64	1092.33
729.97	1098.41
730.30	1097.71
730.64	1092.09
730.97	1085.77
731.30	1094.20
731.63	1089.52
731.97	1078.28
732.30	1085.54
732.63	1079.69
732.96	1076.65
733.30	1080.16
733.63	1081.33
733.96	1078.75
734.29	1088.82
734.63	1082.50
734.96	1093.26
735.29	1084.84
735.62	1087.65
735.95	1082.50
736.29	1095.14
736.62	1084.60
736.95	1101.22
737.28	1100.29
737.61	1107.07
737.94	1105.90
738.28	1101.92
738.61	1098.18
738.94	1099.12
739.27	1087.18
739.60	1075.01
739.93	1072.67
740.27	1071.26
740.60	1069.39
740.93	1086.01
741.26	1086.48
741.59	1081.09
741.92	1078.99
742.25	1082.26
742.58	1079.69
742.91	1088.58
743.25	1103.33
743.58	1100.05
743.91	1094.67
744.24	1083.90
744.57	1070.80
744.90	1057.45
745.23	1060.26
745.56	1065.18
745.89	1064.24
746.22	1065.88
746.55	1077.82
746.88	1075.48
747.21	1073.84
747.54	1082.50
747.87	1084.60
748.20	1086.24
748.53	1083.90
748.87	1075.01
749.20	1072.20
749.53	1075.01
749.86	1069.16
750.19	1080.39
750.52	1088.12
750.85	1093.26
751.18	1095.14
751.51	1097.71
751.84	1090.69
752.16	1083.20
752.49	1082.50
752.82	1079.69
753.15	1081.56
753.48	1087.88
753.81	1095.37
754.14	1089.05
754.47	1085.07
754.80	1081.33
755.13	1075.24
755.46	1074.77
755.79	1069.39
756.12	1081.09
756.45	1084.84
756.78	1093.26
757.11	1092.33
757.43	1101.46
757.76	1105.90
758.09	1108.48
758.42	1103.09
758.75	1107.07
759.08	1103.33
759.41	1097.48
759.74	1080.86
760.07	1075.01
760.39	1072.90
760.72	1077.82
761.05	1070.09
761.38	1082.26
761.71	1089.05
762.04	1098.41
762.36	1092.80
762.69	1102.16
763.02	1096.31
763.35	1094.90
763.68	1086.24
764.01	1094.90
764.33	1096.54
764.66	1098.88
764.99	1089.05
765.32	1088.35
765.65	1083.43
765.97	1080.16
766.30	1079.69
