SpectraSuite Data File
++++++++++++++++++++++++++++++++++++
Date: Mon Aug 26 10:25:57 PDT 2019
User: corrico
Dark Spectrum Present: No
Reference Spectrum Present: No
Number of Sampled Component Spectra: 1
Spectrometers: USB2+H06089
Integration Time (usec): 10000 (USB2+H06089)
Spectra Averaged: 2 (USB2+H06089)
Boxcar Smoothing: 2 (USB2+H06089)
Correct for Electrical Dark: No (USB2+H06089)
Strobe/Lamp Enabled: No (USB2+H06089)
Correct for Detector Non-linearity: No (USB2+H06089)
Correct for Stray Light: No (USB2+H06089)
Number of Pixels in Processed Spectrum: 2048
>>>>>Begin Processed Spectral Data<<<<<
339.70	1059.09
340.07	1059.09
340.45	1015.79
340.82	981.39
341.19	957.05
341.57	923.81
341.94	902.04
342.31	894.08
342.69	898.30
343.06	883.32
343.43	885.42
343.81	903.91
344.18	907.19
344.55	904.15
344.93	910.94
345.30	913.98
345.67	904.38
346.04	918.19
346.42	928.26
346.79	941.60
347.16	947.92
347.54	963.13
347.91	977.17
348.28	985.37
348.65	999.41
349.03	1002.45
349.40	1012.98
349.77	1010.41
350.14	1025.39
350.52	1027.96
350.89	1037.56
351.26	1045.05
351.63	1046.45
352.01	1054.65
352.38	1060.50
352.75	1057.92
353.12	1053.24
353.50	1053.94
353.87	1048.79
354.24	1046.92
354.61	1057.69
354.98	1061.43
355.36	1074.31
355.73	1080.86
356.10	1090.22
356.47	1092.09
356.84	1096.78
357.22	1085.07
357.59	1072.90
357.96	1064.24
358.33	1055.58
358.70	1047.16
359.08	1055.11
359.45	1066.11
359.82	1064.71
360.19	1079.69
360.56	1089.99
360.94	1096.54
361.31	1092.80
361.68	1088.35
362.05	1081.33
362.42	1078.75
362.79	1075.48
363.16	1076.88
363.54	1080.16
363.91	1083.43
364.28	1073.60
364.65	1072.43
365.02	1066.58
365.39	1072.67
365.76	1074.77
366.14	1080.39
366.51	1065.18
366.88	1063.07
367.25	1055.11
367.62	1044.11
367.99	1049.50
368.36	1058.16
368.73	1060.96
369.10	1054.65
369.48	1064.01
369.85	1056.28
370.22	1060.96
370.59	1067.99
370.96	1071.73
371.33	1070.33
371.70	1079.92
372.07	1081.56
372.44	1077.82
372.81	1083.43
373.18	1075.01
373.55	1069.16
373.93	1064.24
374.30	1061.90
374.67	1057.69
375.04	1072.20
375.41	1064.24
375.78	1064.24
376.15	1060.73
376.52	1069.16
376.89	1055.11
377.26	1055.58
377.63	1051.60
378.00	1063.07
378.37	1067.52
378.74	1066.11
379.11	1071.97
379.48	1077.35
379.85	1068.45
380.22	1072.43
380.59	1084.60
380.96	1080.63
381.33	1077.58
381.70	1076.41
382.07	1067.05
382.44	1071.50
382.81	1076.18
383.18	1081.09
383.55	1092.56
383.92	1090.92
384.29	1085.77
384.66	1087.88
385.03	1081.33
385.40	1066.58
385.77	1056.05
386.14	1053.71
386.51	1050.20
386.88	1056.05
387.25	1059.33
387.62	1068.92
387.99	1076.88
388.36	1074.07
388.73	1061.67
389.10	1067.52
389.46	1068.92
389.83	1064.24
390.20	1067.99
390.57	1082.97
390.94	1087.41
391.31	1088.35
391.68	1079.46
392.05	1091.63
392.42	1088.35
392.79	1081.56
393.16	1085.31
393.53	1096.31
393.89	1083.67
394.26	1073.37
394.63	1071.73
395.00	1073.84
395.37	1065.88
395.74	1068.45
396.11	1082.26
396.48	1082.50
396.84	1077.58
397.21	1075.71
397.58	1075.71
397.95	1075.24
398.32	1077.35
398.69	1071.97
399.06	1072.20
399.42	1076.65
399.79	1070.09
400.16	1061.67
400.53	1069.86
400.90	1084.37
401.27	1078.05
401.64	1081.09
402.00	1081.80
402.37	1074.07
402.74	1067.75
403.11	1066.35
403.48	1059.56
403.84	1068.69
404.21	1072.43
404.58	1077.58
404.95	1071.97
405.32	1074.07
405.68	1074.31
406.05	1079.69
406.42	1068.92
406.79	1069.16
407.16	1070.09
407.52	1057.92
407.89	1060.03
408.26	1056.75
408.63	1070.09
408.99	1069.86
409.36	1069.16
409.73	1064.94
410.10	1075.48
410.47	1072.67
410.83	1069.39
411.20	1078.28
411.57	1069.86
411.94	1064.71
412.30	1058.16
412.67	1072.20
413.04	1080.39
413.40	1080.39
413.77	1076.18
414.14	1079.22
414.51	1066.82
414.87	1067.99
415.24	1079.46
415.61	1093.97
415.97	1086.71
416.34	1091.86
416.71	1076.88
417.08	1063.31
417.44	1048.09
417.81	1058.16
418.18	1055.82
418.54	1051.84
418.91	1064.71
419.28	1073.84
419.64	1067.28
420.01	1070.56
420.38	1076.88
420.74	1069.62
421.11	1070.33
421.48	1075.71
421.84	1073.37
422.21	1079.46
422.58	1082.26
422.94	1081.56
423.31	1079.22
423.68	1078.75
424.04	1078.75
424.41	1082.03
424.77	1076.88
425.14	1077.58
425.51	1082.97
425.87	1080.16
426.24	1075.48
426.61	1079.46
426.97	1082.97
427.34	1078.05
427.70	1072.90
428.07	1067.28
428.44	1066.58
428.80	1053.94
429.17	1053.01
429.53	1065.41
429.90	1070.80
430.27	1071.26
430.63	1085.07
431.00	1089.29
431.36	1083.43
431.73	1082.73
432.09	1082.97
432.46	1072.90
432.83	1072.90
433.19	1073.84
433.56	1070.33
433.92	1066.11
434.29	1066.58
434.65	1057.92
435.02	1059.79
435.38	1073.14
435.75	1078.05
436.11	1075.01
436.48	1090.46
436.84	1089.29
437.21	1074.07
437.57	1073.14
437.94	1089.05
438.30	1087.18
438.67	1080.16
439.03	1090.92
439.40	1082.26
439.76	1075.01
440.13	1070.56
440.49	1075.71
440.86	1073.37
441.22	1081.80
441.59	1078.52
441.95	1085.54
442.32	1086.71
442.68	1087.88
443.05	1086.24
443.41	1094.20
443.78	1086.24
444.14	1086.01
444.51	1076.65
444.87	1082.73
445.24	1069.39
445.60	1068.92
445.96	1065.65
446.33	1078.05
446.69	1074.77
447.06	1073.60
447.42	1079.46
447.79	1082.03
448.15	1074.54
448.51	1070.33
448.88	1074.31
449.24	1059.56
449.61	1063.31
449.97	1067.28
450.33	1074.54
450.70	1073.84
451.06	1080.63
451.43	1079.92
451.79	1077.35
452.15	1070.33
452.52	1078.75
452.88	1077.58
453.24	1070.80
453.61	1080.16
453.97	1084.84
454.34	1090.22
454.70	1097.48
455.06	1102.86
455.43	1094.90
455.79	1090.22
456.15	1085.54
456.52	1084.37
456.88	1080.63
457.24	1077.82
457.61	1078.99
457.97	1076.88
458.33	1079.92
458.70	1086.01
459.06	1084.14
459.42	1084.60
459.79	1086.48
460.15	1083.43
460.51	1073.60
460.88	1084.14
461.24	1092.80
461.60	1085.54
461.96	1085.54
462.33	1094.20
462.69	1082.03
463.05	1082.97
463.42	1091.16
463.78	1087.41
464.14	1089.29
464.50	1094.20
464.87	1083.67
465.23	1088.82
465.59	1098.41
465.95	1087.18
466.32	1089.05
466.68	1091.16
467.04	1088.12
467.40	1077.58
467.77	1084.60
468.13	1079.69
468.49	1084.14
468.85	1078.52
469.22	1075.24
469.58	1081.80
469.94	1078.75
470.30	1067.05
470.66	1071.50
471.03	1078.05
471.39	1061.43
471.75	1071.03
472.11	1072.67
472.47	1069.16
472.84	1063.31
473.20	1067.05
473.56	1067.05
473.92	1067.99
474.28	1074.77
474.65	1077.82
475.01	1089.75
475.37	1088.12
475.73	1094.43
476.09	1091.39
476.45	1093.50
476.81	1086.01
477.18	1087.88
477.54	1080.63
477.90	1069.39
478.26	1064.24
478.62	1065.65
478.98	1068.69
479.34	1072.67
479.71	1071.26
480.07	1082.73
480.43	1088.82
480.79	1088.58
481.15	1084.37
481.51	1089.75
481.87	1079.69
482.23	1083.67
482.59	1083.20
482.96	1091.16
483.32	1091.86
483.68	1092.33
484.04	1078.52
484.40	1060.03
484.76	1060.26
485.12	1067.99
485.48	1067.99
485.84	1073.60
486.20	1091.86
486.56	1081.80
486.92	1086.48
487.28	1089.75
487.64	1090.69
488.00	1086.24
488.37	1092.33
488.73	1088.12
489.09	1082.50
489.45	1086.24
489.81	1076.65
490.17	1073.60
490.53	1076.41
490.89	1084.84
491.25	1084.14
491.61	1086.94
491.97	1091.16
492.33	1086.94
492.69	1086.01
493.05	1086.71
493.41	1095.84
493.77	1094.43
494.13	1089.99
494.49	1083.90
494.85	1075.01
495.21	1070.56
495.57	1073.37
495.93	1081.33
496.29	1092.56
496.64	1097.71
497.00	1097.01
497.36	1095.60
497.72	1083.20
498.08	1074.31
498.44	1067.99
498.80	1071.73
499.16	1078.75
499.52	1087.41
499.88	1089.75
500.24	1099.58
500.60	1108.95
500.96	1105.90
501.32	1108.71
501.68	1106.61
502.03	1102.86
502.39	1093.73
502.75	1086.48
503.11	1077.11
503.47	1082.26
503.83	1091.86
504.19	1091.39
504.55	1095.60
504.91	1097.24
505.26	1095.14
505.62	1082.73
505.98	1081.09
506.34	1082.26
506.70	1093.26
507.06	1088.12
507.42	1093.03
507.78	1087.88
508.13	1089.75
508.49	1085.07
508.85	1093.50
509.21	1096.07
509.57	1113.63
509.93	1107.78
510.28	1103.33
510.64	1104.03
511.00	1104.73
511.36	1094.43
511.72	1096.54
512.07	1088.12
512.43	1082.26
512.79	1079.22
513.15	1076.65
513.51	1077.11
513.86	1094.43
514.22	1100.05
514.58	1101.22
514.94	1110.12
515.30	1109.41
515.65	1095.37
516.01	1097.24
516.37	1089.29
516.73	1089.52
517.08	1090.22
517.44	1088.58
517.80	1084.37
518.16	1093.50
518.51	1087.88
518.87	1092.09
519.23	1105.44
519.59	1109.18
519.94	1108.48
520.30	1106.37
520.66	1098.18
521.01	1094.67
521.37	1091.63
521.73	1097.95
522.09	1091.63
522.44	1085.07
522.80	1087.41
523.16	1083.20
523.51	1075.48
523.87	1080.39
524.23	1093.73
524.58	1079.22
524.94	1084.60
525.30	1083.90
525.65	1084.14
526.01	1080.63
526.37	1091.16
526.72	1088.35
527.08	1086.94
527.44	1086.94
527.79	1086.94
528.15	1092.80
528.51	1089.29
528.86	1096.31
529.22	1112.22
529.58	1118.07
529.93	1109.88
530.29	1115.27
530.65	1097.48
531.00	1083.20
531.36	1082.97
531.71	1085.07
532.07	1081.09
532.43	1096.31
532.78	1089.29
533.14	1081.56
533.49	1078.99
533.85	1088.58
534.21	1078.75
534.56	1086.94
534.92	1093.50
535.27	1096.78
535.63	1092.09
535.98	1091.86
536.34	1089.75
536.69	1099.12
537.05	1093.73
537.41	1090.46
537.76	1095.14
538.12	1096.54
538.47	1079.92
538.83	1085.31
539.18	1076.88
539.54	1084.37
539.89	1082.50
540.25	1080.39
540.60	1075.71
540.96	1082.97
541.31	1075.48
541.67	1076.41
542.02	1086.94
542.38	1086.71
542.73	1092.80
543.09	1096.78
543.44	1097.01
543.80	1097.48
544.15	1104.03
544.51	1091.63
544.86	1097.95
545.22	1099.58
545.57	1092.33
545.93	1092.09
546.28	1108.24
546.64	1099.82
546.99	1106.84
547.35	1096.31
547.70	1101.92
548.05	1098.41
548.41	1086.94
548.76	1077.82
549.12	1083.67
549.47	1076.88
549.83	1080.86
550.18	1089.05
550.53	1087.41
550.89	1101.69
551.24	1099.35
551.60	1088.82
551.95	1091.16
552.30	1099.35
552.66	1095.14
553.01	1095.60
553.37	1107.78
553.72	1111.52
554.07	1103.09
554.43	1100.52
554.78	1107.07
555.13	1088.58
555.49	1080.16
555.84	1073.84
556.19	1070.80
556.55	1057.69
556.90	1063.54
557.26	1056.52
557.61	1066.58
557.96	1063.31
558.32	1075.01
558.67	1075.48
559.02	1082.50
559.37	1074.77
559.73	1082.26
560.08	1071.50
560.43	1067.99
560.79	1076.41
561.14	1082.73
561.49	1078.05
561.85	1077.82
562.20	1083.43
562.55	1072.43
562.90	1067.28
563.26	1071.26
563.61	1075.71
563.96	1077.58
564.32	1086.24
564.67	1094.90
565.02	1077.58
565.37	1071.26
565.73	1064.01
566.08	1060.26
566.43	1050.20
566.78	1060.50
567.14	1068.45
567.49	1066.35
567.84	1057.92
568.19	1066.82
568.54	1071.97
568.90	1064.94
569.25	1075.01
569.60	1091.39
569.95	1095.84
570.31	1097.95
570.66	1100.99
571.01	1100.29
571.36	1096.54
571.71	1088.12
572.06	1088.35
572.42	1082.97
572.77	1082.73
573.12	1079.46
573.47	1084.37
573.82	1087.18
574.18	1088.82
574.53	1083.43
574.88	1084.60
575.23	1081.80
575.58	1069.62
575.93	1078.75
576.28	1082.73
576.64	1073.14
576.99	1067.75
577.34	1065.41
577.69	1062.84
578.04	1064.48
578.39	1065.18
578.74	1062.84
579.09	1072.90
579.44	1083.90
579.80	1082.26
580.15	1092.09
580.50	1099.82
580.85	1098.88
581.20	1086.24
581.55	1090.46
581.90	1087.88
582.25	1085.07
582.60	1084.37
582.95	1088.35
583.30	1078.75
583.65	1074.77
584.00	1082.03
584.35	1085.77
584.71	1077.58
585.06	1078.75
585.41	1091.39
585.76	1086.48
586.11	1085.31
586.46	1096.07
586.81	1105.67
587.16	1097.24
587.51	1098.41
587.86	1091.63
588.21	1084.84
588.56	1078.52
588.91	1081.80
589.26	1085.31
589.61	1099.58
589.96	1097.95
590.31	1100.75
590.66	1094.20
591.01	1079.92
591.36	1072.43
591.71	1077.82
592.06	1064.71
592.41	1071.03
592.76	1092.33
593.10	1089.99
593.45	1086.48
593.80	1092.33
594.15	1098.41
594.50	1086.24
594.85	1088.12
595.20	1086.71
595.55	1087.18
595.90	1080.86
596.25	1082.97
596.60	1084.37
596.95	1093.73
597.30	1086.94
597.64	1129.31
597.99	1132.59
598.34	1124.16
598.69	1108.48
599.04	1112.22
599.39	1064.71
599.74	1059.09
600.09	1064.71
600.44	1081.09
600.78	1082.73
601.13	1087.18
601.48	1091.16
601.83	1086.48
602.18	1078.52
602.53	1078.75
602.88	1082.73
603.22	1080.39
603.57	1084.84
603.92	1088.12
604.27	1088.82
604.62	1078.28
604.97	1077.58
605.31	1086.94
605.66	1082.03
606.01	1088.35
606.36	1089.75
606.71	1085.07
607.05	1077.35
607.40	1083.90
607.75	1080.63
608.10	1081.56
608.44	1082.73
608.79	1081.33
609.14	1080.63
609.49	1090.69
609.84	1097.01
610.18	1094.43
610.53	1093.03
610.88	1086.71
611.23	1072.90
611.57	1075.24
611.92	1078.52
612.27	1078.28
612.62	1086.01
612.96	1098.88
613.31	1099.82
613.66	1103.80
614.00	1105.44
614.35	1101.22
614.70	1095.60
615.05	1081.80
615.39	1094.43
615.74	1099.12
616.09	1106.61
616.43	1107.31
616.78	1119.01
617.13	1099.82
617.47	1094.20
617.82	1093.26
618.17	1081.09
618.51	1081.09
618.86	1092.09
619.21	1094.67
619.55	1087.41
619.90	1093.50
620.25	1086.24
620.59	1079.92
620.94	1070.56
621.29	1065.65
621.63	1070.56
621.98	1073.84
622.32	1070.56
622.67	1082.97
623.02	1082.73
623.36	1072.20
623.71	1068.92
624.05	1063.54
624.40	1067.99
624.75	1078.28
625.09	1095.37
625.44	1099.82
625.78	1107.54
626.13	1097.01
626.48	1094.90
626.82	1092.33
627.17	1093.50
627.51	1095.60
627.86	1096.54
628.20	1093.73
628.55	1082.03
628.89	1072.67
629.24	1067.75
629.58	1073.60
629.93	1077.58
630.28	1088.12
630.62	1089.52
630.97	1100.75
631.31	1099.58
631.66	1094.20
632.00	1088.35
632.35	1095.60
632.69	1090.92
633.04	1089.29
633.38	1093.26
633.73	1092.33
634.07	1093.73
634.42	1087.41
634.76	1092.80
635.11	1093.03
635.45	1091.86
635.79	1081.56
636.14	1092.33
636.48	1082.97
636.83	1081.09
637.17	1085.54
637.52	1088.82
637.86	1074.07
638.21	1071.03
638.55	1066.35
638.89	1054.88
639.24	1052.54
639.58	1062.14
639.93	1063.31
640.27	1083.20
640.61	1087.18
640.96	1090.22
641.30	1089.75
641.65	1101.46
641.99	1082.97
642.33	1086.01
642.68	1084.14
643.02	1080.86
643.37	1067.75
643.71	1064.24
644.05	1069.16
644.40	1076.18
644.74	1071.26
645.08	1078.99
645.43	1081.56
645.77	1088.58
646.11	1078.05
646.46	1078.28
646.80	1076.41
647.14	1079.22
647.49	1075.01
647.83	1082.03
648.17	1098.88
648.52	1092.09
648.86	1095.84
649.20	1092.33
649.55	1091.63
649.89	1089.05
650.23	1097.71
650.57	1088.82
650.92	1083.43
651.26	1081.80
651.60	1071.73
651.95	1066.35
652.29	1073.84
652.63	1076.65
652.97	1076.41
653.32	1085.31
653.66	1083.90
654.00	1080.63
654.34	1087.88
654.69	1089.99
655.03	1084.14
655.37	1088.82
655.71	1095.60
656.05	1094.67
656.40	1089.05
656.74	1075.71
657.08	1070.80
657.42	1058.86
657.76	1043.88
658.11	1055.11
658.45	1062.14
658.79	1076.65
659.13	1082.03
659.47	1092.80
659.82	1091.39
660.16	1093.97
660.50	1086.94
660.84	1092.80
661.18	1088.35
661.52	1082.73
661.87	1081.56
662.21	1079.46
662.55	1074.07
662.89	1084.37
663.23	1080.63
663.57	1078.05
663.91	1080.16
664.25	1076.41
664.60	1071.03
664.94	1077.58
665.28	1091.39
665.62	1087.65
665.96	1083.43
666.30	1071.03
666.64	1075.48
666.98	1070.09
667.32	1075.48
667.66	1085.54
668.01	1095.14
668.35	1088.58
668.69	1087.65
669.03	1077.58
669.37	1069.16
669.71	1064.94
670.05	1067.52
670.39	1072.90
670.73	1083.43
671.07	1093.50
671.41	1100.29
671.75	1110.82
672.09	1101.69
672.43	1095.37
672.77	1100.75
673.11	1106.14
673.45	1103.33
673.79	1116.20
674.13	1115.50
674.47	1112.22
674.81	1109.88
675.15	1106.14
675.49	1099.12
675.83	1099.12
676.17	1091.16
676.51	1094.67
676.85	1089.29
677.19	1092.33
677.53	1095.60
677.87	1097.24
678.21	1086.48
678.55	1091.39
678.89	1084.84
679.23	1088.58
679.57	1082.03
679.90	1093.26
680.24	1088.58
680.58	1082.50
680.92	1077.11
681.26	1085.54
681.60	1073.14
681.94	1073.14
682.28	1095.60
682.62	1102.16
682.96	1098.88
683.29	1103.09
683.63	1107.07
683.97	1087.18
684.31	1087.41
684.65	1084.60
684.99	1081.56
685.33	1082.26
685.67	1087.65
686.00	1084.14
686.34	1093.50
686.68	1101.69
687.02	1102.63
687.36	1097.48
687.70	1101.46
688.03	1088.58
688.37	1075.24
688.71	1075.01
689.05	1087.18
689.39	1078.75
689.72	1094.43
690.06	1094.67
690.40	1084.60
690.74	1080.86
691.08	1082.26
691.41	1070.09
691.75	1085.31
692.09	1089.75
692.43	1074.31
692.76	1078.52
693.10	1082.97
693.44	1079.92
693.78	1075.48
694.11	1080.86
694.45	1082.03
694.79	1079.22
695.13	1060.03
695.46	1059.56
695.80	1056.52
696.14	1053.01
696.48	1060.03
696.81	1071.73
697.15	1069.16
697.49	1075.24
697.82	1074.77
698.16	1076.88
698.50	1077.58
698.83	1078.75
699.17	1081.09
699.51	1069.16
699.84	1061.67
700.18	1058.16
700.52	1074.07
700.85	1078.99
701.19	1082.97
701.53	1082.26
701.86	1083.20
702.20	1076.88
702.54	1072.67
702.87	1078.99
703.21	1075.71
703.55	1085.31
703.88	1083.90
704.22	1085.54
704.55	1090.92
704.89	1101.46
705.23	1094.43
705.56	1096.54
705.90	1098.41
706.23	1093.50
706.57	1089.99
706.91	1090.92
707.24	1084.60
707.58	1075.01
707.91	1078.99
708.25	1079.92
708.58	1087.88
708.92	1085.54
709.26	1088.58
709.59	1078.05
709.93	1075.24
710.26	1064.01
710.60	1071.26
710.93	1082.97
711.27	1088.35
711.60	1093.50
711.94	1101.92
712.27	1101.69
712.61	1086.94
712.94	1091.86
713.28	1085.77
713.61	1079.46
713.95	1068.69
714.28	1081.33
714.62	1073.14
714.95	1077.11
715.29	1074.77
715.62	1080.16
715.96	1078.05
716.29	1084.60
716.63	1077.35
716.96	1076.41
717.29	1086.94
717.63	1081.56
717.96	1077.35
718.30	1085.54
718.63	1094.67
718.97	1092.09
719.30	1095.14
719.63	1098.88
719.97	1096.31
720.30	1094.67
720.64	1083.43
720.97	1076.65
721.30	1075.48
721.64	1072.43
721.97	1070.56
722.31	1078.75
722.64	1089.75
722.97	1081.09
723.31	1081.80
723.64	1079.22
723.97	1073.37
724.31	1062.60
724.64	1065.41
724.98	1066.35
725.31	1073.37
725.64	1078.52
725.98	1078.52
726.31	1081.33
726.64	1089.29
726.97	1083.43
727.31	1076.18
727.64	1075.24
727.97	1075.01
728.31	1066.58
728.64	1061.43
728.97	1066.35
729.31	1072.90
729.64	1083.67
729.97	1084.37
730.30	1096.54
730.64	1100.99
730.97	1096.54
731.30	1089.05
731.63	1092.56
731.97	1090.46
732.30	1084.60
732.63	1082.73
732.96	1080.86
733.30	1084.14
733.63	1080.63
733.96	1084.37
734.29	1089.99
734.63	1089.75
734.96	1088.58
735.29	1092.80
735.62	1088.58
735.95	1076.88
736.29	1079.46
736.62	1078.05
736.95	1070.33
737.28	1071.26
737.61	1079.92
737.94	1077.11
738.28	1071.73
738.61	1075.71
738.94	1076.88
739.27	1075.94
739.60	1077.58
739.93	1081.09
740.27	1080.86
740.60	1087.65
740.93	1086.01
741.26	1084.84
741.59	1079.46
741.92	1081.80
742.25	1076.88
742.58	1078.99
742.91	1077.35
743.25	1084.84
743.58	1087.65
743.91	1086.01
744.24	1079.22
744.57	1092.56
744.90	1094.43
745.23	1088.35
745.56	1094.20
745.89	1105.90
746.22	1093.50
746.55	1092.09
746.88	1086.24
747.21	1086.94
747.54	1086.48
747.87	1085.31
748.20	1088.12
748.53	1097.01
748.87	1085.07
749.20	1077.35
749.53	1075.01
749.86	1067.05
750.19	1059.79
750.52	1073.37
750.85	1072.20
751.18	1079.22
751.51	1080.63
751.84	1085.07
752.16	1080.63
752.49	1082.73
752.82	1077.58
753.15	1078.75
753.48	1068.92
753.81	1057.92
754.14	1055.11
754.47	1052.54
754.80	1051.84
755.13	1062.84
755.46	1075.01
755.79	1090.22
756.12	1100.05
756.45	1098.65
756.78	1101.92
757.11	1098.41
757.43	1094.43
757.76	1095.84
758.09	1092.80
758.42	1093.26
758.75	1090.46
759.08	1089.75
759.41	1084.84
759.74	1082.26
760.07	1070.09
760.39	1061.67
760.72	1057.69
761.05	1056.52
761.38	1067.05
761.71	1074.31
762.04	1092.09
762.36	1091.63
762.69	1088.58
763.02	1084.37
763.35	1082.73
763.68	1071.26
764.01	1072.90
764.33	1076.88
764.66	1075.01
764.99	1077.35
765.32	1089.52
765.65	1089.99
765.97	1083.90
766.30	1094.90
