SpectraSuite Data File
++++++++++++++++++++++++++++++++++++
Date: Mon Aug 26 10:25:58 PDT 2019
User: corrico
Dark Spectrum Present: No
Reference Spectrum Present: No
Number of Sampled Component Spectra: 1
Spectrometers: USB2+H06089
Integration Time (usec): 10000 (USB2+H06089)
Spectra Averaged: 2 (USB2+H06089)
Boxcar Smoothing: 2 (USB2+H06089)
Correct for Electrical Dark: No (USB2+H06089)
Strobe/Lamp Enabled: No (USB2+H06089)
Correct for Detector Non-linearity: No (USB2+H06089)
Correct for Stray Light: No (USB2+H06089)
Number of Pixels in Processed Spectrum: 2048
>>>>>Begin Processed Spectral Data<<<<<
339.70	986.54
340.07	986.54
340.45	972.96
340.82	959.62
341.19	942.77
341.57	928.72
341.94	905.55
342.31	902.28
342.69	898.06
343.06	895.25
343.43	899.94
343.81	910.47
344.18	909.06
344.55	918.43
344.93	926.62
345.30	927.32
345.67	925.68
346.04	935.51
346.42	938.55
346.79	943.94
347.16	954.24
347.54	967.58
347.91	983.26
348.28	1003.62
348.65	1018.37
349.03	1017.20
349.40	1022.35
349.77	1021.41
350.14	1012.98
350.52	1016.03
350.89	1024.22
351.26	1034.98
351.63	1046.92
352.01	1053.48
352.38	1060.50
352.75	1070.80
353.12	1074.31
353.50	1080.63
353.87	1081.33
354.24	1078.75
354.61	1079.69
354.98	1076.65
355.36	1082.50
355.73	1085.77
356.10	1092.56
356.47	1086.01
356.84	1087.18
357.22	1074.54
357.59	1078.28
357.96	1074.07
358.33	1083.43
358.70	1080.39
359.08	1083.67
359.45	1088.12
359.82	1093.03
360.19	1082.03
360.56	1078.99
360.94	1077.35
361.31	1072.67
361.68	1070.33
362.05	1079.92
362.42	1086.71
362.79	1090.22
363.16	1077.11
363.54	1075.94
363.91	1075.71
364.28	1072.90
364.65	1075.94
365.02	1089.52
365.39	1093.03
365.76	1091.86
366.14	1100.52
366.51	1085.77
366.88	1081.56
367.25	1076.18
367.62	1064.24
367.99	1051.84
368.36	1056.75
368.73	1060.50
369.10	1060.96
369.48	1074.31
369.85	1074.07
370.22	1072.43
370.59	1073.60
370.96	1077.11
371.33	1082.73
371.70	1086.24
372.07	1092.09
372.44	1082.73
372.81	1080.39
373.18	1084.60
373.55	1082.73
373.93	1077.35
374.30	1077.35
374.67	1075.01
375.04	1056.99
375.41	1054.41
375.78	1058.86
376.15	1065.41
376.52	1063.77
376.89	1068.92
377.26	1064.71
377.63	1075.24
378.00	1070.80
378.37	1082.03
378.74	1082.03
379.11	1097.71
379.48	1087.65
379.85	1096.78
380.22	1083.67
380.59	1081.09
380.96	1068.92
381.33	1073.60
381.70	1064.24
382.07	1075.24
382.44	1084.60
382.81	1088.82
383.18	1085.07
383.55	1085.54
383.92	1080.39
384.29	1076.88
384.66	1086.01
385.03	1089.29
385.40	1085.54
385.77	1091.86
386.14	1088.82
386.51	1082.73
386.88	1081.33
387.25	1081.33
387.62	1072.67
387.99	1062.14
388.36	1058.39
388.73	1054.41
389.10	1057.45
389.46	1057.69
389.83	1066.58
390.20	1069.62
390.57	1072.67
390.94	1070.80
391.31	1065.88
391.68	1062.14
392.05	1068.92
392.42	1075.48
392.79	1073.60
393.16	1078.05
393.53	1087.88
393.89	1077.35
394.26	1071.73
394.63	1080.39
395.00	1079.46
395.37	1078.75
395.74	1077.35
396.11	1076.88
396.48	1077.82
396.84	1078.28
397.21	1079.46
397.58	1087.65
397.95	1099.35
398.32	1089.29
398.69	1096.31
399.06	1090.46
399.42	1088.35
399.79	1069.86
400.16	1082.50
400.53	1067.05
400.90	1071.50
401.27	1070.80
401.64	1080.39
402.00	1068.22
402.37	1082.26
402.74	1080.39
403.11	1075.24
403.48	1070.33
403.84	1077.11
404.21	1068.69
404.58	1063.31
404.95	1062.84
405.32	1063.54
405.68	1063.54
406.05	1060.50
406.42	1064.48
406.79	1060.50
407.16	1054.88
407.52	1044.11
407.89	1060.26
408.26	1054.88
408.63	1057.92
408.99	1063.77
409.36	1077.35
409.73	1071.73
410.10	1078.75
410.47	1080.63
410.83	1078.75
411.20	1075.24
411.57	1072.90
411.94	1074.54
412.30	1078.05
412.67	1082.26
413.04	1088.58
413.40	1088.82
413.77	1089.75
414.14	1094.67
414.51	1090.22
414.87	1084.37
415.24	1081.09
415.61	1086.24
415.97	1084.84
416.34	1082.26
416.71	1087.41
417.08	1087.88
417.44	1078.52
417.81	1072.43
418.18	1071.97
418.54	1070.33
418.91	1070.33
419.28	1067.75
419.64	1078.99
420.01	1083.20
420.38	1079.22
420.74	1083.67
421.11	1092.80
421.48	1073.84
421.84	1079.69
422.21	1074.07
422.58	1069.86
422.94	1065.18
423.31	1070.56
423.68	1073.84
424.04	1073.84
424.41	1080.63
424.77	1082.73
425.14	1080.63
425.51	1085.07
425.87	1102.63
426.24	1102.86
426.61	1099.12
426.97	1107.07
427.34	1096.31
427.70	1078.52
428.07	1075.94
428.44	1077.82
428.80	1079.22
429.17	1081.33
429.53	1081.33
429.90	1085.54
430.27	1076.65
430.63	1071.50
431.00	1063.07
431.36	1074.77
431.73	1063.77
432.09	1075.48
432.46	1076.65
432.83	1078.52
433.19	1077.11
433.56	1080.86
433.92	1068.69
434.29	1068.22
434.65	1067.99
435.02	1062.37
435.38	1062.37
435.75	1068.69
436.11	1075.48
436.48	1082.73
436.84	1089.75
437.21	1091.86
437.57	1096.54
437.94	1095.37
438.30	1087.88
438.67	1085.31
439.03	1086.94
439.40	1081.09
439.76	1079.46
440.13	1081.80
440.49	1071.73
440.86	1069.62
441.22	1070.09
441.59	1071.03
441.95	1065.41
442.32	1069.62
442.68	1073.84
443.05	1075.01
443.41	1072.90
443.78	1079.46
444.14	1087.65
444.51	1077.35
444.87	1077.11
445.24	1068.22
445.60	1069.39
445.96	1058.16
446.33	1062.60
446.69	1058.16
447.06	1063.07
447.42	1059.56
447.79	1067.05
448.15	1062.60
448.51	1068.22
448.88	1067.28
449.24	1063.77
449.61	1058.39
449.97	1067.75
450.33	1063.31
450.70	1066.11
451.06	1080.63
451.43	1071.26
451.79	1072.20
452.15	1078.28
452.52	1075.71
452.88	1069.39
453.24	1082.50
453.61	1077.11
453.97	1081.33
454.34	1092.80
454.70	1095.84
455.06	1093.03
455.43	1094.67
455.79	1085.07
456.15	1072.90
456.52	1067.75
456.88	1064.94
457.24	1059.33
457.61	1064.01
457.97	1065.18
458.33	1055.58
458.70	1061.43
459.06	1064.24
459.42	1065.18
459.79	1066.82
460.15	1082.73
460.51	1091.86
460.88	1090.92
461.24	1084.37
461.60	1081.80
461.96	1080.63
462.33	1067.28
462.69	1071.26
463.05	1079.69
463.42	1079.46
463.78	1074.54
464.14	1082.73
464.50	1077.35
464.87	1067.75
465.23	1071.03
465.59	1071.73
465.95	1075.24
466.32	1079.46
466.68	1080.16
467.04	1081.33
467.40	1083.20
467.77	1082.03
468.13	1078.75
468.49	1078.52
468.85	1083.90
469.22	1080.16
469.58	1067.05
469.94	1069.39
470.30	1073.84
470.66	1072.90
471.03	1071.97
471.39	1073.84
471.75	1069.39
472.11	1077.82
472.47	1073.14
472.84	1071.26
473.20	1079.69
473.56	1086.48
473.92	1077.82
474.28	1079.22
474.65	1088.82
475.01	1082.50
475.37	1086.48
475.73	1088.58
476.09	1090.69
476.45	1082.73
476.81	1086.94
477.18	1074.07
477.54	1072.43
477.90	1065.88
478.26	1067.99
478.62	1064.01
478.98	1066.35
479.34	1062.84
479.71	1064.48
480.07	1061.43
480.43	1067.52
480.79	1067.99
481.15	1068.92
481.51	1070.09
481.87	1083.67
482.23	1078.75
482.59	1082.97
482.96	1080.63
483.32	1082.26
483.68	1066.82
484.04	1075.48
484.40	1072.20
484.76	1077.11
485.12	1071.26
485.48	1082.50
485.84	1082.26
486.20	1088.12
486.56	1097.48
486.92	1097.24
487.28	1082.26
487.64	1068.22
488.00	1071.50
488.37	1065.65
488.73	1070.09
489.09	1086.01
489.45	1100.05
489.81	1092.56
490.17	1076.41
490.53	1076.65
490.89	1070.09
491.25	1068.92
491.61	1079.69
491.97	1087.65
492.33	1089.05
492.69	1088.58
493.05	1087.18
493.41	1067.99
493.77	1071.97
494.13	1067.75
494.49	1076.65
494.85	1077.11
495.21	1090.22
495.57	1084.14
495.93	1095.37
496.29	1088.82
496.64	1085.77
497.00	1079.22
497.36	1089.99
497.72	1079.69
498.08	1082.97
498.44	1078.99
498.80	1093.26
499.16	1096.78
499.52	1099.82
499.88	1097.24
500.24	1102.39
500.60	1093.26
500.96	1093.26
501.32	1095.84
501.68	1098.18
502.03	1095.37
502.39	1096.07
502.75	1091.16
503.11	1081.80
503.47	1074.07
503.83	1076.88
504.19	1075.01
504.55	1067.28
504.91	1066.35
505.26	1071.97
505.62	1072.43
505.98	1073.84
506.34	1081.80
506.70	1089.29
507.06	1086.48
507.42	1079.69
507.78	1085.31
508.13	1081.56
508.49	1089.75
508.85	1094.43
509.21	1099.58
509.57	1086.01
509.93	1089.05
510.28	1075.24
510.64	1062.60
511.00	1061.20
511.36	1056.75
511.72	1059.56
512.07	1067.75
512.43	1078.75
512.79	1094.43
513.15	1106.37
513.51	1104.26
513.86	1109.18
514.22	1115.03
514.58	1105.67
514.94	1107.07
515.30	1098.88
515.65	1089.75
516.01	1084.60
516.37	1087.88
516.73	1082.03
517.08	1091.16
517.44	1103.09
517.80	1108.71
518.16	1101.92
518.51	1107.31
518.87	1101.46
519.23	1100.05
519.59	1089.75
519.94	1085.77
520.30	1080.39
520.66	1087.18
521.01	1078.75
521.37	1078.99
521.73	1083.43
522.09	1087.65
522.44	1082.50
522.80	1078.28
523.16	1080.16
523.51	1086.94
523.87	1093.73
524.23	1102.16
524.58	1113.63
524.94	1114.09
525.30	1111.29
525.65	1109.41
526.01	1103.33
526.37	1110.82
526.72	1114.10
527.08	1117.14
527.44	1115.50
527.79	1116.90
528.15	1103.09
528.51	1096.54
528.86	1096.31
529.22	1086.24
529.58	1087.65
529.93	1094.43
530.29	1099.35
530.65	1090.69
531.00	1102.39
531.36	1100.99
531.71	1099.35
532.07	1102.16
532.43	1103.09
532.78	1093.26
533.14	1083.20
533.49	1084.37
533.85	1084.14
534.21	1082.26
534.56	1087.88
534.92	1093.03
535.27	1082.97
535.63	1077.58
535.98	1087.88
536.34	1092.80
536.69	1094.90
537.05	1091.16
537.41	1097.48
537.76	1086.48
538.12	1091.39
538.47	1098.41
538.83	1108.48
539.18	1103.56
539.54	1108.95
539.89	1098.88
540.25	1098.18
540.60	1091.63
540.96	1089.29
541.31	1089.75
541.67	1093.73
542.02	1086.24
542.38	1086.01
542.73	1092.80
543.09	1098.41
543.44	1101.46
543.80	1100.29
544.15	1105.90
544.51	1098.65
544.86	1084.37
545.22	1076.41
545.57	1082.50
545.93	1075.48
546.28	1080.63
546.64	1083.67
546.99	1079.46
547.35	1073.84
547.70	1078.05
548.05	1071.26
548.41	1081.09
548.76	1092.33
549.12	1093.50
549.47	1104.50
549.83	1105.20
550.18	1094.90
550.53	1085.77
550.89	1096.07
551.24	1084.37
551.60	1080.63
551.95	1088.12
552.30	1086.48
552.66	1076.18
553.01	1080.63
553.37	1082.03
553.72	1076.65
554.07	1079.46
554.43	1071.50
554.78	1074.54
555.13	1084.60
555.49	1079.92
555.84	1078.75
556.19	1092.33
556.55	1090.22
556.90	1088.12
557.26	1091.86
557.61	1088.82
557.96	1075.71
558.32	1074.77
558.67	1067.52
559.02	1069.39
559.37	1077.11
559.73	1084.37
560.08	1074.31
560.43	1083.67
560.79	1087.41
561.14	1083.20
561.49	1084.60
561.85	1084.14
562.20	1075.94
562.55	1070.09
562.90	1068.92
563.26	1077.11
563.61	1083.20
563.96	1085.31
564.32	1091.16
564.67	1092.33
565.02	1079.22
565.37	1082.97
565.73	1086.71
566.08	1081.80
566.43	1081.09
566.78	1083.43
567.14	1076.88
567.49	1083.90
567.84	1091.16
568.19	1094.67
568.54	1102.16
568.90	1107.54
569.25	1097.24
569.60	1084.84
569.95	1083.20
570.31	1080.63
570.66	1075.01
571.01	1069.86
571.36	1075.01
571.71	1078.05
572.06	1070.80
572.42	1066.82
572.77	1076.41
573.12	1071.03
573.47	1067.75
573.82	1061.20
574.18	1071.50
574.53	1061.90
574.88	1064.01
575.23	1064.94
575.58	1078.75
575.93	1078.52
576.28	1081.09
576.64	1073.14
576.99	1062.37
577.34	1059.09
577.69	1058.62
578.04	1060.26
578.39	1074.07
578.74	1078.75
579.09	1081.09
579.44	1091.86
579.80	1092.56
580.15	1095.60
580.50	1104.73
580.85	1100.75
581.20	1089.99
581.55	1090.69
581.90	1083.90
582.25	1073.60
582.60	1075.24
582.95	1079.46
583.30	1078.52
583.65	1083.67
584.00	1093.03
584.35	1098.41
584.71	1089.75
585.06	1092.80
585.41	1085.31
585.76	1079.22
586.11	1069.16
586.46	1071.03
586.81	1067.28
587.16	1072.67
587.51	1074.07
587.86	1082.26
588.21	1077.11
588.56	1086.94
588.91	1085.31
589.26	1075.01
589.61	1074.07
589.96	1071.97
590.31	1053.01
590.66	1053.24
591.01	1058.16
591.36	1058.86
591.71	1066.82
592.06	1077.35
592.41	1081.09
592.76	1084.60
593.10	1080.63
593.45	1068.22
593.80	1064.94
594.15	1067.05
594.50	1069.62
594.85	1075.01
595.20	1080.39
595.55	1083.43
595.90	1068.69
596.25	1075.71
596.60	1076.88
596.95	1088.12
597.30	1091.39
597.64	1164.88
597.99	1159.74
598.34	1150.84
598.69	1149.20
599.04	1143.35
599.39	1083.20
599.74	1088.35
600.09	1085.54
600.44	1089.52
600.78	1097.24
601.13	1088.12
601.48	1091.16
601.83	1099.82
602.18	1092.09
602.53	1082.97
602.88	1086.01
603.22	1078.52
603.57	1076.41
603.92	1079.46
604.27	1085.54
604.62	1084.84
604.97	1082.73
605.31	1091.86
605.66	1088.82
606.01	1083.90
606.36	1077.11
606.71	1074.77
607.05	1068.45
607.40	1070.80
607.75	1074.07
608.10	1079.22
608.44	1076.65
608.79	1079.22
609.14	1075.71
609.49	1084.14
609.84	1089.75
610.18	1093.03
610.53	1094.43
610.88	1104.03
611.23	1096.31
611.57	1098.65
611.92	1108.24
612.27	1109.65
612.62	1104.73
612.96	1100.29
613.31	1100.05
613.66	1097.71
614.00	1089.29
614.35	1080.86
614.70	1081.80
615.05	1076.88
615.39	1073.14
615.74	1073.60
616.09	1083.20
616.43	1083.90
616.78	1082.26
617.13	1084.60
617.47	1084.84
617.82	1083.43
618.17	1089.99
618.51	1099.35
618.86	1088.12
619.21	1083.67
619.55	1086.24
619.90	1083.67
620.25	1088.58
620.59	1102.16
620.94	1106.14
621.29	1100.99
621.63	1094.20
621.98	1071.73
622.32	1066.82
622.67	1070.56
623.02	1069.39
623.36	1072.67
623.71	1082.03
624.05	1080.86
624.40	1078.05
624.75	1073.14
625.09	1085.77
625.44	1088.82
625.78	1089.52
626.13	1088.35
626.48	1096.07
626.82	1079.46
627.17	1077.11
627.51	1076.65
627.86	1077.11
628.20	1072.90
628.55	1077.82
628.89	1076.65
629.24	1070.09
629.58	1059.56
629.93	1063.31
630.28	1061.20
630.62	1070.09
630.97	1077.82
631.31	1087.88
631.66	1077.58
632.00	1078.05
632.35	1067.52
632.69	1072.43
633.04	1070.09
633.38	1081.09
633.73	1075.01
634.07	1067.99
634.42	1060.26
634.76	1062.14
635.11	1066.82
635.45	1077.82
635.79	1086.94
636.14	1088.12
636.48	1084.14
636.83	1080.39
637.17	1074.31
637.52	1078.52
637.86	1084.14
638.21	1083.20
638.55	1080.86
638.89	1086.01
639.24	1078.52
639.58	1071.50
639.93	1076.18
640.27	1075.71
640.61	1075.01
640.96	1075.24
641.30	1076.88
641.65	1074.07
641.99	1073.60
642.33	1069.16
642.68	1073.14
643.02	1075.24
643.37	1082.26
643.71	1084.14
644.05	1089.99
644.40	1091.86
644.74	1098.88
645.08	1097.48
645.43	1102.39
645.77	1098.65
646.11	1092.09
646.46	1087.65
646.80	1085.31
647.14	1085.07
647.49	1085.31
647.83	1079.92
648.17	1068.22
648.52	1064.48
648.86	1063.77
649.20	1061.20
649.55	1069.39
649.89	1064.48
650.23	1077.11
650.57	1071.03
650.92	1074.54
651.26	1071.26
651.60	1084.37
651.95	1078.05
652.29	1076.41
652.63	1063.77
652.97	1065.88
653.32	1057.45
653.66	1049.96
654.00	1056.05
654.34	1068.22
654.69	1066.11
655.03	1076.41
655.37	1086.48
655.71	1087.18
656.05	1088.35
656.40	1089.52
656.74	1080.16
657.08	1076.41
657.42	1070.33
657.76	1066.35
658.11	1071.50
658.45	1074.07
658.79	1075.71
659.13	1071.50
659.47	1073.14
659.82	1071.97
660.16	1069.86
660.50	1063.31
660.84	1059.79
661.18	1071.97
661.52	1071.26
661.87	1071.97
662.21	1075.01
662.55	1085.77
662.89	1076.88
663.23	1085.07
663.57	1095.37
663.91	1094.43
664.25	1086.01
664.60	1081.56
664.94	1069.16
665.28	1065.88
665.62	1060.73
665.96	1063.31
666.30	1068.22
666.64	1071.73
666.98	1067.99
667.32	1074.31
667.66	1073.37
668.01	1071.73
668.35	1072.20
668.69	1072.20
669.03	1067.05
669.37	1074.07
669.71	1074.54
670.05	1074.31
670.39	1075.71
670.73	1075.94
671.07	1079.92
671.41	1085.07
671.75	1085.54
672.09	1083.90
672.43	1095.60
672.77	1100.75
673.11	1097.24
673.45	1094.20
673.79	1099.35
674.13	1098.18
674.47	1078.99
674.81	1069.16
675.15	1074.31
675.49	1069.86
675.83	1062.37
676.17	1079.92
676.51	1089.75
676.85	1090.92
677.19	1087.18
677.53	1097.71
677.87	1082.26
678.21	1082.03
678.55	1074.77
678.89	1081.33
679.23	1069.62
679.57	1074.54
679.90	1074.77
680.24	1088.12
680.58	1090.69
680.92	1082.26
681.26	1085.77
681.60	1078.05
681.94	1066.58
682.28	1056.99
682.62	1071.97
682.96	1067.28
683.29	1073.84
683.63	1076.41
683.97	1083.43
684.31	1077.58
684.65	1072.90
684.99	1072.90
685.33	1073.60
685.67	1084.60
686.00	1083.90
686.34	1091.63
686.68	1092.56
687.02	1097.01
687.36	1085.07
687.70	1101.46
688.03	1095.60
688.37	1098.18
688.71	1099.58
689.05	1097.95
689.39	1087.18
689.72	1103.80
690.06	1097.95
690.40	1091.39
690.74	1097.71
691.08	1096.78
691.41	1086.94
691.75	1086.01
692.09	1077.58
692.43	1073.37
692.76	1070.80
693.10	1075.94
693.44	1081.80
693.78	1088.58
694.11	1089.52
694.45	1088.35
694.79	1080.39
695.13	1073.84
695.46	1076.18
695.80	1079.46
696.14	1083.43
696.48	1083.20
696.81	1076.18
697.15	1075.01
697.49	1067.75
697.82	1063.31
698.16	1060.73
698.50	1069.39
698.83	1077.35
699.17	1087.18
699.51	1090.46
699.84	1099.82
700.18	1097.01
700.52	1085.31
700.85	1080.86
701.19	1086.71
701.53	1085.77
701.86	1089.52
702.20	1091.16
702.54	1090.46
702.87	1083.67
703.21	1075.71
703.55	1068.69
703.88	1069.39
704.22	1066.82
704.55	1068.92
704.89	1075.48
705.23	1080.63
705.56	1091.16
705.90	1086.01
706.23	1084.37
706.57	1078.75
706.91	1085.31
707.24	1088.12
707.58	1097.01
707.91	1099.35
708.25	1094.67
708.58	1095.84
708.92	1085.07
709.26	1083.20
709.59	1081.80
709.93	1089.75
710.26	1085.77
710.60	1093.26
710.93	1085.31
711.27	1088.12
711.60	1089.99
711.94	1090.22
712.27	1089.29
712.61	1088.35
712.94	1080.63
713.28	1081.33
713.61	1082.03
713.95	1068.69
714.28	1070.80
714.62	1071.50
714.95	1073.84
715.29	1076.65
715.62	1086.24
715.96	1092.33
716.29	1099.58
716.63	1092.09
716.96	1081.80
717.29	1073.14
717.63	1066.35
717.96	1064.94
718.30	1071.26
718.63	1079.22
718.97	1086.24
719.30	1092.56
719.63	1088.12
719.97	1092.33
720.30	1086.01
720.64	1096.31
720.97	1093.26
721.30	1089.52
721.64	1079.69
721.97	1077.11
722.31	1058.86
722.64	1067.05
722.97	1064.01
723.31	1070.80
723.64	1078.99
723.97	1093.50
724.31	1082.97
724.64	1089.05
724.98	1088.12
725.31	1073.14
725.64	1059.09
725.98	1068.22
726.31	1064.94
726.64	1057.45
726.97	1071.03
727.31	1078.99
727.64	1077.82
727.97	1095.14
728.31	1099.82
728.64	1100.99
728.97	1085.54
729.31	1092.56
729.64	1086.48
729.97	1086.01
730.30	1070.80
730.64	1086.94
730.97	1082.73
731.30	1080.16
731.63	1069.86
731.97	1090.22
732.30	1076.88
732.63	1064.94
732.96	1063.54
733.30	1073.60
733.63	1069.39
733.96	1078.75
734.29	1086.94
734.63	1090.69
734.96	1096.54
735.29	1087.65
735.62	1084.14
735.95	1079.92
736.29	1077.11
736.62	1081.09
736.95	1082.03
737.28	1090.22
737.61	1086.48
737.94	1086.01
738.28	1082.50
738.61	1082.97
738.94	1073.14
739.27	1083.90
739.60	1080.63
739.93	1072.90
740.27	1078.75
740.60	1081.09
740.93	1069.86
741.26	1078.75
741.59	1084.84
741.92	1081.09
742.25	1082.50
742.58	1090.22
742.91	1080.16
743.25	1075.24
743.58	1074.07
743.91	1082.26
744.24	1087.88
744.57	1083.90
744.90	1084.14
745.23	1086.24
745.56	1083.67
745.89	1076.18
746.22	1082.26
746.55	1082.26
746.88	1072.90
747.21	1077.11
747.54	1076.65
747.87	1075.94
748.20	1069.39
748.53	1079.92
748.87	1064.24
749.20	1069.86
749.53	1072.20
749.86	1076.88
750.19	1084.14
750.52	1093.26
750.85	1086.71
751.18	1089.75
751.51	1091.16
751.84	1092.33
752.16	1090.22
752.49	1083.90
752.82	1071.26
753.15	1081.56
753.48	1075.94
753.81	1083.67
754.14	1091.86
754.47	1095.14
754.80	1082.97
755.13	1089.05
755.46	1082.26
755.79	1079.22
756.12	1086.01
756.45	1091.39
756.78	1083.90
757.11	1090.92
757.43	1089.05
757.76	1086.94
758.09	1087.41
758.42	1091.16
758.75	1078.75
759.08	1078.99
759.41	1078.52
759.74	1080.63
760.07	1071.73
760.39	1075.01
760.72	1082.26
761.05	1083.20
761.38	1083.43
761.71	1083.43
762.04	1088.82
762.36	1083.67
762.69	1082.03
763.02	1071.03
763.35	1072.90
763.68	1071.73
764.01	1074.54
764.33	1078.05
764.66	1097.24
764.99	1098.18
765.32	1101.46
765.65	1096.54
765.97	1094.90
766.30	1079.92
