SpectraSuite Data File
++++++++++++++++++++++++++++++++++++
Date: Mon Aug 26 10:25:57 PDT 2019
User: corrico
Dark Spectrum Present: No
Reference Spectrum Present: No
Number of Sampled Component Spectra: 1
Spectrometers: USB2+H06089
Integration Time (usec): 10000 (USB2+H06089)
Spectra Averaged: 2 (USB2+H06089)
Boxcar Smoothing: 2 (USB2+H06089)
Correct for Electrical Dark: No (USB2+H06089)
Strobe/Lamp Enabled: No (USB2+H06089)
Correct for Detector Non-linearity: No (USB2+H06089)
Correct for Stray Light: No (USB2+H06089)
Number of Pixels in Processed Spectrum: 2048
>>>>>Begin Processed Spectral Data<<<<<
339.70	1061.43
340.07	1061.43
340.45	1032.41
340.82	1012.05
341.19	983.73
341.57	961.49
341.94	939.96
342.31	922.17
342.69	913.98
343.06	911.40
343.43	898.06
343.81	900.64
344.18	908.83
344.55	911.40
344.93	923.81
345.30	941.60
345.67	949.32
346.04	954.94
346.42	964.77
346.79	961.26
347.16	968.75
347.54	981.39
347.91	981.62
348.28	984.20
348.65	1003.86
349.03	994.49
349.40	1000.81
349.77	1020.94
350.14	1034.98
350.52	1048.09
350.89	1060.50
351.26	1060.73
351.63	1056.52
352.01	1055.58
352.38	1047.62
352.75	1054.88
353.12	1069.39
353.50	1077.11
353.87	1081.80
354.24	1085.54
354.61	1087.18
354.98	1080.39
355.36	1081.33
355.73	1079.69
356.10	1074.77
356.47	1076.18
356.84	1091.86
357.22	1098.18
357.59	1094.43
357.96	1095.14
358.33	1098.18
358.70	1079.22
359.08	1082.03
359.45	1090.69
359.82	1095.37
360.19	1089.52
360.56	1100.29
360.94	1089.29
361.31	1084.37
361.68	1083.90
362.05	1085.54
362.42	1078.28
362.79	1068.22
363.16	1057.22
363.54	1052.77
363.91	1055.82
364.28	1053.24
364.65	1058.62
365.02	1063.54
365.39	1063.77
365.76	1060.50
366.14	1057.22
366.51	1055.11
366.88	1058.86
367.25	1066.82
367.62	1078.75
367.99	1082.26
368.36	1092.80
368.73	1091.86
369.10	1083.20
369.48	1067.75
369.85	1068.45
370.22	1063.77
370.59	1063.31
370.96	1057.22
371.33	1054.88
371.70	1048.56
372.07	1052.07
372.44	1051.37
372.81	1063.31
373.18	1068.45
373.55	1092.56
373.93	1087.65
374.30	1093.50
374.67	1083.67
375.04	1076.88
375.41	1054.88
375.78	1052.07
376.15	1051.13
376.52	1053.71
376.89	1066.11
377.26	1068.92
377.63	1069.86
378.00	1067.05
378.37	1073.60
378.74	1080.39
379.11	1087.18
379.48	1096.78
379.85	1093.26
380.22	1086.01
380.59	1079.69
380.96	1087.18
381.33	1091.39
381.70	1089.52
382.07	1096.31
382.44	1084.14
382.81	1072.90
383.18	1067.52
383.55	1077.58
383.92	1065.65
384.29	1068.22
384.66	1063.31
385.03	1062.14
385.40	1060.73
385.77	1071.73
386.14	1071.03
386.51	1064.24
386.88	1064.01
387.25	1056.99
387.62	1053.24
387.99	1060.50
388.36	1066.11
388.73	1061.67
389.10	1064.24
389.46	1064.01
389.83	1067.99
390.20	1078.05
390.57	1073.84
390.94	1078.52
391.31	1082.03
391.68	1074.54
392.05	1063.07
392.42	1064.24
392.79	1065.18
393.16	1064.01
393.53	1068.92
393.89	1072.20
394.26	1074.31
394.63	1077.35
395.00	1073.60
395.37	1065.41
395.74	1065.65
396.11	1067.05
396.48	1060.26
396.84	1056.28
397.21	1060.73
397.58	1063.07
397.95	1064.01
398.32	1069.86
398.69	1075.71
399.06	1082.26
399.42	1082.97
399.79	1094.43
400.16	1088.12
400.53	1096.54
400.90	1093.97
401.27	1095.37
401.64	1082.97
402.00	1081.56
402.37	1075.71
402.74	1070.56
403.11	1071.73
403.48	1070.33
403.84	1073.14
404.21	1069.62
404.58	1069.39
404.95	1071.97
405.32	1078.28
405.68	1077.82
406.05	1078.28
406.42	1079.46
406.79	1077.58
407.16	1074.07
407.52	1073.60
407.89	1079.69
408.26	1086.71
408.63	1076.65
408.99	1077.11
409.36	1086.24
409.73	1077.58
410.10	1068.69
410.47	1077.82
410.83	1069.39
411.20	1065.65
411.57	1070.33
411.94	1078.52
412.30	1070.80
412.67	1078.28
413.04	1069.39
413.40	1075.24
413.77	1069.39
414.14	1071.50
414.51	1063.54
414.87	1071.50
415.24	1053.01
415.61	1052.07
415.97	1059.33
416.34	1070.80
416.71	1067.28
417.08	1080.86
417.44	1085.77
417.81	1090.69
418.18	1089.29
418.54	1099.82
418.91	1102.39
419.28	1102.39
419.64	1096.54
420.01	1097.95
420.38	1079.69
420.74	1073.60
421.11	1071.50
421.48	1072.43
421.84	1071.03
422.21	1077.82
422.58	1077.58
422.94	1076.41
423.31	1069.16
423.68	1067.52
424.04	1065.41
424.41	1071.97
424.77	1065.65
425.14	1073.14
425.51	1070.33
425.87	1075.01
426.24	1061.67
426.61	1073.14
426.97	1068.69
427.34	1065.65
427.70	1064.94
428.07	1072.43
428.44	1074.31
428.80	1072.90
429.17	1076.41
429.53	1065.65
429.90	1068.69
430.27	1064.94
430.63	1076.18
431.00	1080.16
431.36	1092.09
431.73	1092.09
432.09	1087.88
432.46	1077.58
432.83	1082.50
433.19	1084.37
433.56	1081.56
433.92	1085.07
434.29	1089.99
434.65	1078.52
435.02	1074.77
435.38	1075.24
435.75	1077.11
436.11	1071.97
436.48	1076.41
436.84	1073.84
437.21	1081.09
437.57	1086.24
437.94	1095.14
438.30	1095.60
438.67	1109.18
439.03	1110.35
439.40	1107.07
439.76	1107.78
440.13	1102.86
440.49	1093.73
440.86	1090.22
441.22	1083.43
441.59	1071.97
441.95	1073.37
442.32	1075.48
442.68	1072.43
443.05	1072.20
443.41	1075.48
443.78	1085.77
444.14	1080.86
444.51	1078.05
444.87	1077.58
445.24	1075.01
445.60	1070.56
445.96	1079.92
446.33	1083.20
446.69	1088.82
447.06	1097.01
447.42	1101.92
447.79	1094.43
448.15	1087.18
448.51	1082.97
448.88	1075.24
449.24	1079.69
449.61	1082.26
449.97	1087.88
450.33	1086.48
450.70	1085.31
451.06	1079.69
451.43	1072.67
451.79	1064.48
452.15	1071.50
452.52	1074.31
452.88	1067.99
453.24	1074.31
453.61	1082.73
453.97	1074.07
454.34	1068.22
454.70	1074.77
455.06	1069.39
455.43	1064.71
455.79	1066.11
456.15	1066.11
456.52	1059.79
456.88	1072.67
457.24	1075.48
457.61	1076.88
457.97	1079.69
458.33	1082.73
458.70	1073.84
459.06	1072.20
459.42	1069.39
459.79	1080.39
460.15	1086.71
460.51	1087.88
460.88	1088.58
461.24	1087.41
461.60	1087.18
461.96	1086.01
462.33	1089.05
462.69	1098.18
463.05	1102.39
463.42	1096.07
463.78	1080.16
464.14	1072.43
464.50	1072.90
464.87	1076.65
465.23	1073.84
465.59	1078.99
465.95	1086.01
466.32	1076.41
466.68	1079.22
467.04	1082.03
467.40	1089.05
467.77	1085.77
468.13	1086.71
468.49	1080.63
468.85	1075.01
469.22	1067.52
469.58	1084.84
469.94	1082.97
470.30	1076.88
470.66	1084.84
471.03	1095.14
471.39	1085.07
471.75	1088.35
472.11	1086.94
472.47	1075.01
472.84	1065.65
473.20	1056.99
473.56	1067.99
473.92	1077.35
474.28	1089.52
474.65	1089.05
475.01	1083.20
475.37	1069.86
475.73	1065.65
476.09	1070.09
476.45	1058.62
476.81	1068.22
477.18	1067.75
477.54	1070.56
477.90	1066.58
478.26	1082.97
478.62	1083.20
478.98	1089.29
479.34	1086.24
479.71	1087.88
480.07	1084.84
480.43	1078.75
480.79	1077.58
481.15	1089.29
481.51	1094.20
481.87	1099.82
482.23	1106.14
482.59	1107.54
482.96	1098.41
483.32	1088.58
483.68	1087.65
484.04	1091.86
484.40	1090.92
484.76	1093.73
485.12	1096.07
485.48	1100.52
485.84	1102.16
486.20	1102.16
486.56	1102.86
486.92	1097.01
487.28	1086.94
487.64	1077.58
488.00	1078.99
488.37	1076.65
488.73	1077.11
489.09	1082.73
489.45	1086.24
489.81	1090.46
490.17	1086.94
490.53	1094.20
490.89	1088.35
491.25	1089.29
491.61	1091.63
491.97	1092.09
492.33	1088.58
492.69	1097.95
493.05	1092.80
493.41	1085.07
493.77	1082.50
494.13	1080.16
494.49	1081.09
494.85	1082.03
495.21	1082.26
495.57	1097.24
495.93	1098.65
496.29	1094.67
496.64	1087.65
497.00	1093.26
497.36	1084.37
497.72	1084.14
498.08	1081.33
498.44	1096.07
498.80	1087.41
499.16	1087.18
499.52	1087.41
499.88	1084.37
500.24	1081.33
500.60	1083.20
500.96	1081.56
501.32	1079.92
501.68	1084.84
502.03	1076.41
502.39	1075.01
502.75	1074.31
503.11	1075.24
503.47	1064.71
503.83	1078.28
504.19	1084.60
504.55	1085.54
504.91	1092.56
505.26	1110.82
505.62	1097.71
505.98	1089.99
506.34	1094.67
506.70	1091.86
507.06	1078.99
507.42	1092.80
507.78	1091.39
508.13	1081.09
508.49	1081.09
508.85	1082.26
509.21	1070.80
509.57	1071.03
509.93	1081.80
510.28	1083.43
510.64	1084.60
511.00	1092.33
511.36	1092.09
511.72	1092.09
512.07	1087.18
512.43	1086.01
512.79	1078.99
513.15	1091.39
513.51	1092.80
513.86	1109.88
514.22	1110.58
514.58	1111.75
514.94	1112.69
515.30	1116.20
515.65	1101.92
516.01	1106.37
516.37	1112.69
516.73	1101.22
517.08	1099.12
517.44	1100.05
517.80	1110.58
518.16	1110.35
518.51	1113.86
518.87	1114.80
519.23	1110.82
519.59	1107.54
519.94	1098.18
520.30	1103.80
520.66	1101.22
521.01	1104.26
521.37	1099.35
521.73	1109.18
522.09	1101.92
522.44	1105.44
522.80	1104.50
523.16	1108.24
523.51	1107.31
523.87	1108.71
524.23	1106.84
524.58	1107.54
524.94	1095.84
525.30	1084.37
525.65	1097.95
526.01	1098.18
526.37	1098.18
526.72	1102.63
527.08	1108.24
527.44	1104.26
527.79	1099.12
528.15	1112.22
528.51	1118.31
528.86	1123.46
529.22	1112.92
529.58	1122.99
529.93	1116.44
530.29	1107.78
530.65	1109.65
531.00	1107.31
531.36	1090.69
531.71	1085.07
532.07	1089.75
532.43	1081.33
532.78	1085.54
533.14	1097.95
533.49	1088.58
533.85	1081.80
534.21	1080.86
534.56	1088.58
534.92	1087.65
535.27	1097.24
535.63	1096.54
535.98	1103.09
536.34	1096.31
536.69	1086.94
537.05	1085.77
537.41	1084.84
537.76	1078.99
538.12	1077.82
538.47	1082.50
538.83	1078.52
539.18	1075.24
539.54	1082.26
539.89	1082.03
540.25	1086.94
540.60	1093.50
540.96	1107.54
541.31	1111.29
541.67	1108.71
542.02	1107.07
542.38	1105.67
542.73	1102.63
543.09	1097.48
543.44	1099.82
543.80	1094.90
544.15	1091.63
544.51	1089.75
544.86	1088.82
545.22	1093.03
545.57	1092.09
545.93	1093.26
546.28	1098.18
546.64	1094.20
546.99	1093.03
547.35	1100.75
547.70	1105.44
548.05	1092.33
548.41	1093.97
548.76	1083.90
549.12	1076.41
549.47	1078.05
549.83	1082.03
550.18	1076.41
550.53	1084.14
550.89	1075.48
551.24	1077.35
551.60	1078.75
551.95	1083.43
552.30	1086.24
552.66	1097.71
553.01	1088.12
553.37	1099.82
553.72	1096.31
554.07	1086.01
554.43	1078.52
554.78	1082.73
555.13	1069.39
555.49	1078.75
555.84	1087.88
556.19	1095.37
556.55	1097.48
556.90	1104.73
557.26	1097.01
557.61	1100.75
557.96	1104.97
558.32	1096.31
558.67	1090.22
559.02	1085.54
559.37	1074.31
559.73	1072.90
560.08	1076.18
560.43	1087.65
560.79	1092.80
561.14	1096.31
561.49	1079.22
561.85	1078.52
562.20	1075.01
562.55	1079.69
562.90	1085.07
563.26	1107.07
563.61	1105.44
563.96	1096.54
564.32	1086.94
564.67	1084.84
565.02	1078.99
565.37	1085.07
565.73	1085.31
566.08	1089.05
566.43	1090.92
566.78	1094.20
567.14	1084.84
567.49	1092.33
567.84	1090.22
568.19	1094.43
568.54	1085.77
568.90	1093.97
569.25	1085.07
569.60	1083.20
569.95	1074.31
570.31	1077.11
570.66	1082.03
571.01	1088.12
571.36	1095.84
571.71	1096.31
572.06	1094.43
572.42	1095.14
572.77	1092.80
573.12	1099.58
573.47	1095.60
573.82	1098.88
574.18	1094.20
574.53	1089.05
574.88	1077.58
575.23	1077.82
575.58	1070.33
575.93	1067.99
576.28	1069.62
576.64	1075.48
576.99	1072.90
577.34	1076.65
577.69	1073.60
578.04	1077.82
578.39	1080.16
578.74	1084.84
579.09	1085.77
579.44	1091.63
579.80	1090.92
580.15	1082.97
580.50	1083.67
580.85	1074.07
581.20	1073.84
581.55	1074.07
581.90	1086.01
582.25	1086.01
582.60	1086.94
582.95	1078.05
583.30	1079.22
583.65	1074.54
584.00	1070.33
584.35	1070.56
584.71	1077.11
585.06	1075.01
585.41	1072.67
585.76	1067.28
586.11	1070.33
586.46	1064.24
586.81	1069.39
587.16	1075.24
587.51	1086.01
587.86	1091.63
588.21	1097.48
588.56	1099.82
588.91	1097.24
589.26	1089.75
589.61	1081.33
589.96	1081.09
590.31	1078.75
590.66	1084.84
591.01	1098.18
591.36	1110.35
591.71	1110.82
592.06	1106.61
592.41	1088.12
592.76	1074.31
593.10	1066.82
593.45	1071.73
593.80	1074.54
594.15	1095.37
594.50	1103.09
594.85	1108.48
595.20	1103.09
595.55	1105.44
595.90	1095.14
596.25	1089.05
596.60	1079.92
596.95	1082.50
597.30	1069.39
597.64	1119.24
597.99	1129.31
598.34	1141.71
598.69	1138.20
599.04	1145.46
599.39	1091.86
599.74	1084.84
600.09	1076.18
600.44	1079.92
600.78	1087.18
601.13	1092.80
601.48	1087.41
601.83	1087.41
602.18	1079.22
602.53	1076.18
602.88	1082.97
603.22	1096.54
603.57	1085.54
603.92	1082.50
604.27	1076.65
604.62	1065.18
604.97	1054.88
605.31	1078.28
605.66	1082.50
606.01	1083.90
606.36	1085.54
606.71	1088.82
607.05	1080.86
607.40	1077.35
607.75	1079.69
608.10	1082.73
608.44	1085.54
608.79	1086.01
609.14	1096.07
609.49	1089.29
609.84	1089.29
610.18	1087.65
610.53	1085.07
610.88	1087.18
611.23	1090.46
611.57	1086.94
611.92	1085.54
612.27	1086.01
612.62	1081.80
612.96	1089.75
613.31	1088.82
613.66	1096.31
614.00	1095.60
614.35	1092.56
614.70	1093.73
615.05	1094.90
615.39	1088.82
615.74	1100.99
616.09	1097.95
616.43	1086.48
616.78	1088.58
617.13	1087.65
617.47	1074.54
617.82	1082.50
618.17	1088.82
618.51	1085.77
618.86	1098.65
619.21	1105.90
619.55	1101.92
619.90	1102.16
620.25	1104.97
620.59	1098.18
620.94	1101.92
621.29	1105.20
621.63	1099.82
621.98	1098.41
622.32	1093.26
622.67	1077.82
623.02	1082.03
623.36	1087.18
623.71	1087.65
624.05	1088.58
624.40	1102.16
624.75	1091.63
625.09	1087.41
625.44	1089.99
625.78	1093.26
626.13	1085.31
626.48	1094.43
626.82	1095.60
627.17	1090.46
627.51	1089.52
627.86	1098.65
628.20	1096.07
628.55	1092.56
628.89	1098.88
629.24	1091.63
629.58	1087.88
629.93	1082.26
630.28	1083.20
630.62	1083.90
630.97	1088.58
631.31	1083.20
631.66	1085.31
632.00	1095.60
632.35	1088.82
632.69	1086.48
633.04	1086.24
633.38	1092.33
633.73	1082.26
634.07	1086.48
634.42	1086.48
634.76	1088.58
635.11	1080.86
635.45	1087.88
635.79	1086.01
636.14	1087.41
636.48	1081.56
636.83	1087.41
637.17	1086.24
637.52	1075.71
637.86	1074.77
638.21	1075.01
638.55	1070.56
638.89	1066.58
639.24	1071.26
639.58	1074.77
639.93	1071.73
640.27	1082.50
640.61	1082.97
640.96	1081.33
641.30	1073.84
641.65	1073.60
641.99	1068.69
642.33	1077.35
642.68	1081.33
643.02	1080.63
643.37	1084.60
643.71	1088.58
644.05	1081.56
644.40	1084.60
644.74	1094.20
645.08	1085.07
645.43	1069.62
645.77	1069.62
646.11	1069.86
646.46	1070.80
646.80	1076.41
647.14	1077.58
647.49	1082.73
647.83	1087.88
648.17	1083.67
648.52	1097.48
648.86	1102.16
649.20	1095.84
649.55	1081.56
649.89	1083.90
650.23	1076.65
650.57	1079.22
650.92	1075.01
651.26	1089.75
651.60	1085.54
651.95	1092.09
652.29	1084.14
652.63	1084.60
652.97	1089.52
653.32	1094.90
653.66	1093.26
654.00	1098.18
654.34	1096.54
654.69	1088.12
655.03	1089.99
655.37	1080.16
655.71	1091.16
656.05	1097.48
656.40	1092.80
656.74	1081.56
657.08	1083.67
657.42	1076.41
657.76	1081.33
658.11	1083.90
658.45	1089.52
658.79	1083.90
659.13	1087.41
659.47	1084.37
659.82	1072.90
660.16	1066.11
660.50	1076.88
660.84	1065.41
661.18	1067.52
661.52	1071.50
661.87	1082.73
662.21	1069.16
662.55	1073.84
662.89	1066.58
663.23	1080.63
663.57	1075.48
663.91	1088.58
664.25	1093.50
664.60	1097.24
664.94	1095.14
665.28	1096.54
665.62	1093.50
665.96	1082.26
666.30	1081.80
666.64	1076.88
666.98	1080.16
667.32	1085.54
667.66	1095.84
668.01	1090.46
668.35	1095.84
668.69	1083.20
669.03	1078.75
669.37	1076.18
669.71	1075.48
670.05	1071.97
670.39	1081.56
670.73	1086.94
671.07	1088.82
671.41	1088.82
671.75	1078.28
672.09	1076.88
672.43	1087.88
672.77	1088.58
673.11	1098.65
673.45	1104.97
673.79	1110.58
674.13	1087.41
674.47	1086.24
674.81	1076.18
675.15	1076.88
675.49	1066.11
675.83	1080.39
676.17	1072.20
676.51	1075.01
676.85	1076.18
677.19	1079.69
677.53	1067.75
677.87	1067.05
678.21	1071.97
678.55	1077.35
678.89	1079.92
679.23	1088.58
679.57	1101.69
679.90	1101.46
680.24	1096.31
680.58	1090.69
680.92	1083.90
681.26	1080.16
681.60	1078.99
681.94	1069.86
682.28	1084.37
682.62	1091.63
682.96	1096.54
683.29	1105.20
683.63	1116.20
683.97	1104.03
684.31	1096.54
684.65	1087.41
684.99	1075.71
685.33	1077.35
685.67	1086.94
686.00	1094.20
686.34	1095.37
686.68	1103.09
687.02	1107.07
687.36	1101.69
687.70	1097.71
688.03	1103.09
688.37	1100.29
688.71	1086.94
689.05	1095.14
689.39	1085.54
689.72	1075.01
690.06	1074.07
690.40	1082.26
690.74	1062.14
691.08	1076.88
691.41	1081.09
691.75	1080.16
692.09	1080.16
692.43	1089.75
692.76	1097.24
693.10	1095.37
693.44	1089.99
693.78	1088.12
694.11	1092.56
694.45	1075.24
694.79	1079.92
695.13	1091.86
695.46	1091.86
695.80	1088.35
696.14	1083.67
696.48	1086.24
696.81	1080.39
697.15	1075.94
697.49	1075.24
697.82	1082.97
698.16	1082.26
698.50	1076.18
698.83	1075.94
699.17	1078.28
699.51	1075.01
699.84	1070.56
700.18	1073.60
700.52	1076.41
700.85	1073.14
701.19	1076.18
701.53	1080.39
701.86	1068.92
702.20	1068.69
702.54	1069.62
702.87	1068.69
703.21	1065.88
703.55	1077.35
703.88	1075.94
704.22	1081.80
704.55	1092.09
704.89	1087.18
705.23	1086.94
705.56	1080.39
705.90	1073.14
706.23	1068.22
706.57	1077.82
706.91	1078.52
707.24	1086.71
707.58	1088.58
707.91	1089.99
708.25	1088.35
708.58	1089.99
708.92	1088.58
709.26	1084.37
709.59	1084.84
709.93	1083.67
710.26	1093.03
710.60	1092.56
710.93	1099.82
711.27	1095.14
711.60	1093.50
711.94	1082.50
712.27	1082.26
712.61	1075.71
712.94	1075.48
713.28	1074.54
713.61	1068.22
713.95	1068.69
714.28	1068.22
714.62	1067.05
714.95	1074.77
715.29	1078.28
715.62	1074.54
715.96	1074.07
716.29	1081.33
716.63	1067.75
716.96	1071.03
717.29	1078.05
717.63	1086.94
717.96	1075.94
718.30	1076.18
718.63	1076.88
718.97	1064.24
719.30	1059.33
719.63	1068.69
719.97	1074.54
720.30	1076.41
720.64	1088.82
720.97	1087.88
721.30	1080.16
721.64	1087.88
721.97	1084.37
722.31	1078.99
722.64	1081.09
722.97	1081.09
723.31	1072.43
723.64	1075.24
723.97	1083.90
724.31	1078.05
724.64	1076.41
724.98	1076.18
725.31	1082.26
725.64	1071.73
725.98	1073.60
726.31	1083.67
726.64	1085.77
726.97	1086.71
727.31	1090.69
727.64	1089.52
727.97	1086.24
728.31	1086.48
728.64	1079.69
728.97	1073.37
729.31	1079.22
729.64	1071.03
729.97	1064.48
730.30	1060.50
730.64	1064.48
730.97	1070.56
731.30	1070.33
731.63	1079.22
731.97	1080.16
732.30	1085.07
732.63	1084.37
732.96	1089.29
733.30	1089.05
733.63	1088.12
733.96	1092.09
734.29	1080.63
734.63	1086.71
734.96	1075.94
735.29	1082.73
735.62	1077.82
735.95	1086.01
736.29	1078.52
736.62	1077.58
736.95	1069.39
737.28	1069.16
737.61	1081.33
737.94	1089.75
738.28	1091.63
738.61	1091.63
738.94	1097.48
739.27	1076.88
739.60	1068.92
739.93	1070.56
740.27	1077.35
740.60	1068.45
740.93	1075.01
741.26	1064.71
741.59	1066.35
741.92	1062.14
742.25	1060.03
742.58	1053.94
742.91	1071.26
743.25	1067.52
743.58	1074.77
743.91	1075.24
744.24	1080.16
744.57	1067.28
744.90	1072.43
745.23	1068.69
745.56	1080.63
745.89	1079.69
746.22	1090.69
746.55	1089.29
746.88	1079.69
747.21	1080.86
747.54	1075.94
747.87	1070.80
748.20	1081.33
748.53	1087.88
748.87	1083.67
749.20	1093.73
749.53	1094.20
749.86	1089.05
750.19	1097.01
750.52	1089.05
750.85	1089.05
751.18	1100.99
751.51	1098.18
751.84	1083.90
752.16	1092.56
752.49	1092.09
752.82	1086.48
753.15	1095.60
753.48	1108.24
753.81	1103.56
754.14	1097.95
754.47	1097.01
754.80	1082.73
755.13	1076.41
755.46	1078.52
755.79	1078.28
756.12	1066.11
756.45	1064.01
756.78	1061.43
757.11	1063.77
757.43	1067.75
757.76	1075.71
758.09	1093.26
758.42	1092.09
758.75	1083.90
759.08	1080.86
759.41	1085.31
759.74	1074.31
760.07	1088.82
760.39	1100.05
760.72	1094.20
761.05	1090.22
761.38	1091.39
761.71	1086.94
762.04	1071.73
762.36	1075.01
762.69	1082.73
763.02	1079.92
763.35	1079.69
763.68	1091.86
764.01	1099.58
764.33	1089.99
764.66	1087.18
764.99	1075.94
765.32	1069.16
765.65	1070.33
765.97	1075.48
766.30	1073.37
