SpectraSuite Data File
++++++++++++++++++++++++++++++++++++
Date: Mon Aug 26 10:25:57 PDT 2019
User: corrico
Dark Spectrum Present: No
Reference Spectrum Present: No
Number of Sampled Component Spectra: 1
Spectrometers: USB2+H06089
Integration Time (usec): 10000 (USB2+H06089)
Spectra Averaged: 2 (USB2+H06089)
Boxcar Smoothing: 2 (USB2+H06089)
Correct for Electrical Dark: No (USB2+H06089)
Strobe/Lamp Enabled: No (USB2+H06089)
Correct for Detector Non-linearity: No (USB2+H06089)
Correct for Stray Light: No (USB2+H06089)
Number of Pixels in Processed Spectrum: 2048
>>>>>Begin Processed Spectral Data<<<<<
339.70	1008.77
340.07	1008.77
340.45	989.58
340.82	967.34
341.19	950.96
341.57	926.38
341.94	915.62
342.31	903.68
342.69	909.30
343.06	906.49
343.43	914.45
343.81	918.66
344.18	931.07
344.55	927.79
344.93	932.70
345.30	929.66
345.67	928.26
346.04	921.70
346.42	925.45
346.79	930.83
347.16	951.90
347.54	959.39
347.91	968.05
348.28	979.05
348.65	992.39
349.03	995.43
349.40	1014.62
349.77	1033.35
350.14	1046.92
350.52	1050.90
350.89	1049.50
351.26	1047.16
351.63	1039.90
352.01	1043.88
352.38	1044.35
352.75	1057.22
353.12	1064.71
353.50	1075.24
353.87	1079.46
354.24	1081.56
354.61	1077.82
354.98	1073.60
355.36	1078.99
355.73	1081.09
356.10	1078.52
356.47	1069.39
356.84	1071.73
357.22	1061.43
357.59	1060.73
357.96	1072.90
358.33	1078.28
358.70	1078.28
359.08	1081.80
359.45	1070.80
359.82	1049.26
360.19	1054.41
360.56	1043.88
360.94	1045.05
361.31	1047.39
361.68	1058.62
362.05	1054.18
362.42	1060.50
362.79	1071.26
363.16	1082.97
363.54	1086.01
363.91	1092.33
364.28	1092.09
364.65	1085.07
365.02	1079.69
365.39	1077.82
365.76	1084.37
366.14	1080.63
366.51	1078.52
366.88	1077.11
367.25	1075.48
367.62	1072.20
367.99	1083.20
368.36	1074.07
368.73	1065.88
369.10	1064.48
369.48	1049.96
369.85	1048.09
370.22	1055.82
370.59	1058.62
370.96	1060.50
371.33	1078.52
371.70	1079.92
372.07	1089.75
372.44	1091.86
372.81	1092.09
373.18	1088.12
373.55	1081.80
373.93	1077.11
374.30	1085.07
374.67	1082.03
375.04	1070.33
375.41	1073.37
375.78	1070.33
376.15	1071.03
376.52	1067.99
376.89	1065.65
377.26	1065.88
377.63	1064.48
378.00	1054.18
378.37	1059.79
378.74	1055.82
379.11	1050.43
379.48	1047.86
379.85	1047.39
380.22	1042.94
380.59	1058.16
380.96	1060.96
381.33	1061.90
381.70	1060.26
382.07	1067.52
382.44	1059.56
382.81	1056.52
383.18	1065.18
383.55	1069.86
383.92	1064.48
384.29	1067.05
384.66	1069.62
385.03	1065.41
385.40	1065.65
385.77	1065.88
386.14	1070.56
386.51	1067.99
386.88	1055.11
387.25	1053.48
387.62	1060.73
387.99	1060.96
388.36	1063.31
388.73	1068.69
389.10	1072.43
389.46	1073.60
389.83	1073.60
390.20	1071.97
390.57	1074.31
390.94	1079.46
391.31	1073.37
391.68	1072.90
392.05	1074.54
392.42	1071.97
392.79	1062.84
393.16	1067.99
393.53	1069.39
393.89	1075.94
394.26	1091.16
394.63	1091.16
395.00	1089.05
395.37	1087.18
395.74	1081.33
396.11	1067.28
396.48	1083.90
396.84	1076.65
397.21	1069.86
397.58	1073.14
397.95	1067.99
398.32	1052.30
398.69	1056.28
399.06	1064.48
399.42	1063.54
399.79	1071.50
400.16	1077.82
400.53	1077.58
400.90	1077.82
401.27	1078.75
401.64	1070.09
402.00	1076.18
402.37	1082.50
402.74	1086.48
403.11	1093.97
403.48	1108.48
403.84	1097.24
404.21	1093.73
404.58	1086.94
404.95	1088.12
405.32	1086.01
405.68	1077.82
406.05	1077.35
406.42	1073.37
406.79	1061.43
407.16	1062.37
407.52	1071.73
407.89	1075.24
408.26	1082.03
408.63	1086.71
408.99	1084.60
409.36	1086.24
409.73	1080.86
410.10	1080.16
410.47	1072.90
410.83	1061.43
411.20	1062.14
411.57	1068.69
411.94	1062.37
412.30	1060.26
412.67	1069.16
413.04	1064.48
413.40	1062.14
413.77	1071.03
414.14	1074.31
414.51	1081.33
414.87	1072.67
415.24	1070.33
415.61	1060.96
415.97	1066.35
416.34	1057.69
416.71	1071.73
417.08	1065.18
417.44	1066.82
417.81	1062.14
418.18	1061.43
418.54	1056.75
418.91	1072.90
419.28	1066.35
419.64	1074.54
420.01	1068.45
420.38	1063.31
420.74	1055.11
421.11	1058.86
421.48	1060.50
421.84	1062.60
422.21	1072.67
422.58	1071.03
422.94	1078.52
423.31	1073.14
423.68	1080.63
424.04	1082.03
424.41	1088.12
424.77	1081.80
425.14	1080.39
425.51	1077.58
425.87	1078.05
426.24	1076.18
426.61	1082.50
426.97	1077.82
427.34	1082.26
427.70	1073.14
428.07	1065.65
428.44	1059.79
428.80	1068.92
429.17	1069.86
429.53	1071.97
429.90	1070.56
430.27	1070.09
430.63	1077.82
431.00	1067.99
431.36	1063.31
431.73	1067.28
432.09	1075.01
432.46	1060.96
432.83	1062.14
433.19	1061.20
433.56	1069.62
433.92	1067.99
434.29	1068.22
434.65	1062.37
435.02	1069.62
435.38	1059.09
435.75	1052.54
436.11	1055.58
436.48	1065.65
436.84	1063.77
437.21	1071.97
437.57	1077.58
437.94	1082.50
438.30	1087.41
438.67	1093.26
439.03	1097.01
439.40	1091.39
439.76	1078.28
440.13	1070.33
440.49	1064.94
440.86	1055.11
441.22	1065.88
441.59	1072.90
441.95	1082.26
442.32	1088.35
442.68	1098.41
443.05	1096.78
443.41	1094.90
443.78	1084.84
444.14	1068.69
444.51	1062.37
444.87	1060.26
445.24	1057.69
445.60	1052.07
445.96	1054.18
446.33	1050.67
446.69	1052.07
447.06	1055.11
447.42	1074.77
447.79	1091.63
448.15	1098.41
448.51	1104.26
448.88	1099.58
449.24	1083.43
449.61	1072.43
449.97	1069.39
450.33	1065.88
450.70	1067.05
451.06	1071.97
451.43	1076.18
451.79	1075.71
452.15	1062.84
452.52	1056.05
452.88	1052.77
453.24	1048.56
453.61	1038.03
453.97	1047.62
454.34	1062.60
454.70	1074.54
455.06	1079.46
455.43	1084.37
455.79	1080.63
456.15	1073.14
456.52	1065.88
456.88	1062.84
457.24	1066.11
457.61	1070.80
457.97	1074.31
458.33	1074.31
458.70	1074.77
459.06	1071.97
459.42	1063.77
459.79	1065.18
460.15	1068.69
460.51	1067.99
460.88	1081.80
461.24	1085.54
461.60	1096.78
461.96	1085.31
462.33	1085.54
462.69	1071.97
463.05	1074.31
463.42	1063.54
463.78	1068.45
464.14	1064.24
464.50	1067.52
464.87	1073.60
465.23	1066.82
465.59	1066.11
465.95	1068.92
466.32	1075.01
466.68	1069.16
467.04	1076.41
467.40	1083.90
467.77	1092.09
468.13	1085.77
468.49	1073.84
468.85	1075.24
469.22	1083.90
469.58	1093.97
469.94	1089.29
470.30	1104.73
470.66	1106.14
471.03	1095.84
471.39	1074.54
471.75	1075.71
472.11	1065.65
472.47	1060.03
472.84	1061.67
473.20	1062.60
473.56	1066.58
473.92	1072.67
474.28	1075.01
474.65	1072.20
475.01	1073.37
475.37	1079.92
475.73	1079.46
476.09	1079.92
476.45	1073.60
476.81	1072.90
477.18	1068.69
477.54	1072.67
477.90	1071.97
478.26	1075.48
478.62	1077.35
478.98	1072.43
479.34	1066.58
479.71	1063.07
480.07	1066.58
480.43	1078.99
480.79	1081.09
481.15	1080.39
481.51	1094.43
481.87	1088.58
482.23	1091.39
482.59	1097.24
482.96	1099.12
483.32	1087.65
483.68	1096.31
484.04	1085.31
484.40	1087.65
484.76	1090.46
485.12	1095.60
485.48	1094.90
485.84	1095.37
486.20	1082.50
486.56	1078.05
486.92	1065.65
487.28	1065.18
487.64	1061.90
488.00	1074.54
488.37	1072.43
488.73	1077.58
489.09	1070.09
489.45	1071.50
489.81	1058.62
490.17	1057.22
490.53	1057.69
490.89	1065.41
491.25	1067.28
491.61	1070.09
491.97	1073.14
492.33	1074.31
492.69	1068.22
493.05	1069.86
493.41	1068.69
493.77	1070.33
494.13	1081.09
494.49	1081.33
494.85	1076.65
495.21	1086.71
495.57	1094.20
495.93	1089.05
496.29	1102.39
496.64	1095.84
497.00	1083.67
497.36	1079.22
497.72	1077.82
498.08	1059.79
498.44	1077.82
498.80	1089.29
499.16	1079.22
499.52	1075.24
499.88	1082.26
500.24	1068.69
500.60	1067.75
500.96	1071.50
501.32	1063.07
501.68	1059.79
502.03	1068.69
502.39	1057.69
502.75	1060.03
503.11	1068.22
503.47	1073.14
503.83	1066.58
504.19	1075.71
504.55	1078.05
504.91	1076.88
505.26	1075.01
505.62	1072.43
505.98	1078.75
506.34	1079.92
506.70	1081.56
507.06	1083.43
507.42	1083.43
507.78	1074.31
508.13	1072.43
508.49	1077.58
508.85	1079.92
509.21	1079.92
509.57	1081.33
509.93	1083.90
510.28	1082.97
510.64	1086.24
511.00	1094.43
511.36	1087.41
511.72	1079.46
512.07	1077.11
512.43	1078.99
512.79	1087.18
513.15	1102.63
513.51	1114.80
513.86	1115.03
514.22	1105.90
514.58	1087.41
514.94	1084.84
515.30	1087.41
515.65	1096.07
516.01	1101.69
516.37	1104.03
516.73	1097.24
517.08	1092.80
517.44	1092.33
517.80	1084.37
518.16	1090.22
518.51	1090.22
518.87	1082.73
519.23	1078.05
519.59	1087.65
519.94	1095.60
520.30	1097.01
520.66	1111.05
521.01	1110.12
521.37	1104.50
521.73	1101.69
522.09	1104.97
522.44	1094.20
522.80	1101.22
523.16	1097.24
523.51	1093.73
523.87	1090.92
524.23	1092.80
524.58	1088.82
524.94	1084.14
525.30	1082.03
525.65	1095.60
526.01	1108.24
526.37	1105.20
526.72	1118.31
527.08	1129.31
527.44	1120.18
527.79	1107.07
528.15	1103.09
528.51	1102.39
528.86	1097.24
529.22	1095.60
529.58	1097.95
529.93	1108.95
530.29	1118.78
530.65	1123.22
531.00	1125.56
531.36	1130.48
531.71	1123.46
532.07	1114.56
532.43	1099.58
532.78	1099.82
533.14	1097.48
533.49	1100.29
533.85	1105.90
534.21	1108.48
534.56	1104.03
534.92	1102.63
535.27	1086.01
535.63	1079.46
535.98	1088.82
536.34	1085.31
536.69	1077.11
537.05	1082.97
537.41	1083.67
537.76	1075.48
538.12	1075.01
538.47	1084.37
538.83	1084.60
539.18	1088.35
539.54	1092.33
539.89	1091.16
540.25	1083.90
540.60	1086.24
540.96	1086.24
541.31	1073.60
541.67	1086.71
542.02	1083.43
542.38	1088.58
542.73	1080.39
543.09	1096.31
543.44	1094.20
543.80	1093.73
544.15	1088.35
544.51	1094.43
544.86	1094.43
545.22	1093.50
545.57	1099.35
545.93	1102.86
546.28	1099.82
546.64	1092.80
546.99	1086.48
547.35	1082.73
547.70	1077.82
548.05	1074.77
548.41	1074.31
548.76	1075.94
549.12	1073.14
549.47	1086.01
549.83	1086.01
550.18	1080.39
550.53	1077.58
550.89	1084.60
551.24	1074.31
551.60	1072.43
551.95	1084.37
552.30	1090.69
552.66	1093.97
553.01	1094.67
553.37	1100.99
553.72	1099.12
554.07	1101.69
554.43	1099.82
554.78	1090.92
555.13	1086.24
555.49	1070.09
555.84	1055.35
556.19	1056.99
556.55	1067.75
556.90	1071.26
557.26	1077.11
557.61	1083.67
557.96	1075.48
558.32	1070.56
558.67	1069.16
559.02	1069.16
559.37	1065.18
559.73	1074.31
560.08	1081.56
560.43	1085.31
560.79	1092.33
561.14	1098.65
561.49	1085.07
561.85	1080.63
562.20	1069.39
562.55	1069.39
562.90	1067.05
563.26	1084.14
563.61	1083.67
563.96	1088.82
564.32	1085.07
564.67	1085.77
565.02	1078.75
565.37	1075.94
565.73	1068.45
566.08	1055.82
566.43	1053.01
566.78	1059.79
567.14	1058.86
567.49	1060.96
567.84	1067.52
568.19	1075.48
568.54	1065.65
568.90	1078.52
569.25	1089.29
569.60	1097.24
569.95	1103.09
570.31	1101.69
570.66	1088.12
571.01	1080.16
571.36	1074.77
571.71	1069.62
572.06	1066.11
572.42	1071.03
572.77	1063.07
573.12	1067.28
573.47	1062.37
573.82	1078.75
574.18	1076.41
574.53	1087.65
574.88	1094.90
575.23	1098.88
575.58	1089.75
575.93	1090.22
576.28	1092.80
576.64	1090.69
576.99	1085.54
577.34	1085.07
577.69	1092.33
578.04	1084.84
578.39	1086.01
578.74	1082.97
579.09	1084.14
579.44	1074.31
579.80	1082.97
580.15	1089.05
580.50	1097.71
580.85	1098.65
581.20	1108.24
581.55	1115.50
581.90	1106.37
582.25	1102.86
582.60	1092.09
582.95	1085.07
583.30	1074.54
583.65	1069.62
584.00	1060.26
584.35	1067.99
584.71	1062.60
585.06	1058.86
585.41	1061.43
585.76	1064.01
586.11	1070.56
586.46	1076.88
586.81	1080.39
587.16	1089.05
587.51	1090.22
587.86	1077.82
588.21	1084.37
588.56	1080.63
588.91	1078.52
589.26	1079.46
589.61	1085.07
589.96	1078.05
590.31	1082.97
590.66	1077.35
591.01	1087.41
591.36	1092.33
591.71	1091.63
592.06	1098.41
592.41	1093.73
592.76	1090.92
593.10	1087.41
593.45	1092.33
593.80	1081.33
594.15	1080.39
594.50	1071.73
594.85	1069.16
595.20	1056.28
595.55	1055.11
595.90	1054.88
596.25	1059.79
596.60	1073.60
596.95	1084.37
597.30	1080.39
597.64	1141.25
597.99	1137.27
598.34	1122.52
598.69	1129.54
599.04	1140.31
599.39	1082.73
599.74	1069.39
600.09	1071.97
600.44	1070.33
600.78	1069.16
601.13	1073.60
601.48	1089.05
601.83	1082.03
602.18	1071.50
602.53	1073.84
602.88	1073.14
603.22	1070.56
603.57	1070.33
603.92	1081.09
604.27	1079.46
604.62	1070.56
604.97	1076.41
605.31	1086.94
605.66	1078.05
606.01	1071.03
606.36	1081.09
606.71	1078.05
607.05	1082.50
607.40	1077.35
607.75	1078.28
608.10	1065.88
608.44	1065.18
608.79	1046.22
609.14	1054.88
609.49	1062.84
609.84	1073.84
610.18	1079.22
610.53	1099.35
610.88	1102.39
611.23	1104.50
611.57	1103.33
611.92	1100.75
612.27	1091.63
612.62	1081.09
612.96	1073.37
613.31	1078.52
613.66	1078.99
614.00	1084.60
614.35	1088.58
614.70	1087.65
615.05	1079.69
615.39	1074.54
615.74	1060.96
616.09	1059.09
616.43	1062.37
616.78	1067.28
617.13	1064.71
617.47	1067.05
617.82	1069.62
618.17	1063.77
618.51	1060.50
618.86	1071.73
619.21	1087.41
619.55	1087.88
619.90	1093.50
620.25	1093.26
620.59	1093.26
620.94	1086.24
621.29	1083.20
621.63	1077.58
621.98	1075.48
622.32	1070.80
622.67	1072.90
623.02	1072.90
623.36	1073.60
623.71	1083.20
624.05	1083.67
624.40	1075.71
624.75	1086.71
625.09	1089.05
625.44	1078.52
625.78	1075.48
626.13	1086.71
626.48	1078.52
626.82	1082.03
627.17	1087.88
627.51	1096.07
627.86	1094.20
628.20	1099.35
628.55	1103.09
628.89	1107.31
629.24	1096.78
629.58	1095.14
629.93	1091.39
630.28	1087.18
630.62	1085.77
630.97	1090.69
631.31	1088.58
631.66	1091.86
632.00	1088.35
632.35	1084.84
632.69	1088.12
633.04	1090.92
633.38	1096.54
633.73	1107.07
634.07	1105.67
634.42	1103.56
634.76	1103.56
635.11	1092.56
635.45	1092.33
635.79	1091.63
636.14	1084.60
636.48	1075.94
636.83	1079.69
637.17	1070.09
637.52	1070.33
637.86	1075.94
638.21	1086.48
638.55	1081.80
638.89	1083.20
639.24	1089.99
639.58	1091.86
639.93	1081.56
640.27	1093.50
640.61	1088.35
640.96	1073.60
641.30	1067.52
641.65	1070.80
641.99	1056.99
642.33	1066.11
642.68	1082.97
643.02	1082.97
643.37	1078.52
643.71	1086.71
644.05	1084.14
644.40	1074.07
644.74	1077.11
645.08	1073.84
645.43	1068.22
645.77	1074.07
646.11	1084.37
646.46	1087.88
646.80	1102.63
647.14	1106.61
647.49	1102.16
647.83	1089.05
648.17	1091.86
648.52	1076.88
648.86	1074.54
649.20	1072.20
649.55	1080.16
649.89	1073.60
650.23	1078.75
650.57	1077.82
650.92	1083.43
651.26	1078.05
651.60	1076.18
651.95	1082.50
652.29	1095.37
652.63	1088.12
652.97	1082.26
653.32	1080.63
653.66	1075.01
654.00	1067.52
654.34	1068.69
654.69	1081.56
655.03	1086.24
655.37	1083.43
655.71	1076.65
656.05	1076.41
656.40	1065.18
656.74	1068.45
657.08	1082.50
657.42	1078.99
657.76	1085.54
658.11	1083.67
658.45	1078.75
658.79	1070.80
659.13	1077.58
659.47	1074.54
659.82	1091.86
660.16	1088.82
660.50	1092.80
660.84	1091.39
661.18	1086.94
661.52	1083.20
661.87	1090.46
662.21	1093.97
662.55	1102.63
662.89	1107.54
663.23	1107.07
663.57	1100.99
663.91	1096.07
664.25	1099.58
664.60	1091.16
664.94	1095.37
665.28	1094.67
665.62	1091.39
665.96	1078.75
666.30	1083.20
666.64	1068.45
666.98	1074.77
667.32	1076.18
667.66	1073.37
668.01	1085.54
668.35	1087.65
668.69	1083.43
669.03	1093.03
669.37	1100.75
669.71	1091.16
670.05	1093.97
670.39	1094.67
670.73	1082.50
671.07	1078.28
671.41	1077.11
671.75	1073.14
672.09	1077.11
672.43	1072.43
672.77	1073.37
673.11	1076.18
673.45	1082.26
673.79	1074.77
674.13	1084.37
674.47	1084.84
674.81	1080.63
675.15	1080.16
675.49	1085.54
675.83	1085.07
676.17	1086.71
676.51	1089.75
676.85	1093.97
677.19	1104.03
677.53	1107.07
677.87	1108.71
678.21	1109.41
678.55	1123.22
678.89	1113.86
679.23	1101.22
679.57	1100.29
679.90	1098.88
680.24	1073.60
680.58	1070.09
680.92	1075.24
681.26	1072.20
681.60	1069.86
681.94	1084.37
682.28	1087.18
682.62	1088.12
682.96	1082.73
683.29	1093.97
683.63	1083.43
683.97	1078.52
684.31	1081.80
684.65	1089.29
684.99	1080.63
685.33	1088.12
685.67	1091.39
686.00	1087.88
686.34	1094.90
686.68	1102.86
687.02	1106.37
687.36	1102.63
687.70	1104.97
688.03	1095.37
688.37	1079.22
688.71	1068.45
689.05	1067.52
689.39	1061.43
689.72	1065.18
690.06	1072.90
690.40	1072.43
690.74	1071.03
691.08	1075.24
691.41	1078.99
691.75	1080.86
692.09	1085.77
692.43	1084.84
692.76	1082.97
693.10	1070.56
693.44	1061.67
693.78	1059.79
694.11	1055.35
694.45	1054.88
694.79	1053.94
695.13	1056.75
695.46	1056.28
695.80	1063.54
696.14	1063.77
696.48	1071.03
696.81	1066.58
697.15	1072.67
697.49	1083.67
697.82	1084.84
698.16	1088.58
698.50	1107.07
698.83	1096.54
699.17	1091.63
699.51	1102.39
699.84	1097.01
700.18	1080.39
700.52	1087.41
700.85	1087.65
701.19	1079.92
701.53	1087.41
701.86	1088.12
702.20	1093.73
702.54	1089.52
702.87	1092.09
703.21	1086.48
703.55	1092.33
703.88	1088.35
704.22	1089.05
704.55	1079.22
704.89	1077.58
705.23	1075.24
705.56	1075.94
705.90	1078.75
706.23	1085.77
706.57	1092.80
706.91	1095.14
707.24	1087.41
707.58	1086.94
707.91	1089.05
708.25	1086.48
708.58	1084.14
708.92	1087.88
709.26	1090.46
709.59	1098.18
709.93	1100.52
710.26	1107.31
710.60	1100.52
710.93	1101.69
711.27	1093.73
711.60	1082.73
711.94	1074.77
712.27	1075.01
712.61	1070.56
712.94	1064.01
713.28	1059.56
713.61	1062.60
713.95	1079.46
714.28	1086.71
714.62	1087.41
714.95	1092.56
715.29	1083.90
715.62	1070.33
715.96	1066.11
716.29	1064.48
716.63	1063.07
716.96	1069.62
717.29	1072.43
717.63	1076.65
717.96	1083.90
718.30	1084.84
718.63	1076.88
718.97	1087.41
719.30	1079.46
719.63	1078.05
719.97	1079.92
720.30	1086.24
720.64	1075.01
720.97	1077.35
721.30	1070.56
721.64	1080.16
721.97	1073.84
722.31	1074.54
722.64	1081.09
722.97	1087.88
723.31	1080.16
723.64	1093.97
723.97	1097.71
724.31	1088.82
724.64	1093.50
724.98	1086.71
725.31	1086.71
725.64	1076.65
725.98	1075.01
726.31	1068.92
726.64	1088.58
726.97	1081.56
727.31	1086.71
727.64	1083.67
727.97	1087.18
728.31	1080.39
728.64	1084.84
728.97	1085.07
729.31	1095.60
729.64	1086.24
729.97	1081.80
730.30	1077.58
730.64	1075.48
730.97	1068.45
731.30	1079.69
731.63	1071.26
731.97	1083.43
732.30	1090.69
732.63	1085.54
732.96	1078.99
733.30	1086.48
733.63	1076.65
733.96	1078.75
734.29	1085.07
734.63	1093.03
734.96	1097.01
735.29	1095.60
735.62	1091.39
735.95	1093.97
736.29	1084.60
736.62	1087.41
736.95	1091.63
737.28	1093.97
737.61	1082.73
737.94	1085.31
738.28	1082.50
738.61	1083.90
738.94	1073.84
739.27	1086.71
739.60	1089.52
739.93	1086.71
740.27	1075.48
740.60	1076.88
740.93	1073.60
741.26	1065.88
741.59	1060.03
741.92	1061.20
742.25	1052.54
742.58	1049.03
742.91	1046.69
743.25	1047.62
743.58	1064.94
743.91	1078.28
744.24	1084.37
744.57	1102.16
744.90	1109.65
745.23	1099.82
745.56	1099.58
745.89	1089.99
746.22	1091.16
746.55	1084.60
746.88	1087.41
747.21	1088.35
747.54	1092.56
747.87	1068.22
748.20	1072.67
748.53	1060.26
748.87	1057.45
749.20	1054.41
749.53	1059.33
749.86	1049.50
750.19	1067.99
750.52	1072.43
750.85	1079.69
751.18	1089.05
751.51	1095.37
751.84	1078.28
752.16	1079.69
752.49	1072.67
752.82	1076.88
753.15	1087.65
753.48	1094.43
753.81	1084.14
754.14	1091.39
754.47	1085.54
754.80	1075.71
755.13	1066.82
755.46	1063.07
755.79	1061.43
756.12	1071.03
756.45	1067.05
756.78	1067.99
757.11	1081.80
757.43	1089.99
757.76	1079.46
758.09	1085.07
758.42	1100.75
758.75	1088.58
759.08	1081.33
759.41	1078.05
759.74	1084.37
760.07	1076.88
760.39	1082.03
760.72	1076.88
761.05	1081.09
761.38	1076.88
761.71	1076.88
762.04	1081.80
762.36	1078.75
762.69	1082.97
763.02	1082.03
763.35	1083.43
763.68	1095.37
764.01	1103.56
764.33	1095.60
764.66	1090.69
764.99	1080.63
765.32	1059.79
765.65	1059.09
765.97	1060.96
766.30	1072.43
