SpectraSuite Data File
++++++++++++++++++++++++++++++++++++
Date: Mon Aug 26 10:25:55 PDT 2019
User: corrico
Dark Spectrum Present: No
Reference Spectrum Present: No
Number of Sampled Component Spectra: 1
Spectrometers: USB2+H06089
Integration Time (usec): 10000 (USB2+H06089)
Spectra Averaged: 2 (USB2+H06089)
Boxcar Smoothing: 2 (USB2+H06089)
Correct for Electrical Dark: No (USB2+H06089)
Strobe/Lamp Enabled: No (USB2+H06089)
Correct for Detector Non-linearity: No (USB2+H06089)
Correct for Stray Light: No (USB2+H06089)
Number of Pixels in Processed Spectrum: 2048
>>>>>Begin Processed Spectral Data<<<<<
339.70	1015.79
340.07	1015.79
340.45	988.64
340.82	966.64
341.19	938.55
341.57	915.85
341.94	907.66
342.31	895.72
342.69	891.98
343.06	890.57
343.43	891.28
343.81	882.38
344.18	883.79
344.55	890.57
344.93	900.40
345.30	898.30
345.67	915.38
346.04	931.53
346.42	933.64
346.79	951.43
347.16	964.07
347.54	968.05
347.91	975.07
348.28	987.71
348.65	989.58
349.03	994.73
349.40	1001.05
349.77	1005.73
350.14	1013.92
350.52	1012.05
350.89	1019.07
351.26	1028.90
351.63	1039.67
352.01	1046.45
352.38	1054.88
352.75	1071.26
353.12	1068.69
353.50	1063.54
353.87	1064.94
354.24	1076.41
354.61	1074.77
354.98	1085.54
355.36	1100.29
355.73	1104.50
356.10	1100.05
356.47	1100.29
356.84	1105.67
357.22	1090.69
357.59	1090.92
357.96	1097.48
358.33	1094.90
358.70	1088.12
359.08	1088.58
359.45	1082.73
359.82	1070.09
360.19	1064.48
360.56	1060.50
360.94	1067.28
361.31	1073.37
361.68	1077.58
362.05	1083.90
362.42	1079.22
362.79	1064.71
363.16	1056.52
363.54	1053.94
363.91	1058.86
364.28	1066.35
364.65	1079.22
365.02	1083.20
365.39	1088.58
365.76	1090.22
366.14	1080.39
366.51	1081.33
366.88	1079.92
367.25	1079.92
367.62	1067.28
367.99	1073.37
368.36	1077.58
368.73	1079.92
369.10	1074.07
369.48	1073.60
369.85	1072.90
370.22	1066.11
370.59	1057.45
370.96	1054.18
371.33	1057.45
371.70	1053.24
372.07	1056.75
372.44	1066.58
372.81	1074.31
373.18	1075.48
373.55	1079.22
373.93	1081.09
374.30	1072.67
374.67	1062.37
375.04	1065.18
375.41	1071.50
375.78	1060.73
376.15	1061.43
376.52	1076.18
376.89	1069.86
377.26	1061.20
377.63	1063.54
378.00	1064.24
378.37	1055.35
378.74	1058.39
379.11	1061.43
379.48	1062.37
379.85	1062.37
380.22	1068.45
380.59	1070.09
380.96	1076.18
381.33	1076.65
381.70	1078.28
382.07	1074.77
382.44	1069.39
382.81	1060.03
383.18	1063.07
383.55	1058.62
383.92	1062.37
384.29	1060.26
384.66	1068.92
385.03	1071.97
385.40	1074.07
385.77	1075.48
386.14	1082.73
386.51	1089.75
386.88	1081.33
387.25	1076.18
387.62	1068.22
387.99	1069.16
388.36	1049.26
388.73	1055.35
389.10	1054.88
389.46	1053.24
389.83	1053.94
390.20	1062.84
390.57	1066.11
390.94	1077.82
391.31	1089.05
391.68	1077.58
392.05	1068.22
392.42	1065.65
392.79	1066.58
393.16	1062.37
393.53	1070.80
393.89	1080.86
394.26	1079.22
394.63	1072.67
395.00	1058.16
395.37	1057.92
395.74	1052.77
396.11	1052.54
396.48	1059.09
396.84	1065.65
397.21	1066.82
397.58	1072.43
397.95	1081.33
398.32	1069.39
398.69	1081.33
399.06	1073.14
399.42	1070.56
399.79	1063.07
400.16	1071.26
400.53	1060.73
400.90	1065.88
401.27	1061.67
401.64	1054.65
402.00	1056.28
402.37	1062.37
402.74	1056.75
403.11	1055.82
403.48	1059.33
403.84	1060.03
404.21	1053.94
404.58	1060.03
404.95	1064.48
405.32	1074.77
405.68	1075.71
406.05	1075.48
406.42	1073.37
406.79	1071.73
407.16	1055.11
407.52	1048.33
407.89	1051.37
408.26	1062.37
408.63	1067.05
408.99	1078.28
409.36	1086.94
409.73	1093.50
410.10	1084.84
410.47	1087.18
410.83	1080.39
411.20	1079.22
411.57	1074.54
411.94	1082.97
412.30	1090.22
412.67	1098.88
413.04	1096.07
413.40	1094.90
413.77	1087.18
414.14	1083.43
414.51	1078.28
414.87	1075.94
415.24	1080.16
415.61	1073.37
415.97	1061.20
416.34	1064.24
416.71	1067.99
417.08	1062.14
417.44	1071.26
417.81	1074.77
418.18	1070.80
418.54	1075.01
418.91	1082.73
419.28	1080.39
419.64	1081.09
420.01	1079.69
420.38	1079.92
420.74	1070.56
421.11	1071.26
421.48	1078.52
421.84	1082.26
422.21	1081.56
422.58	1082.26
422.94	1083.67
423.31	1086.01
423.68	1082.73
424.04	1082.03
424.41	1083.67
424.77	1078.05
425.14	1065.88
425.51	1070.80
425.87	1069.16
426.24	1061.20
426.61	1061.67
426.97	1063.31
427.34	1069.16
427.70	1071.26
428.07	1093.97
428.44	1097.48
428.80	1105.67
429.17	1092.33
429.53	1089.52
429.90	1076.41
430.27	1078.99
430.63	1072.67
431.00	1076.88
431.36	1076.18
431.73	1075.94
432.09	1081.80
432.46	1080.39
432.83	1080.86
433.19	1078.05
433.56	1076.65
433.92	1070.80
434.29	1074.07
434.65	1077.35
435.02	1083.20
435.38	1092.80
435.75	1093.97
436.11	1091.39
436.48	1077.82
436.84	1079.69
437.21	1068.45
437.57	1069.16
437.94	1071.73
438.30	1083.67
438.67	1075.24
439.03	1083.67
439.40	1098.65
439.76	1098.18
440.13	1096.54
440.49	1097.24
440.86	1093.03
441.22	1073.84
441.59	1075.48
441.95	1078.05
442.32	1077.58
442.68	1076.88
443.05	1077.35
443.41	1064.24
443.78	1059.09
444.14	1060.03
444.51	1052.54
444.87	1056.28
445.24	1065.65
445.60	1078.75
445.96	1082.26
446.33	1084.60
446.69	1085.54
447.06	1091.86
447.42	1087.41
447.79	1079.22
448.15	1079.92
448.51	1073.14
448.88	1063.54
449.24	1065.41
449.61	1077.35
449.97	1089.05
450.33	1085.77
450.70	1087.88
451.06	1079.46
451.43	1073.60
451.79	1074.77
452.15	1082.50
452.52	1086.71
452.88	1094.90
453.24	1098.41
453.61	1095.84
453.97	1093.73
454.34	1091.86
454.70	1078.28
455.06	1071.26
455.43	1056.28
455.79	1062.14
456.15	1060.03
456.52	1065.41
456.88	1070.33
457.24	1079.69
457.61	1081.80
457.97	1087.88
458.33	1083.43
458.70	1081.80
459.06	1070.09
459.42	1063.07
459.79	1062.60
460.15	1059.79
460.51	1054.65
460.88	1068.69
461.24	1063.77
461.60	1059.09
461.96	1063.77
462.33	1078.75
462.69	1078.28
463.05	1087.65
463.42	1093.50
463.78	1096.31
464.14	1093.73
464.50	1100.29
464.87	1095.84
465.23	1095.37
465.59	1089.05
465.95	1083.43
466.32	1080.16
466.68	1077.11
467.04	1074.31
467.40	1074.07
467.77	1066.58
468.13	1059.33
468.49	1067.05
468.85	1064.01
469.22	1072.90
469.58	1077.35
469.94	1082.73
470.30	1071.50
470.66	1061.20
471.03	1054.88
471.39	1063.54
471.75	1060.96
472.11	1070.09
472.47	1083.90
472.84	1089.99
473.20	1081.09
473.56	1082.73
473.92	1084.84
474.28	1097.48
474.65	1089.75
475.01	1095.14
475.37	1100.52
475.73	1082.50
476.09	1060.96
476.45	1068.69
476.81	1056.75
477.18	1040.84
477.54	1051.60
477.90	1058.39
478.26	1057.69
478.62	1068.92
478.98	1086.71
479.34	1087.88
479.71	1093.97
480.07	1097.01
480.43	1095.84
480.79	1081.33
481.15	1081.33
481.51	1079.69
481.87	1078.28
482.23	1083.90
482.59	1100.05
482.96	1103.09
483.32	1095.14
483.68	1096.07
484.04	1098.18
484.40	1083.90
484.76	1090.22
485.12	1088.12
485.48	1082.73
485.84	1068.45
486.20	1065.88
486.56	1056.28
486.92	1060.03
487.28	1055.82
487.64	1060.03
488.00	1064.24
488.37	1070.56
488.73	1071.97
489.09	1079.22
489.45	1078.52
489.81	1083.67
490.17	1078.05
490.53	1081.09
490.89	1082.97
491.25	1088.12
491.61	1089.75
491.97	1098.65
492.33	1097.01
492.69	1091.39
493.05	1093.50
493.41	1097.48
493.77	1091.63
494.13	1093.50
494.49	1096.78
494.85	1095.84
495.21	1083.90
495.57	1077.11
495.93	1077.11
496.29	1079.46
496.64	1077.58
497.00	1086.48
497.36	1093.26
497.72	1095.60
498.08	1091.63
498.44	1087.18
498.80	1073.60
499.16	1067.99
499.52	1062.14
499.88	1058.86
500.24	1053.94
500.60	1058.16
500.96	1069.16
501.32	1073.84
501.68	1082.50
502.03	1099.12
502.39	1107.78
502.75	1100.05
503.11	1098.65
503.47	1092.56
503.83	1089.75
504.19	1077.35
504.55	1066.82
504.91	1073.60
505.26	1087.65
505.62	1083.43
505.98	1094.67
506.34	1104.26
506.70	1097.01
507.06	1082.97
507.42	1082.97
507.78	1075.48
508.13	1089.05
508.49	1100.29
508.85	1106.84
509.21	1100.29
509.57	1109.88
509.93	1096.07
510.28	1092.56
510.64	1091.16
511.00	1106.61
511.36	1103.33
511.72	1103.56
512.07	1096.31
512.43	1093.73
512.79	1079.22
513.15	1080.39
513.51	1077.82
513.86	1085.07
514.22	1091.16
514.58	1097.95
514.94	1102.86
515.30	1111.52
515.65	1112.92
516.01	1107.54
516.37	1105.20
516.73	1100.99
517.08	1087.41
517.44	1078.52
517.80	1072.90
518.16	1071.97
518.51	1069.62
518.87	1080.63
519.23	1079.69
519.59	1084.37
519.94	1084.14
520.30	1079.92
520.66	1072.67
521.01	1074.54
521.37	1081.33
521.73	1089.29
522.09	1098.18
522.44	1103.09
522.80	1093.03
523.16	1089.52
523.51	1087.41
523.87	1086.48
524.23	1081.09
524.58	1080.39
524.94	1082.26
525.30	1083.20
525.65	1083.20
526.01	1091.16
526.37	1095.60
526.72	1093.26
527.08	1076.18
527.44	1068.22
527.79	1069.39
528.15	1072.20
528.51	1075.24
528.86	1086.48
529.22	1100.99
529.58	1095.37
529.93	1096.78
530.29	1087.65
530.65	1086.71
531.00	1079.92
531.36	1081.09
531.71	1087.41
532.07	1095.60
532.43	1098.18
532.78	1079.69
533.14	1077.35
533.49	1077.11
533.85	1074.31
534.21	1075.71
534.56	1095.84
534.92	1105.20
535.27	1106.14
535.63	1095.14
535.98	1094.90
536.34	1085.07
536.69	1077.11
537.05	1076.88
537.41	1098.65
537.76	1105.20
538.12	1116.90
538.47	1123.69
538.83	1117.61
539.18	1101.22
539.54	1087.18
539.89	1083.43
540.25	1082.73
540.60	1087.18
540.96	1088.12
541.31	1089.05
541.67	1083.43
542.02	1087.88
542.38	1090.92
542.73	1107.31
543.09	1112.92
543.44	1115.27
543.80	1110.12
544.15	1106.61
544.51	1096.78
544.86	1094.20
545.22	1083.20
545.57	1088.58
545.93	1095.60
546.28	1084.84
546.64	1083.67
546.99	1098.65
547.35	1085.77
547.70	1072.90
548.05	1086.24
548.41	1092.09
548.76	1088.58
549.12	1089.29
549.47	1092.09
549.83	1078.05
550.18	1069.39
550.53	1070.56
550.89	1081.33
551.24	1082.50
551.60	1095.60
551.95	1097.71
552.30	1088.12
552.66	1078.28
553.01	1077.11
553.37	1066.58
553.72	1061.90
554.07	1076.41
554.43	1087.41
554.78	1097.71
555.13	1112.46
555.49	1122.75
555.84	1115.97
556.19	1115.97
556.55	1101.22
556.90	1092.80
557.26	1093.26
557.61	1102.39
557.96	1095.14
558.32	1097.24
558.67	1098.65
559.02	1105.44
559.37	1095.14
559.73	1097.48
560.08	1103.80
560.43	1098.88
560.79	1084.84
561.14	1077.35
561.49	1068.92
561.85	1059.79
562.20	1064.24
562.55	1060.73
562.90	1066.35
563.26	1078.52
563.61	1078.99
563.96	1071.03
564.32	1087.88
564.67	1091.39
565.02	1085.77
565.37	1086.24
565.73	1088.12
566.08	1081.33
566.43	1082.50
566.78	1079.22
567.14	1080.86
567.49	1076.18
567.84	1069.16
568.19	1064.24
568.54	1073.14
568.90	1078.05
569.25	1089.05
569.60	1092.33
569.95	1091.86
570.31	1083.20
570.66	1078.75
571.01	1082.26
571.36	1087.18
571.71	1089.99
572.06	1089.75
572.42	1089.75
572.77	1082.97
573.12	1081.33
573.47	1085.54
573.82	1086.01
574.18	1074.31
574.53	1081.56
574.88	1081.56
575.23	1077.58
575.58	1089.52
575.93	1107.31
576.28	1098.65
576.64	1100.75
576.99	1098.41
577.34	1089.29
577.69	1084.84
578.04	1082.50
578.39	1079.46
578.74	1082.03
579.09	1074.77
579.44	1074.07
579.80	1080.39
580.15	1078.05
580.50	1080.16
580.85	1091.63
581.20	1091.63
581.55	1093.73
581.90	1090.46
582.25	1097.24
582.60	1093.50
582.95	1097.01
583.30	1097.24
583.65	1096.78
584.00	1087.18
584.35	1077.58
584.71	1081.33
585.06	1081.33
585.41	1083.90
585.76	1071.26
586.11	1085.31
586.46	1081.09
586.81	1079.46
587.16	1075.01
587.51	1088.58
587.86	1085.07
588.21	1081.33
588.56	1080.63
588.91	1098.41
589.26	1093.50
589.61	1092.09
589.96	1091.86
590.31	1091.63
590.66	1078.99
591.01	1090.69
591.36	1097.48
591.71	1100.52
592.06	1096.78
592.41	1090.69
592.76	1075.48
593.10	1065.41
593.45	1062.14
593.80	1059.56
594.15	1063.54
594.50	1070.56
594.85	1069.39
595.20	1071.97
595.55	1067.05
595.90	1065.18
596.25	1068.92
596.60	1069.86
596.95	1075.94
597.30	1084.14
597.64	1138.67
597.99	1139.84
598.34	1136.33
598.69	1125.56
599.04	1126.50
599.39	1079.92
599.74	1075.71
600.09	1081.80
600.44	1082.03
600.78	1080.16
601.13	1075.24
601.48	1079.46
601.83	1070.80
602.18	1073.37
602.53	1084.60
602.88	1093.73
603.22	1090.92
603.57	1100.99
603.92	1108.48
604.27	1101.22
604.62	1099.82
604.97	1096.07
605.31	1091.39
605.66	1078.05
606.01	1077.82
606.36	1079.46
606.71	1080.86
607.05	1084.60
607.40	1099.82
607.75	1097.48
608.10	1087.18
608.44	1089.75
608.79	1097.24
609.14	1085.54
609.49	1084.84
609.84	1084.37
610.18	1089.52
610.53	1085.31
610.88	1089.05
611.23	1092.09
611.57	1099.12
611.92	1087.41
612.27	1073.37
612.62	1073.37
612.96	1069.39
613.31	1062.84
613.66	1071.97
614.00	1075.48
614.35	1069.62
614.70	1073.84
615.05	1076.88
615.39	1078.75
615.74	1083.67
616.09	1098.65
616.43	1097.01
616.78	1104.03
617.13	1105.44
617.47	1116.44
617.82	1107.78
618.17	1110.35
618.51	1101.46
618.86	1094.43
619.21	1082.03
619.55	1077.58
619.90	1074.54
620.25	1076.18
620.59	1085.07
620.94	1080.39
621.29	1076.88
621.63	1083.43
621.98	1075.24
622.32	1059.56
622.67	1061.43
623.02	1062.14
623.36	1058.39
623.71	1062.37
624.05	1070.33
624.40	1072.43
624.75	1079.46
625.09	1076.65
625.44	1083.67
625.78	1079.46
626.13	1082.73
626.48	1075.94
626.82	1066.35
627.17	1071.73
627.51	1066.58
627.86	1062.14
628.20	1057.45
628.55	1067.28
628.89	1063.07
629.24	1071.03
629.58	1071.03
629.93	1080.39
630.28	1071.97
630.62	1067.05
630.97	1066.58
631.31	1074.07
631.66	1079.92
632.00	1088.58
632.35	1083.67
632.69	1081.56
633.04	1077.35
633.38	1072.67
633.73	1078.52
634.07	1080.39
634.42	1072.43
634.76	1078.99
635.11	1078.52
635.45	1073.84
635.79	1078.52
636.14	1078.52
636.48	1078.99
636.83	1085.31
637.17	1081.80
637.52	1071.97
637.86	1080.39
638.21	1068.92
638.55	1049.73
638.89	1047.39
639.24	1050.20
639.58	1056.52
639.93	1062.37
640.27	1070.33
640.61	1079.92
640.96	1078.52
641.30	1078.05
641.65	1082.97
641.99	1098.41
642.33	1086.71
642.68	1089.05
643.02	1087.65
643.37	1078.05
643.71	1064.24
644.05	1072.90
644.40	1080.86
644.74	1078.28
645.08	1086.24
645.43	1091.86
645.77	1089.29
646.11	1081.33
646.46	1090.22
646.80	1087.88
647.14	1087.41
647.49	1080.63
647.83	1087.65
648.17	1076.41
648.52	1066.58
648.86	1059.56
649.20	1065.41
649.55	1064.71
649.89	1062.14
650.23	1069.62
650.57	1071.50
650.92	1068.92
651.26	1065.65
651.60	1073.84
651.95	1079.22
652.29	1075.94
652.63	1086.01
652.97	1088.35
653.32	1080.16
653.66	1078.28
654.00	1088.12
654.34	1088.12
654.69	1093.73
655.03	1093.50
655.37	1084.84
655.71	1086.01
656.05	1076.88
656.40	1064.71
656.74	1069.16
657.08	1079.46
657.42	1071.97
657.76	1083.20
658.11	1093.03
658.45	1096.07
658.79	1095.84
659.13	1094.90
659.47	1088.12
659.82	1083.20
660.16	1085.07
660.50	1077.82
660.84	1080.63
661.18	1082.26
661.52	1077.11
661.87	1064.01
662.21	1074.07
662.55	1082.73
662.89	1083.20
663.23	1096.78
663.57	1105.90
663.91	1103.80
664.25	1087.65
664.60	1086.01
664.94	1075.71
665.28	1065.65
665.62	1064.48
665.96	1072.67
666.30	1068.22
666.64	1079.69
666.98	1087.65
667.32	1089.99
667.66	1088.12
668.01	1089.29
668.35	1079.92
668.69	1084.14
669.03	1077.58
669.37	1085.31
669.71	1084.84
670.05	1085.77
670.39	1083.43
670.73	1083.67
671.07	1086.71
671.41	1086.01
671.75	1086.94
672.09	1078.05
672.43	1072.43
672.77	1068.69
673.11	1070.80
673.45	1072.43
673.79	1081.09
674.13	1079.22
674.47	1071.73
674.81	1072.90
675.15	1066.58
675.49	1070.56
675.83	1094.43
676.17	1097.01
676.51	1099.58
676.85	1105.20
677.19	1100.29
677.53	1080.63
677.87	1076.88
678.21	1062.14
678.55	1061.43
678.89	1051.13
679.23	1050.20
679.57	1058.86
679.90	1070.56
680.24	1070.33
680.58	1076.65
680.92	1086.71
681.26	1072.67
681.60	1067.99
681.94	1064.01
682.28	1071.97
682.62	1065.88
682.96	1073.14
683.29	1075.48
683.63	1073.60
683.97	1064.94
684.31	1059.56
684.65	1057.45
684.99	1055.35
685.33	1061.20
685.67	1063.07
686.00	1075.01
686.34	1081.80
686.68	1086.94
687.02	1088.82
687.36	1091.86
687.70	1092.33
688.03	1093.03
688.37	1090.92
688.71	1091.16
689.05	1091.86
689.39	1089.29
689.72	1092.09
690.06	1099.35
690.40	1096.78
690.74	1097.24
691.08	1090.69
691.41	1083.67
691.75	1071.97
692.09	1062.14
692.43	1064.24
692.76	1070.33
693.10	1072.20
693.44	1070.80
693.78	1086.94
694.11	1076.18
694.45	1064.48
694.79	1059.56
695.13	1065.18
695.46	1055.82
695.80	1061.20
696.14	1065.41
696.48	1065.65
696.81	1075.48
697.15	1078.28
697.49	1085.31
697.82	1084.37
698.16	1086.48
698.50	1074.54
698.83	1068.92
699.17	1065.65
699.51	1066.58
699.84	1079.69
700.18	1083.20
700.52	1097.24
700.85	1106.14
701.19	1111.05
701.53	1100.29
701.86	1094.20
702.20	1087.88
702.54	1082.03
702.87	1079.92
703.21	1075.01
703.55	1082.97
703.88	1074.31
704.22	1075.48
704.55	1071.97
704.89	1080.63
705.23	1085.54
705.56	1097.95
705.90	1097.48
706.23	1104.50
706.57	1103.09
706.91	1086.01
707.24	1084.60
707.58	1076.88
707.91	1067.05
708.25	1064.24
708.58	1076.65
708.92	1080.16
709.26	1079.92
709.59	1091.86
709.93	1082.50
710.26	1078.75
710.60	1068.69
710.93	1070.80
711.27	1060.03
711.60	1070.33
711.94	1077.58
712.27	1078.28
712.61	1081.80
712.94	1087.65
713.28	1086.48
713.61	1084.14
713.95	1082.03
714.28	1075.01
714.62	1066.11
714.95	1068.69
715.29	1072.90
715.62	1070.80
715.96	1075.01
716.29	1080.39
716.63	1083.20
716.96	1077.11
717.29	1086.71
717.63	1092.80
717.96	1091.16
718.30	1088.35
718.63	1091.39
718.97	1082.73
719.30	1078.28
719.63	1075.24
719.97	1066.11
720.30	1058.39
720.64	1067.75
720.97	1070.56
721.30	1066.82
721.64	1075.24
721.97	1074.77
722.31	1069.16
722.64	1056.99
722.97	1059.33
723.31	1068.45
723.64	1075.94
723.97	1081.80
724.31	1079.92
724.64	1083.90
724.98	1070.09
725.31	1065.18
725.64	1061.43
725.98	1073.37
726.31	1086.94
726.64	1088.82
726.97	1084.14
727.31	1080.63
727.64	1082.03
727.97	1076.65
728.31	1074.07
728.64	1081.80
728.97	1082.03
729.31	1077.82
729.64	1075.24
729.97	1072.67
730.30	1068.45
730.64	1066.11
730.97	1064.24
731.30	1064.71
731.63	1072.43
731.97	1069.86
732.30	1071.97
732.63	1076.41
732.96	1067.05
733.30	1066.58
733.63	1055.58
733.96	1059.09
734.29	1056.75
734.63	1064.01
734.96	1063.54
735.29	1082.97
735.62	1086.24
735.95	1090.92
736.29	1093.73
736.62	1093.97
736.95	1097.71
737.28	1098.18
737.61	1092.56
737.94	1092.33
738.28	1079.22
738.61	1074.77
738.94	1072.43
739.27	1074.31
739.60	1067.99
739.93	1083.43
740.27	1084.37
740.60	1081.80
740.93	1071.73
741.26	1069.62
741.59	1064.71
741.92	1069.16
742.25	1069.86
742.58	1077.58
742.91	1085.77
743.25	1083.90
743.58	1076.18
743.91	1075.01
744.24	1080.39
744.57	1073.14
744.90	1088.12
745.23	1094.43
745.56	1095.37
745.89	1092.09
746.22	1101.22
746.55	1091.39
746.88	1082.97
747.21	1081.33
747.54	1067.28
747.87	1060.73
748.20	1064.48
748.53	1065.18
748.87	1060.96
749.20	1077.82
749.53	1084.14
749.86	1077.58
750.19	1074.07
750.52	1084.84
750.85	1089.05
751.18	1093.97
751.51	1093.50
751.84	1096.78
752.16	1090.22
752.49	1081.80
752.82	1074.07
753.15	1075.01
753.48	1076.41
753.81	1068.92
754.14	1081.80
754.47	1078.05
754.80	1075.48
755.13	1070.33
755.46	1072.20
755.79	1064.48
756.12	1060.50
756.45	1063.31
756.78	1068.22
757.11	1067.52
757.43	1061.90
757.76	1069.39
758.09	1072.90
758.42	1076.41
758.75	1084.14
759.08	1081.80
759.41	1079.46
759.74	1075.71
760.07	1082.50
760.39	1083.43
760.72	1091.16
761.05	1096.07
761.38	1097.01
761.71	1083.90
762.04	1075.94
762.36	1062.84
762.69	1063.77
763.02	1068.45
763.35	1069.16
763.68	1071.50
764.01	1075.94
764.33	1063.77
764.66	1058.86
764.99	1056.05
765.32	1060.26
765.65	1065.18
765.97	1074.54
766.30	1070.80
