SpectraSuite Data File
++++++++++++++++++++++++++++++++++++
Date: Mon Aug 26 10:25:57 PDT 2019
User: corrico
Dark Spectrum Present: No
Reference Spectrum Present: No
Number of Sampled Component Spectra: 1
Spectrometers: USB2+H06089
Integration Time (usec): 10000 (USB2+H06089)
Spectra Averaged: 2 (USB2+H06089)
Boxcar Smoothing: 2 (USB2+H06089)
Correct for Electrical Dark: No (USB2+H06089)
Strobe/Lamp Enabled: No (USB2+H06089)
Correct for Detector Non-linearity: No (USB2+H06089)
Correct for Stray Light: No (USB2+H06089)
Number of Pixels in Processed Spectrum: 2048
>>>>>Begin Processed Spectral Data<<<<<
339.70	1019.30
340.07	1019.30
340.45	988.64
340.82	976.47
341.19	950.26
341.57	926.38
341.94	913.28
342.31	906.26
342.69	889.87
343.06	883.79
343.43	877.23
343.81	876.06
344.18	880.28
344.55	881.91
344.93	888.00
345.30	898.77
345.67	912.81
346.04	921.00
346.42	936.21
346.79	945.81
347.16	948.62
347.54	961.26
347.91	965.24
348.28	974.13
348.65	994.96
349.03	1005.96
349.40	1008.54
349.77	1016.03
350.14	1016.96
350.52	1016.03
350.89	1022.58
351.26	1023.52
351.63	1032.41
352.01	1036.62
352.38	1043.64
352.75	1046.69
353.12	1051.60
353.50	1055.35
353.87	1065.65
354.24	1060.73
354.61	1065.88
354.98	1072.43
355.36	1079.92
355.73	1082.73
356.10	1090.46
356.47	1092.80
356.84	1085.07
357.22	1079.22
357.59	1076.41
357.96	1071.50
358.33	1078.05
358.70	1086.24
359.08	1088.12
359.45	1084.37
359.82	1089.05
360.19	1079.46
360.56	1072.67
360.94	1072.90
361.31	1072.43
361.68	1077.58
362.05	1079.69
362.42	1079.22
362.79	1078.28
363.16	1085.77
363.54	1070.33
363.91	1067.99
364.28	1064.48
364.65	1052.54
365.02	1050.90
365.39	1062.84
365.76	1066.11
366.14	1073.14
366.51	1083.67
366.88	1077.35
367.25	1071.26
367.62	1080.86
367.99	1069.16
368.36	1067.75
368.73	1068.92
369.10	1071.97
369.48	1065.18
369.85	1082.50
370.22	1081.33
370.59	1082.97
370.96	1079.69
371.33	1078.75
371.70	1068.45
372.07	1065.88
372.44	1070.09
372.81	1081.09
373.18	1082.26
373.55	1082.97
373.93	1091.86
374.30	1080.39
374.67	1067.28
375.04	1062.14
375.41	1064.94
375.78	1050.67
376.15	1043.41
376.52	1052.77
376.89	1049.03
377.26	1039.67
377.63	1055.11
378.00	1064.48
378.37	1060.96
378.74	1059.79
379.11	1074.07
379.48	1076.41
379.85	1082.50
380.22	1084.37
380.59	1093.73
380.96	1085.31
381.33	1074.54
381.70	1070.80
382.07	1063.54
382.44	1065.65
382.81	1067.28
383.18	1069.39
383.55	1079.22
383.92	1084.14
384.29	1078.28
384.66	1086.48
385.03	1088.12
385.40	1092.33
385.77	1086.48
386.14	1089.99
386.51	1084.84
386.88	1078.52
387.25	1058.62
387.62	1060.50
387.99	1051.37
388.36	1054.65
388.73	1062.14
389.10	1063.54
389.46	1061.67
389.83	1069.39
390.20	1070.80
390.57	1067.05
390.94	1074.07
391.31	1080.63
391.68	1084.60
392.05	1078.05
392.42	1084.37
392.79	1088.12
393.16	1084.37
393.53	1076.88
393.89	1074.77
394.26	1064.24
394.63	1061.20
395.00	1058.86
395.37	1069.62
395.74	1067.05
396.11	1059.79
396.48	1062.60
396.84	1065.88
397.21	1056.28
397.58	1056.05
397.95	1067.05
398.32	1063.07
398.69	1066.58
399.06	1069.86
399.42	1079.22
399.79	1088.35
400.16	1089.99
400.53	1091.86
400.90	1087.88
401.27	1078.28
401.64	1068.69
402.00	1075.48
402.37	1065.18
402.74	1068.45
403.11	1064.71
403.48	1061.90
403.84	1055.11
404.21	1058.62
404.58	1051.13
404.95	1063.07
405.32	1064.94
405.68	1072.20
406.05	1065.41
406.42	1063.31
406.79	1061.90
407.16	1057.92
407.52	1048.33
407.89	1059.79
408.26	1070.33
408.63	1068.92
408.99	1079.92
409.36	1086.48
409.73	1086.48
410.10	1086.48
410.47	1084.60
410.83	1080.39
411.20	1072.43
411.57	1073.14
411.94	1075.24
412.30	1080.86
412.67	1082.26
413.04	1085.31
413.40	1075.71
413.77	1075.01
414.14	1075.48
414.51	1075.24
414.87	1076.18
415.24	1079.22
415.61	1075.01
415.97	1074.77
416.34	1068.45
416.71	1065.18
417.08	1071.03
417.44	1074.54
417.81	1076.88
418.18	1077.11
418.54	1083.90
418.91	1082.73
419.28	1084.14
419.64	1080.39
420.01	1087.18
420.38	1088.58
420.74	1085.54
421.11	1077.35
421.48	1069.86
421.84	1064.01
422.21	1064.71
422.58	1074.31
422.94	1079.46
423.31	1086.71
423.68	1092.56
424.04	1086.71
424.41	1077.35
424.77	1078.99
425.14	1075.01
425.51	1075.71
425.87	1075.94
426.24	1076.18
426.61	1074.31
426.97	1078.28
427.34	1076.18
427.70	1079.22
428.07	1083.90
428.44	1084.60
428.80	1081.09
429.17	1084.14
429.53	1075.24
429.90	1071.03
430.27	1070.09
430.63	1071.73
431.00	1071.26
431.36	1084.37
431.73	1083.43
432.09	1084.14
432.46	1088.12
432.83	1089.52
433.19	1085.31
433.56	1085.54
433.92	1084.14
434.29	1079.46
434.65	1065.18
435.02	1063.07
435.38	1062.60
435.75	1066.11
436.11	1064.48
436.48	1075.24
436.84	1074.07
437.21	1075.24
437.57	1058.39
437.94	1059.09
438.30	1055.58
438.67	1056.75
439.03	1062.84
439.40	1072.43
439.76	1073.84
440.13	1085.31
440.49	1085.07
440.86	1082.50
441.22	1082.50
441.59	1077.11
441.95	1065.41
442.32	1067.28
442.68	1070.09
443.05	1065.18
443.41	1079.69
443.78	1086.71
444.14	1083.90
444.51	1079.92
444.87	1085.77
445.24	1073.60
445.60	1069.86
445.96	1072.67
446.33	1067.52
446.69	1071.03
447.06	1078.28
447.42	1080.63
447.79	1071.97
448.15	1078.52
448.51	1083.20
448.88	1086.01
449.24	1076.88
449.61	1082.73
449.97	1081.80
450.33	1074.54
450.70	1072.90
451.06	1069.86
451.43	1081.56
451.79	1080.16
452.15	1077.11
452.52	1077.11
452.88	1085.07
453.24	1076.65
453.61	1078.28
453.97	1091.86
454.34	1090.69
454.70	1093.50
455.06	1101.22
455.43	1099.82
455.79	1094.43
456.15	1085.54
456.52	1080.16
456.88	1070.80
457.24	1074.54
457.61	1068.92
457.97	1076.65
458.33	1084.14
458.70	1090.69
459.06	1091.39
459.42	1098.41
459.79	1098.88
460.15	1096.31
460.51	1088.35
460.88	1083.20
461.24	1083.20
461.60	1077.82
461.96	1077.35
462.33	1066.82
462.69	1063.77
463.05	1054.88
463.42	1063.07
463.78	1071.26
464.14	1086.01
464.50	1083.20
464.87	1082.26
465.23	1071.50
465.59	1059.33
465.95	1057.69
466.32	1059.09
466.68	1070.33
467.04	1080.39
467.40	1086.71
467.77	1086.24
468.13	1090.92
468.49	1088.35
468.85	1077.58
469.22	1073.37
469.58	1073.37
469.94	1081.56
470.30	1084.84
470.66	1092.56
471.03	1100.52
471.39	1087.88
471.75	1076.65
472.11	1076.41
472.47	1076.88
472.84	1072.43
473.20	1080.39
473.56	1078.28
473.92	1062.60
474.28	1058.62
474.65	1060.96
475.01	1055.58
475.37	1070.56
475.73	1073.60
476.09	1068.92
476.45	1062.37
476.81	1072.90
477.18	1071.50
477.54	1082.73
477.90	1097.95
478.26	1097.24
478.62	1091.86
478.98	1088.58
479.34	1082.97
479.71	1081.33
480.07	1089.75
480.43	1093.26
480.79	1080.63
481.15	1081.09
481.51	1072.67
481.87	1075.71
482.23	1078.75
482.59	1087.41
482.96	1087.65
483.32	1082.03
483.68	1069.86
484.04	1064.01
484.40	1063.07
484.76	1068.69
485.12	1071.50
485.48	1071.03
485.84	1064.48
486.20	1064.01
486.56	1061.43
486.92	1068.69
487.28	1074.77
487.64	1080.86
488.00	1078.52
488.37	1075.01
488.73	1066.58
489.09	1063.07
489.45	1063.77
489.81	1070.80
490.17	1070.33
490.53	1075.01
490.89	1068.69
491.25	1070.33
491.61	1065.18
491.97	1069.16
492.33	1075.71
492.69	1093.97
493.05	1096.54
493.41	1101.69
493.77	1104.73
494.13	1096.78
494.49	1096.78
494.85	1095.60
495.21	1097.01
495.57	1104.73
495.93	1100.99
496.29	1099.12
496.64	1097.48
497.00	1099.35
497.36	1086.71
497.72	1093.03
498.08	1085.54
498.44	1078.28
498.80	1075.94
499.16	1075.24
499.52	1076.18
499.88	1081.33
500.24	1094.90
500.60	1098.18
500.96	1091.39
501.32	1087.65
501.68	1083.20
502.03	1079.46
502.39	1059.79
502.75	1074.54
503.11	1071.73
503.47	1074.54
503.83	1069.39
504.19	1086.01
504.55	1071.97
504.91	1081.80
505.26	1076.65
505.62	1084.60
505.98	1078.28
506.34	1097.01
506.70	1094.90
507.06	1094.20
507.42	1084.84
507.78	1092.33
508.13	1073.37
508.49	1078.52
508.85	1071.97
509.21	1077.35
509.57	1076.18
509.93	1085.31
510.28	1088.35
510.64	1099.58
511.00	1112.22
511.36	1109.18
511.72	1110.35
512.07	1098.18
512.43	1100.75
512.79	1082.03
513.15	1084.14
513.51	1076.18
513.86	1078.99
514.22	1084.14
514.58	1090.92
514.94	1091.86
515.30	1098.65
515.65	1088.58
516.01	1087.41
516.37	1088.12
516.73	1081.33
517.08	1088.12
517.44	1089.05
517.80	1086.24
518.16	1094.90
518.51	1098.41
518.87	1086.94
519.23	1106.84
519.59	1102.63
519.94	1091.39
520.30	1083.43
520.66	1089.05
521.01	1091.16
521.37	1096.54
521.73	1101.69
522.09	1116.20
522.44	1119.24
522.80	1102.16
523.16	1090.46
523.51	1085.54
523.87	1084.37
524.23	1088.58
524.58	1089.75
524.94	1107.31
525.30	1110.35
525.65	1115.73
526.01	1110.58
526.37	1123.69
526.72	1111.29
527.08	1110.82
527.44	1097.48
527.79	1091.86
528.15	1081.80
528.51	1088.82
528.86	1091.63
529.22	1095.14
529.58	1099.12
529.93	1106.84
530.29	1093.97
530.65	1091.39
531.00	1087.41
531.36	1084.14
531.71	1086.01
532.07	1087.88
532.43	1085.07
532.78	1086.71
533.14	1087.65
533.49	1073.37
533.85	1068.45
534.21	1066.11
534.56	1066.35
534.92	1067.52
535.27	1072.67
535.63	1084.14
535.98	1087.88
536.34	1091.39
536.69	1082.97
537.05	1082.97
537.41	1076.88
537.76	1069.86
538.12	1067.28
538.47	1076.18
538.83	1066.58
539.18	1072.20
539.54	1075.71
539.89	1077.58
540.25	1072.90
540.60	1075.24
540.96	1079.22
541.31	1081.56
541.67	1081.80
542.02	1088.58
542.38	1094.20
542.73	1092.56
543.09	1096.31
543.44	1093.73
543.80	1086.71
544.15	1085.77
544.51	1078.75
544.86	1079.22
545.22	1087.41
545.57	1098.41
545.93	1094.67
546.28	1102.16
546.64	1103.33
546.99	1100.05
547.35	1099.35
547.70	1106.84
548.05	1106.84
548.41	1103.56
548.76	1102.86
549.12	1103.56
549.47	1098.41
549.83	1098.41
550.18	1092.56
550.53	1093.26
550.89	1084.60
551.24	1085.31
551.60	1076.65
551.95	1074.07
552.30	1079.22
552.66	1082.26
553.01	1082.03
553.37	1091.39
553.72	1105.90
554.07	1094.67
554.43	1098.41
554.78	1095.84
555.13	1084.60
555.49	1085.54
555.84	1088.12
556.19	1078.99
556.55	1072.90
556.90	1082.26
557.26	1081.80
557.61	1079.22
557.96	1089.29
558.32	1098.41
558.67	1099.12
559.02	1091.63
559.37	1085.07
559.73	1076.18
560.08	1079.69
560.43	1082.97
560.79	1089.75
561.14	1097.01
561.49	1107.54
561.85	1103.33
562.20	1089.29
562.55	1084.60
562.90	1089.52
563.26	1080.39
563.61	1076.65
563.96	1077.11
564.32	1066.11
564.67	1061.20
565.02	1056.28
565.37	1072.90
565.73	1077.58
566.08	1087.18
566.43	1086.24
566.78	1101.22
567.14	1097.24
567.49	1090.92
567.84	1091.39
568.19	1092.09
568.54	1076.18
568.90	1069.39
569.25	1082.03
569.60	1076.65
569.95	1076.41
570.31	1083.67
570.66	1092.80
571.01	1092.56
571.36	1094.67
571.71	1086.94
572.06	1083.67
572.42	1076.18
572.77	1066.11
573.12	1066.35
573.47	1086.71
573.82	1092.80
574.18	1089.05
574.53	1098.41
574.88	1101.22
575.23	1086.94
575.58	1089.05
575.93	1082.73
576.28	1080.86
576.64	1081.56
576.99	1081.33
577.34	1079.92
577.69	1081.80
578.04	1074.07
578.39	1064.01
578.74	1065.88
579.09	1045.28
579.44	1058.39
579.80	1060.50
580.15	1075.71
580.50	1070.09
580.85	1088.82
581.20	1082.03
581.55	1085.77
581.90	1082.03
582.25	1092.33
582.60	1086.01
582.95	1090.46
583.30	1089.29
583.65	1092.80
584.00	1095.37
584.35	1095.37
584.71	1102.39
585.06	1106.61
585.41	1100.75
585.76	1097.24
586.11	1103.09
586.46	1096.54
586.81	1097.24
587.16	1094.67
587.51	1101.46
587.86	1099.58
588.21	1092.33
588.56	1094.90
588.91	1103.56
589.26	1091.16
589.61	1086.94
589.96	1092.80
590.31	1086.71
590.66	1085.77
591.01	1093.03
591.36	1093.50
591.71	1092.09
592.06	1080.39
592.41	1071.03
592.76	1065.18
593.10	1068.92
593.45	1064.94
593.80	1075.71
594.15	1070.80
594.50	1075.24
594.85	1074.31
595.20	1081.33
595.55	1073.37
595.90	1079.46
596.25	1082.26
596.60	1078.75
596.95	1069.39
597.30	1086.01
597.64	1134.22
597.99	1138.90
598.34	1140.54
598.69	1145.69
599.04	1130.48
599.39	1091.39
599.74	1084.14
600.09	1078.99
600.44	1076.41
600.78	1083.67
601.13	1078.28
601.48	1076.88
601.83	1093.50
602.18	1100.05
602.53	1094.67
602.88	1092.56
603.22	1088.12
603.57	1085.77
603.92	1089.29
604.27	1086.48
604.62	1079.22
604.97	1080.39
605.31	1071.50
605.66	1066.35
606.01	1071.73
606.36	1091.86
606.71	1088.12
607.05	1081.80
607.40	1067.75
607.75	1067.05
608.10	1051.84
608.44	1060.03
608.79	1070.80
609.14	1092.56
609.49	1101.22
609.84	1108.24
610.18	1105.44
610.53	1100.29
610.88	1093.97
611.23	1087.88
611.57	1082.26
611.92	1086.71
612.27	1087.65
612.62	1082.73
612.96	1080.16
613.31	1078.28
613.66	1073.37
614.00	1079.69
614.35	1079.22
614.70	1081.56
615.05	1081.09
615.39	1081.09
615.74	1079.46
616.09	1086.01
616.43	1091.16
616.78	1097.01
617.13	1095.84
617.47	1087.88
617.82	1089.05
618.17	1087.18
618.51	1084.84
618.86	1083.43
619.21	1089.52
619.55	1081.33
619.90	1076.18
620.25	1076.41
620.59	1079.69
620.94	1075.24
621.29	1075.01
621.63	1075.48
621.98	1071.97
622.32	1076.65
622.67	1075.24
623.02	1082.97
623.36	1082.97
623.71	1080.86
624.05	1081.56
624.40	1085.54
624.75	1082.03
625.09	1085.31
625.44	1089.52
625.78	1080.63
626.13	1079.22
626.48	1079.92
626.82	1085.07
627.17	1084.60
627.51	1088.35
627.86	1086.71
628.20	1078.52
628.55	1074.54
628.89	1063.54
629.24	1063.54
629.58	1059.56
629.93	1057.22
630.28	1054.41
630.62	1066.58
630.97	1066.11
631.31	1079.46
631.66	1082.73
632.00	1092.80
632.35	1093.50
632.69	1100.29
633.04	1094.67
633.38	1097.95
633.73	1089.52
634.07	1088.12
634.42	1081.80
634.76	1088.82
635.11	1093.97
635.45	1092.80
635.79	1089.52
636.14	1097.71
636.48	1093.73
636.83	1091.16
637.17	1087.41
637.52	1091.39
637.86	1076.41
638.21	1072.43
638.55	1062.60
638.89	1066.35
639.24	1074.54
639.58	1073.84
639.93	1076.41
640.27	1088.82
640.61	1093.73
640.96	1088.12
641.30	1087.65
641.65	1086.71
641.99	1087.41
642.33	1082.03
642.68	1074.31
643.02	1077.82
643.37	1078.52
643.71	1076.41
644.05	1075.48
644.40	1082.73
644.74	1086.48
645.08	1081.09
645.43	1079.69
645.77	1077.58
646.11	1075.48
646.46	1064.01
646.80	1065.18
647.14	1059.09
647.49	1065.41
647.83	1061.20
648.17	1075.48
648.52	1075.48
648.86	1079.46
649.20	1073.84
649.55	1076.88
649.89	1078.75
650.23	1085.31
650.57	1085.54
650.92	1092.33
651.26	1088.35
651.60	1080.86
651.95	1066.58
652.29	1062.84
652.63	1051.60
652.97	1058.86
653.32	1056.05
653.66	1071.73
654.00	1074.77
654.34	1086.01
654.69	1086.48
655.03	1088.35
655.37	1087.65
655.71	1084.37
656.05	1087.18
656.40	1083.90
656.74	1088.12
657.08	1082.26
657.42	1088.35
657.76	1080.86
658.11	1085.54
658.45	1091.86
658.79	1085.54
659.13	1082.97
659.47	1081.09
659.82	1084.37
660.16	1072.67
660.50	1086.01
660.84	1091.16
661.18	1087.18
661.52	1084.14
661.87	1095.37
662.21	1089.75
662.55	1081.80
662.89	1093.26
663.23	1086.71
663.57	1079.46
663.91	1075.71
664.25	1077.11
664.60	1077.58
664.94	1074.31
665.28	1076.65
665.62	1084.37
665.96	1094.90
666.30	1088.35
666.64	1088.58
666.98	1097.24
667.32	1099.82
667.66	1090.46
668.01	1090.92
668.35	1095.84
668.69	1084.84
669.03	1078.05
669.37	1077.11
669.71	1069.62
670.05	1066.35
670.39	1068.92
670.73	1071.26
671.07	1073.84
671.41	1085.77
671.75	1091.39
672.09	1095.60
672.43	1089.52
672.77	1087.65
673.11	1076.18
673.45	1077.35
673.79	1078.28
674.13	1092.56
674.47	1095.60
674.81	1096.31
675.15	1096.31
675.49	1095.37
675.83	1087.41
676.17	1091.86
676.51	1100.52
676.85	1098.65
677.19	1089.29
677.53	1075.94
677.87	1067.28
678.21	1059.56
678.55	1060.73
678.89	1068.92
679.23	1081.56
679.57	1082.97
679.90	1090.92
680.24	1093.73
680.58	1089.05
680.92	1088.82
681.26	1095.60
681.60	1093.97
681.94	1083.67
682.28	1081.09
682.62	1078.05
682.96	1064.24
683.29	1065.65
683.63	1062.60
683.97	1062.60
684.31	1070.33
684.65	1082.73
684.99	1083.90
685.33	1095.84
685.67	1105.67
686.00	1095.84
686.34	1090.46
686.68	1088.58
687.02	1077.11
687.36	1073.60
687.70	1069.39
688.03	1075.71
688.37	1075.48
688.71	1075.48
689.05	1067.28
689.39	1076.41
689.72	1062.84
690.06	1063.54
690.40	1077.58
690.74	1071.97
691.08	1068.69
691.41	1075.01
691.75	1076.41
692.09	1073.14
692.43	1079.22
692.76	1080.86
693.10	1086.94
693.44	1086.71
693.78	1086.94
694.11	1090.69
694.45	1098.65
694.79	1094.20
695.13	1079.69
695.46	1069.86
695.80	1067.52
696.14	1063.31
696.48	1064.01
696.81	1072.20
697.15	1078.75
697.49	1078.99
697.82	1075.71
698.16	1079.92
698.50	1088.12
698.83	1094.20
699.17	1097.95
699.51	1093.03
699.84	1091.39
700.18	1087.88
700.52	1077.11
700.85	1073.60
701.19	1078.28
701.53	1074.31
701.86	1070.33
702.20	1077.58
702.54	1079.22
702.87	1079.92
703.21	1080.63
703.55	1083.90
703.88	1082.97
704.22	1082.97
704.55	1082.97
704.89	1087.88
705.23	1090.92
705.56	1091.63
705.90	1089.05
706.23	1080.16
706.57	1082.26
706.91	1078.05
707.24	1074.77
707.58	1080.16
707.91	1085.77
708.25	1082.26
708.58	1082.97
708.92	1091.39
709.26	1091.39
709.59	1090.92
709.93	1084.60
710.26	1080.86
710.60	1080.16
710.93	1073.84
711.27	1072.90
711.60	1076.18
711.94	1083.43
712.27	1078.99
712.61	1084.14
712.94	1089.99
713.28	1087.88
713.61	1077.58
713.95	1071.73
714.28	1061.90
714.62	1057.45
714.95	1064.48
715.29	1074.07
715.62	1082.03
715.96	1087.65
716.29	1085.07
716.63	1076.41
716.96	1073.84
717.29	1062.60
717.63	1067.28
717.96	1073.60
718.30	1067.28
718.63	1074.77
718.97	1080.86
719.30	1082.73
719.63	1087.88
719.97	1099.82
720.30	1095.14
720.64	1090.46
720.97	1075.71
721.30	1077.11
721.64	1067.28
721.97	1060.03
722.31	1065.65
722.64	1072.67
722.97	1060.73
723.31	1072.90
723.64	1075.24
723.97	1072.43
724.31	1082.26
724.64	1089.05
724.98	1076.18
725.31	1080.63
725.64	1084.14
725.98	1082.26
726.31	1077.58
726.64	1086.48
726.97	1089.52
727.31	1084.14
727.64	1078.75
727.97	1077.35
728.31	1087.88
728.64	1083.43
728.97	1092.33
729.31	1089.75
729.64	1091.16
729.97	1078.75
730.30	1082.50
730.64	1067.52
730.97	1079.92
731.30	1085.77
731.63	1086.71
731.97	1079.46
732.30	1087.88
732.63	1076.88
732.96	1069.16
733.30	1069.62
733.63	1065.88
733.96	1063.31
734.29	1068.92
734.63	1078.05
734.96	1079.22
735.29	1091.16
735.62	1082.97
735.95	1082.50
736.29	1077.82
736.62	1080.39
736.95	1068.22
737.28	1082.97
737.61	1080.63
737.94	1078.99
738.28	1072.43
738.61	1074.07
738.94	1067.05
739.27	1066.82
739.60	1072.43
739.93	1077.82
740.27	1092.80
740.60	1097.95
740.93	1101.92
741.26	1092.80
741.59	1101.22
741.92	1086.71
742.25	1091.39
742.58	1081.33
742.91	1087.41
743.25	1078.75
743.58	1093.03
743.91	1092.56
744.24	1096.78
744.57	1095.60
744.90	1089.99
745.23	1075.01
745.56	1066.35
745.89	1074.31
746.22	1073.37
746.55	1078.28
746.88	1092.09
747.21	1097.95
747.54	1082.97
747.87	1086.24
748.20	1082.97
748.53	1077.11
748.87	1081.80
749.20	1093.03
749.53	1086.94
749.86	1088.12
750.19	1087.41
750.52	1072.67
750.85	1066.82
751.18	1076.41
751.51	1075.01
751.84	1071.73
752.16	1080.39
752.49	1082.26
752.82	1080.39
753.15	1083.43
753.48	1086.01
753.81	1088.58
754.14	1094.20
754.47	1089.29
754.80	1089.29
755.13	1090.46
755.46	1084.37
755.79	1079.22
756.12	1083.43
756.45	1081.56
756.78	1083.20
757.11	1092.56
757.43	1090.92
757.76	1087.41
758.09	1086.48
758.42	1086.24
758.75	1075.94
759.08	1079.46
759.41	1076.65
759.74	1075.94
760.07	1078.28
760.39	1070.33
760.72	1070.56
761.05	1074.07
761.38	1072.90
761.71	1070.80
762.04	1083.43
762.36	1085.07
762.69	1082.26
763.02	1085.77
763.35	1074.31
763.68	1081.80
764.01	1084.84
764.33	1076.65
764.66	1074.31
764.99	1092.56
765.32	1087.65
765.65	1083.67
765.97	1101.22
766.30	1107.54
