SpectraSuite Data File
++++++++++++++++++++++++++++++++++++
Date: Mon Aug 26 10:25:58 PDT 2019
User: corrico
Dark Spectrum Present: No
Reference Spectrum Present: No
Number of Sampled Component Spectra: 1
Spectrometers: USB2+H06089
Integration Time (usec): 10000 (USB2+H06089)
Spectra Averaged: 2 (USB2+H06089)
Boxcar Smoothing: 2 (USB2+H06089)
Correct for Electrical Dark: No (USB2+H06089)
Strobe/Lamp Enabled: No (USB2+H06089)
Correct for Detector Non-linearity: No (USB2+H06089)
Correct for Stray Light: No (USB2+H06089)
Number of Pixels in Processed Spectrum: 2048
>>>>>Begin Processed Spectral Data<<<<<
339.70	1046.22
340.07	1046.22
340.45	1007.83
340.82	983.73
341.19	956.58
341.57	928.49
341.94	919.83
342.31	914.21
342.69	895.96
343.06	893.62
343.43	891.28
343.81	881.45
344.18	874.66
344.55	886.83
344.93	888.47
345.30	892.21
345.67	903.91
346.04	918.19
346.42	933.41
346.79	943.70
347.16	954.70
347.54	958.68
347.91	968.28
348.28	976.94
348.65	978.11
349.03	993.32
349.40	1011.35
349.77	1024.22
350.14	1033.81
350.52	1047.39
350.89	1047.16
351.26	1046.92
351.63	1039.90
352.01	1038.50
352.38	1040.37
352.75	1029.84
353.12	1030.07
353.50	1041.30
353.87	1051.60
354.24	1057.69
354.61	1078.28
354.98	1091.39
355.36	1090.69
355.73	1083.20
356.10	1085.54
356.47	1077.11
356.84	1066.35
357.22	1071.97
357.59	1066.58
357.96	1065.41
358.33	1074.31
358.70	1081.33
359.08	1079.69
359.45	1092.80
359.82	1099.82
360.19	1092.33
360.56	1097.48
360.94	1097.01
361.31	1090.46
361.68	1082.50
362.05	1093.97
362.42	1083.90
362.79	1072.20
363.16	1078.52
363.54	1080.86
363.91	1067.99
364.28	1071.97
364.65	1077.58
365.02	1072.90
365.39	1062.14
365.76	1071.97
366.14	1073.60
366.51	1065.65
366.88	1058.39
367.25	1064.71
367.62	1059.33
367.99	1060.26
368.36	1075.94
368.73	1077.11
369.10	1073.37
369.48	1068.92
369.85	1067.52
370.22	1059.79
370.59	1066.35
370.96	1067.75
371.33	1067.75
371.70	1068.22
372.07	1071.03
372.44	1060.73
372.81	1056.05
373.18	1058.39
373.55	1052.07
373.93	1047.16
374.30	1043.18
374.67	1042.94
375.04	1043.88
375.41	1053.48
375.78	1058.16
376.15	1066.58
376.52	1068.69
376.89	1058.86
377.26	1057.69
377.63	1056.28
378.00	1064.24
378.37	1080.86
378.74	1086.71
379.11	1084.84
379.48	1088.35
379.85	1080.16
380.22	1064.24
380.59	1064.48
380.96	1055.35
381.33	1042.47
381.70	1049.73
382.07	1066.35
382.44	1074.54
382.81	1075.94
383.18	1077.11
383.55	1072.20
383.92	1062.84
384.29	1055.35
384.66	1063.31
385.03	1064.24
385.40	1065.18
385.77	1065.18
386.14	1067.99
386.51	1062.84
386.88	1068.22
387.25	1070.33
387.62	1070.33
387.99	1071.73
388.36	1070.80
388.73	1075.94
389.10	1085.54
389.46	1080.16
389.83	1077.11
390.20	1077.82
390.57	1079.69
390.94	1068.45
391.31	1071.97
391.68	1069.86
392.05	1073.14
392.42	1066.82
392.79	1064.24
393.16	1061.43
393.53	1068.69
393.89	1065.88
394.26	1071.26
394.63	1065.88
395.00	1068.22
395.37	1067.28
395.74	1070.56
396.11	1069.16
396.48	1080.39
396.84	1084.14
397.21	1088.35
397.58	1089.52
397.95	1085.07
398.32	1076.41
398.69	1075.24
399.06	1075.01
399.42	1078.75
399.79	1085.31
400.16	1093.73
400.53	1095.37
400.90	1091.39
401.27	1081.56
401.64	1079.92
402.00	1079.69
402.37	1071.26
402.74	1078.75
403.11	1086.01
403.48	1080.63
403.84	1080.63
404.21	1083.20
404.58	1071.50
404.95	1064.71
405.32	1069.62
405.68	1074.77
406.05	1078.75
406.42	1080.16
406.79	1077.35
407.16	1070.09
407.52	1069.62
407.89	1068.69
408.26	1077.11
408.63	1084.37
408.99	1085.31
409.36	1070.80
409.73	1080.63
410.10	1078.99
410.47	1083.20
410.83	1086.94
411.20	1094.90
411.57	1086.48
411.94	1087.18
412.30	1072.90
412.67	1062.84
413.04	1066.58
413.40	1061.20
413.77	1045.05
414.14	1051.37
414.51	1056.28
414.87	1055.82
415.24	1054.88
415.61	1070.09
415.97	1076.88
416.34	1082.97
416.71	1083.20
417.08	1094.43
417.44	1090.22
417.81	1088.12
418.18	1084.84
418.54	1082.03
418.91	1076.41
419.28	1075.01
419.64	1062.60
420.01	1069.16
420.38	1060.96
420.74	1065.18
421.11	1065.65
421.48	1081.33
421.84	1075.48
422.21	1085.07
422.58	1086.71
422.94	1087.18
423.31	1082.03
423.68	1076.18
424.04	1065.65
424.41	1059.09
424.77	1058.86
425.14	1054.88
425.51	1061.67
425.87	1067.75
426.24	1067.05
426.61	1074.54
426.97	1076.41
427.34	1077.11
427.70	1080.63
428.07	1075.71
428.44	1075.71
428.80	1069.39
429.17	1070.56
429.53	1067.05
429.90	1073.84
430.27	1061.43
430.63	1064.71
431.00	1064.94
431.36	1069.39
431.73	1065.65
432.09	1061.67
432.46	1066.35
432.83	1069.86
433.19	1073.84
433.56	1068.69
433.92	1075.48
434.29	1081.33
434.65	1078.99
435.02	1077.11
435.38	1086.01
435.75	1095.84
436.11	1087.18
436.48	1089.75
436.84	1080.39
437.21	1082.50
437.57	1074.07
437.94	1091.16
438.30	1093.73
438.67	1106.84
439.03	1097.95
439.40	1096.31
439.76	1076.18
440.13	1074.54
440.49	1063.31
440.86	1069.16
441.22	1079.22
441.59	1092.09
441.95	1083.67
442.32	1085.54
442.68	1091.39
443.05	1081.09
443.41	1066.82
443.78	1079.22
444.14	1082.50
444.51	1074.07
444.87	1076.18
445.24	1079.22
445.60	1071.03
445.96	1067.05
446.33	1080.39
446.69	1081.80
447.06	1092.56
447.42	1083.90
447.79	1085.07
448.15	1077.82
448.51	1077.58
448.88	1085.07
449.24	1100.75
449.61	1095.37
449.97	1095.14
450.33	1096.31
450.70	1082.50
451.06	1074.77
451.43	1086.01
451.79	1092.80
452.15	1097.01
452.52	1098.65
452.88	1097.01
453.24	1090.69
453.61	1076.18
453.97	1075.48
454.34	1075.24
454.70	1079.69
455.06	1087.41
455.43	1086.48
455.79	1081.56
456.15	1074.31
456.52	1069.62
456.88	1069.86
457.24	1075.48
457.61	1078.05
457.97	1086.71
458.33	1085.31
458.70	1079.92
459.06	1090.46
459.42	1080.63
459.79	1074.07
460.15	1076.88
460.51	1068.92
460.88	1046.92
461.24	1052.77
461.60	1062.84
461.96	1075.01
462.33	1086.24
462.69	1098.88
463.05	1100.52
463.42	1094.90
463.78	1077.82
464.14	1070.09
464.50	1065.18
464.87	1060.73
465.23	1058.86
465.59	1061.20
465.95	1052.07
466.32	1046.69
466.68	1051.13
467.04	1047.16
467.40	1047.86
467.77	1051.84
468.13	1053.71
468.49	1053.01
468.85	1055.82
469.22	1062.60
469.58	1069.86
469.94	1082.26
470.30	1081.09
470.66	1089.05
471.03	1085.54
471.39	1085.07
471.75	1075.94
472.11	1078.75
472.47	1065.41
472.84	1055.58
473.20	1051.37
473.56	1056.99
473.92	1064.94
474.28	1066.11
474.65	1067.99
475.01	1080.63
475.37	1088.58
475.73	1083.43
476.09	1090.92
476.45	1090.22
476.81	1078.52
477.18	1076.88
477.54	1077.82
477.90	1073.37
478.26	1080.86
478.62	1085.07
478.98	1075.24
479.34	1081.33
479.71	1090.22
480.07	1093.03
480.43	1096.07
480.79	1096.07
481.15	1076.88
481.51	1074.77
481.87	1066.11
482.23	1067.28
482.59	1072.67
482.96	1079.92
483.32	1070.09
483.68	1070.56
484.04	1062.84
484.40	1064.48
484.76	1074.31
485.12	1090.46
485.48	1093.97
485.84	1107.31
486.20	1099.58
486.56	1096.54
486.92	1086.24
487.28	1086.48
487.64	1067.52
488.00	1071.97
488.37	1061.90
488.73	1072.90
489.09	1075.94
489.45	1079.92
489.81	1081.09
490.17	1081.80
490.53	1064.01
490.89	1064.48
491.25	1066.11
491.61	1062.60
491.97	1056.99
492.33	1065.18
492.69	1064.24
493.05	1069.16
493.41	1068.45
493.77	1071.73
494.13	1072.20
494.49	1071.50
494.85	1061.43
495.21	1063.31
495.57	1064.94
495.93	1061.67
496.29	1051.60
496.64	1066.11
497.00	1067.28
497.36	1075.94
497.72	1077.82
498.08	1088.58
498.44	1084.37
498.80	1085.07
499.16	1082.03
499.52	1086.71
499.88	1083.67
500.24	1086.71
500.60	1084.14
500.96	1083.20
501.32	1083.67
501.68	1082.97
502.03	1082.03
502.39	1086.24
502.75	1096.54
503.11	1088.58
503.47	1090.22
503.83	1076.41
504.19	1072.43
504.55	1064.01
504.91	1067.05
505.26	1055.58
505.62	1066.11
505.98	1067.99
506.34	1067.75
506.70	1067.28
507.06	1086.71
507.42	1081.56
507.78	1081.80
508.13	1077.82
508.49	1076.88
508.85	1073.60
509.21	1069.39
509.57	1065.18
509.93	1067.75
510.28	1072.20
510.64	1067.75
511.00	1074.77
511.36	1082.97
511.72	1077.82
512.07	1081.80
512.43	1084.84
512.79	1080.16
513.15	1073.60
513.51	1084.37
513.86	1083.67
514.22	1083.90
514.58	1090.92
514.94	1082.73
515.30	1077.11
515.65	1076.88
516.01	1069.39
516.37	1072.67
516.73	1085.07
517.08	1095.60
517.44	1089.52
517.80	1097.01
518.16	1097.48
518.51	1091.16
518.87	1088.12
519.23	1086.94
519.59	1089.29
519.94	1088.12
520.30	1096.07
520.66	1087.88
521.01	1097.95
521.37	1094.90
521.73	1101.46
522.09	1100.99
522.44	1103.33
522.80	1106.84
523.16	1111.75
523.51	1108.24
523.87	1105.20
524.23	1104.26
524.58	1098.18
524.94	1097.95
525.30	1088.35
525.65	1086.01
526.01	1090.69
526.37	1091.63
526.72	1090.46
527.08	1097.48
527.44	1097.48
527.79	1093.26
528.15	1085.77
528.51	1074.54
528.86	1077.82
529.22	1072.43
529.58	1071.03
529.93	1067.52
530.29	1072.67
530.65	1076.18
531.00	1084.14
531.36	1090.22
531.71	1096.54
532.07	1098.18
532.43	1092.33
532.78	1091.63
533.14	1078.75
533.49	1070.80
533.85	1072.67
534.21	1068.45
534.56	1078.99
534.92	1085.31
535.27	1090.46
535.63	1093.97
535.98	1100.05
536.34	1083.67
536.69	1088.12
537.05	1088.82
537.41	1091.39
537.76	1088.58
538.12	1089.29
538.47	1089.75
538.83	1098.18
539.18	1078.05
539.54	1077.58
539.89	1084.84
540.25	1082.50
540.60	1083.20
540.96	1093.03
541.31	1104.73
541.67	1115.97
542.02	1120.18
542.38	1122.75
542.73	1126.27
543.09	1116.20
543.44	1113.39
543.80	1109.88
544.15	1095.14
544.51	1095.14
544.86	1099.12
545.22	1092.80
545.57	1096.54
545.93	1095.14
546.28	1096.07
546.64	1095.84
546.99	1092.09
547.35	1090.92
547.70	1103.09
548.05	1103.56
548.41	1097.95
548.76	1091.16
549.12	1083.20
549.47	1080.86
549.83	1081.09
550.18	1083.43
550.53	1095.60
550.89	1100.29
551.24	1107.54
551.60	1099.58
551.95	1087.88
552.30	1080.16
552.66	1081.33
553.01	1076.65
553.37	1082.03
553.72	1085.07
554.07	1084.14
554.43	1084.14
554.78	1072.43
555.13	1063.07
555.49	1062.60
555.84	1070.33
556.19	1064.01
556.55	1065.88
556.90	1071.73
557.26	1070.56
557.61	1062.37
557.96	1054.18
558.32	1058.86
558.67	1062.37
559.02	1072.43
559.37	1078.28
559.73	1083.90
560.08	1086.01
560.43	1085.31
560.79	1075.24
561.14	1071.73
561.49	1077.58
561.85	1075.01
562.20	1075.24
562.55	1082.97
562.90	1084.60
563.26	1089.75
563.61	1087.65
563.96	1079.46
564.32	1078.28
564.67	1077.82
565.02	1067.05
565.37	1071.73
565.73	1080.39
566.08	1078.75
566.43	1092.33
566.78	1098.65
567.14	1095.84
567.49	1093.97
567.84	1093.73
568.19	1075.94
568.54	1081.09
568.90	1079.46
569.25	1076.65
569.60	1078.05
569.95	1089.52
570.31	1080.39
570.66	1084.37
571.01	1086.71
571.36	1092.56
571.71	1083.90
572.06	1099.82
572.42	1102.16
572.77	1099.58
573.12	1079.69
573.47	1078.99
573.82	1058.39
574.18	1046.22
574.53	1043.64
574.88	1056.52
575.23	1055.35
575.58	1056.05
575.93	1050.43
576.28	1062.84
576.64	1075.71
576.99	1072.67
577.34	1073.60
577.69	1089.99
578.04	1087.41
578.39	1077.11
578.74	1082.26
579.09	1085.07
579.44	1074.54
579.80	1079.22
580.15	1080.39
580.50	1087.65
580.85	1099.82
581.20	1112.22
581.55	1112.92
581.90	1118.31
582.25	1114.80
582.60	1111.05
582.95	1102.86
583.30	1103.56
583.65	1100.29
584.00	1086.94
584.35	1071.50
584.71	1072.20
585.06	1059.56
585.41	1057.22
585.76	1070.33
586.11	1088.58
586.46	1093.26
586.81	1090.92
587.16	1088.12
587.51	1080.63
587.86	1075.01
588.21	1075.94
588.56	1081.33
588.91	1074.54
589.26	1071.97
589.61	1071.97
589.96	1059.79
590.31	1072.20
590.66	1084.14
591.01	1088.82
591.36	1087.41
591.71	1096.31
592.06	1077.35
592.41	1072.43
592.76	1074.07
593.10	1084.60
593.45	1085.07
593.80	1089.99
594.15	1092.33
594.50	1090.46
594.85	1080.39
595.20	1077.58
595.55	1073.60
595.90	1066.58
596.25	1070.09
596.60	1068.92
596.95	1064.71
597.30	1069.86
597.64	1128.37
597.99	1135.86
598.34	1144.29
598.69	1158.33
599.04	1157.16
599.39	1104.03
599.74	1102.86
600.09	1103.56
600.44	1104.26
600.78	1103.09
601.13	1100.05
601.48	1093.73
601.83	1091.86
602.18	1085.77
602.53	1084.14
602.88	1089.05
603.22	1088.35
603.57	1074.07
603.92	1066.82
604.27	1068.92
604.62	1057.22
604.97	1055.35
605.31	1060.73
605.66	1064.48
606.01	1065.88
606.36	1077.82
606.71	1086.71
607.05	1096.78
607.40	1097.24
607.75	1097.01
608.10	1090.22
608.44	1082.03
608.79	1072.43
609.14	1069.86
609.49	1068.92
609.84	1070.09
610.18	1072.67
610.53	1075.71
610.88	1086.24
611.23	1089.75
611.57	1093.50
611.92	1093.50
612.27	1091.86
612.62	1090.69
612.96	1096.54
613.31	1102.39
613.66	1104.50
614.00	1106.61
614.35	1105.67
614.70	1101.92
615.05	1104.26
615.39	1107.07
615.74	1105.90
616.09	1096.31
616.43	1098.65
616.78	1082.26
617.13	1070.56
617.47	1063.77
617.82	1074.54
618.17	1071.26
618.51	1079.22
618.86	1094.67
619.21	1104.73
619.55	1097.24
619.90	1099.12
620.25	1099.35
620.59	1085.54
620.94	1084.14
621.29	1086.24
621.63	1088.58
621.98	1091.63
622.32	1092.09
622.67	1088.12
623.02	1088.82
623.36	1082.03
623.71	1081.80
624.05	1084.60
624.40	1091.16
624.75	1089.99
625.09	1087.18
625.44	1084.84
625.78	1085.31
626.13	1080.63
626.48	1077.58
626.82	1082.97
627.17	1072.90
627.51	1067.99
627.86	1076.65
628.20	1086.71
628.55	1084.60
628.89	1092.33
629.24	1097.01
629.58	1093.26
629.93	1082.26
630.28	1086.24
630.62	1086.01
630.97	1081.09
631.31	1067.75
631.66	1068.69
632.00	1055.82
632.35	1057.45
632.69	1066.35
633.04	1074.07
633.38	1071.03
633.73	1084.60
634.07	1081.33
634.42	1079.22
634.76	1081.80
635.11	1077.58
635.45	1064.24
635.79	1065.18
636.14	1064.48
636.48	1059.79
636.83	1071.97
637.17	1081.33
637.52	1079.92
637.86	1082.03
638.21	1079.22
638.55	1077.82
638.89	1077.58
639.24	1077.82
639.58	1078.99
639.93	1083.67
640.27	1076.41
640.61	1071.03
640.96	1065.18
641.30	1060.73
641.65	1050.20
641.99	1059.09
642.33	1071.03
642.68	1063.54
643.02	1067.75
643.37	1081.56
643.71	1078.52
644.05	1066.11
644.40	1080.86
644.74	1081.56
645.08	1076.88
645.43	1077.35
645.77	1069.16
646.11	1067.99
646.46	1065.88
646.80	1067.99
647.14	1072.20
647.49	1087.18
647.83	1087.65
648.17	1087.41
648.52	1092.09
648.86	1089.75
649.20	1093.73
649.55	1094.20
649.89	1093.50
650.23	1088.35
650.57	1089.75
650.92	1093.97
651.26	1088.35
651.60	1092.80
651.95	1095.60
652.29	1089.05
652.63	1077.82
652.97	1083.90
653.32	1080.16
653.66	1075.94
654.00	1081.56
654.34	1085.77
654.69	1088.82
655.03	1091.16
655.37	1084.37
655.71	1079.92
656.05	1086.24
656.40	1083.43
656.74	1070.56
657.08	1081.80
657.42	1083.20
657.76	1081.09
658.11	1079.69
658.45	1093.97
658.79	1090.92
659.13	1091.39
659.47	1087.18
659.82	1085.31
660.16	1081.33
660.50	1080.86
660.84	1073.60
661.18	1069.62
661.52	1075.01
661.87	1071.97
662.21	1069.39
662.55	1070.56
662.89	1070.56
663.23	1073.60
663.57	1074.54
663.91	1080.86
664.25	1093.03
664.60	1097.01
664.94	1098.65
665.28	1095.84
665.62	1096.07
665.96	1086.94
666.30	1078.05
666.64	1072.90
666.98	1076.65
667.32	1069.39
667.66	1074.31
668.01	1075.48
668.35	1076.41
668.69	1070.09
669.03	1069.39
669.37	1064.71
669.71	1068.22
670.05	1067.99
670.39	1078.99
670.73	1088.12
671.07	1086.71
671.41	1083.90
671.75	1082.97
672.09	1069.16
672.43	1063.31
672.77	1065.18
673.11	1076.88
673.45	1075.48
673.79	1080.39
674.13	1082.73
674.47	1087.88
674.81	1081.09
675.15	1084.60
675.49	1090.22
675.83	1084.37
676.17	1074.77
676.51	1079.92
676.85	1077.11
677.19	1070.09
677.53	1066.58
677.87	1072.90
678.21	1066.58
678.55	1066.11
678.89	1073.37
679.23	1086.01
679.57	1097.24
679.90	1105.90
680.24	1113.63
680.58	1111.75
680.92	1095.84
681.26	1079.69
681.60	1075.48
681.94	1072.20
682.28	1073.84
682.62	1085.31
682.96	1079.22
683.29	1076.18
683.63	1084.84
683.97	1083.20
684.31	1089.29
684.65	1111.75
684.99	1100.99
685.33	1089.99
685.67	1093.50
686.00	1088.82
686.34	1079.22
686.68	1085.31
687.02	1089.75
687.36	1081.80
687.70	1075.48
688.03	1078.28
688.37	1087.65
688.71	1086.24
689.05	1094.90
689.39	1095.84
689.72	1087.41
690.06	1074.31
690.40	1074.31
690.74	1074.31
691.08	1085.54
691.41	1093.26
691.75	1099.12
692.09	1094.67
692.43	1085.77
692.76	1076.88
693.10	1065.88
693.44	1069.16
693.78	1070.33
694.11	1069.16
694.45	1065.65
694.79	1074.77
695.13	1077.11
695.46	1071.03
695.80	1076.65
696.14	1088.12
696.48	1088.58
696.81	1078.05
697.15	1089.52
697.49	1087.88
697.82	1078.75
698.16	1073.37
698.50	1074.31
698.83	1066.58
699.17	1062.84
699.51	1076.18
699.84	1078.99
700.18	1090.46
700.52	1098.18
700.85	1104.97
701.19	1093.50
701.53	1099.12
701.86	1103.56
702.20	1109.88
702.54	1109.18
702.87	1105.20
703.21	1092.80
703.55	1081.80
703.88	1073.14
704.22	1064.48
704.55	1070.09
704.89	1082.73
705.23	1089.05
705.56	1083.43
705.90	1091.16
706.23	1088.35
706.57	1079.46
706.91	1077.58
707.24	1075.24
707.58	1076.18
707.91	1080.63
708.25	1087.88
708.58	1084.14
708.92	1093.97
709.26	1093.26
709.59	1085.54
709.93	1077.82
710.26	1074.54
710.60	1065.41
710.93	1065.18
711.27	1078.05
711.60	1085.77
711.94	1088.35
712.27	1084.60
712.61	1083.67
712.94	1074.31
713.28	1062.60
713.61	1056.99
713.95	1070.33
714.28	1065.41
714.62	1066.11
714.95	1074.07
715.29	1082.03
715.62	1078.99
715.96	1090.69
716.29	1092.56
716.63	1083.90
716.96	1084.37
717.29	1074.54
717.63	1067.05
717.96	1062.60
718.30	1066.11
718.63	1064.01
718.97	1071.26
719.30	1073.14
719.63	1075.24
719.97	1080.39
720.30	1079.92
720.64	1078.52
720.97	1083.67
721.30	1075.71
721.64	1076.18
721.97	1079.22
722.31	1084.60
722.64	1069.62
722.97	1084.14
723.31	1087.18
723.64	1087.88
723.97	1084.37
724.31	1093.50
724.64	1082.50
724.98	1069.39
725.31	1064.48
725.64	1060.26
725.98	1075.24
726.31	1086.94
726.64	1091.63
726.97	1100.99
727.31	1101.22
727.64	1086.01
727.97	1083.90
728.31	1085.54
728.64	1072.67
728.97	1078.99
729.31	1082.97
729.64	1075.24
729.97	1080.63
730.30	1086.48
730.64	1087.18
730.97	1079.92
731.30	1090.46
731.63	1084.60
731.97	1087.18
732.30	1083.43
732.63	1091.16
732.96	1079.22
733.30	1072.43
733.63	1063.31
733.96	1058.16
734.29	1054.65
734.63	1054.65
734.96	1052.54
735.29	1064.48
735.62	1076.65
735.95	1075.01
736.29	1078.05
736.62	1095.84
736.95	1076.65
737.28	1070.80
737.61	1077.82
737.94	1077.58
738.28	1070.80
738.61	1087.65
738.94	1090.46
739.27	1095.84
739.60	1097.71
739.93	1099.82
740.27	1093.73
740.60	1081.09
740.93	1069.62
741.26	1068.45
741.59	1075.94
741.92	1084.84
742.25	1093.50
742.58	1091.39
742.91	1086.71
743.25	1082.97
743.58	1073.60
743.91	1071.50
744.24	1081.33
744.57	1093.26
744.90	1092.09
745.23	1088.58
745.56	1090.69
745.89	1086.71
746.22	1088.82
746.55	1078.05
746.88	1080.63
747.21	1084.60
747.54	1086.71
747.87	1076.41
748.20	1085.31
748.53	1084.37
748.87	1080.86
749.20	1064.71
749.53	1069.16
749.86	1067.28
750.19	1070.80
750.52	1065.65
750.85	1079.92
751.18	1074.77
751.51	1081.09
751.84	1086.94
752.16	1091.39
752.49	1091.16
752.82	1092.09
753.15	1079.22
753.48	1079.69
753.81	1077.58
754.14	1072.90
754.47	1072.67
754.80	1065.88
755.13	1065.88
755.46	1060.50
755.79	1067.75
756.12	1072.90
756.45	1080.16
756.78	1075.48
757.11	1082.97
757.43	1071.97
757.76	1079.92
758.09	1089.75
758.42	1101.22
758.75	1101.22
759.08	1111.05
759.41	1108.95
759.74	1107.31
760.07	1090.69
760.39	1093.03
760.72	1087.41
761.05	1071.73
761.38	1070.56
761.71	1074.77
762.04	1082.26
762.36	1085.54
762.69	1087.88
763.02	1087.18
763.35	1088.12
763.68	1071.26
764.01	1070.33
764.33	1079.46
764.66	1074.54
764.99	1076.18
765.32	1082.50
765.65	1081.09
765.97	1072.43
766.30	1076.41
