SpectraSuite Data File
++++++++++++++++++++++++++++++++++++
Date: Mon Aug 26 10:25:56 PDT 2019
User: corrico
Dark Spectrum Present: No
Reference Spectrum Present: No
Number of Sampled Component Spectra: 1
Spectrometers: USB2+H06089
Integration Time (usec): 10000 (USB2+H06089)
Spectra Averaged: 2 (USB2+H06089)
Boxcar Smoothing: 2 (USB2+H06089)
Correct for Electrical Dark: No (USB2+H06089)
Strobe/Lamp Enabled: No (USB2+H06089)
Correct for Detector Non-linearity: No (USB2+H06089)
Correct for Stray Light: No (USB2+H06089)
Number of Pixels in Processed Spectrum: 2048
>>>>>Begin Processed Spectral Data<<<<<
339.70	1056.75
340.07	1056.75
340.45	1017.66
340.82	989.58
341.19	961.49
341.57	929.89
341.94	920.53
342.31	905.55
342.69	902.51
343.06	896.43
343.43	893.85
343.81	901.11
344.18	914.45
344.55	921.23
344.93	928.02
345.30	940.90
345.67	939.02
346.04	934.81
346.42	935.75
346.79	941.13
347.16	943.47
347.54	950.26
347.91	967.81
348.28	973.43
348.65	979.75
349.03	996.37
349.40	1008.30
349.77	1012.28
350.14	1029.37
350.52	1045.05
350.89	1042.01
351.26	1057.45
351.63	1070.56
352.01	1076.41
352.38	1069.86
352.75	1071.97
353.12	1058.16
353.50	1053.71
353.87	1055.35
354.24	1071.97
354.61	1083.67
354.98	1085.77
355.36	1090.46
355.73	1091.39
356.10	1096.07
356.47	1089.75
356.84	1095.37
357.22	1092.09
357.59	1084.60
357.96	1075.48
358.33	1078.75
358.70	1076.88
359.08	1067.05
359.45	1070.09
359.82	1068.69
360.19	1073.60
360.56	1075.94
360.94	1083.67
361.31	1082.50
361.68	1073.84
362.05	1062.14
362.42	1066.58
362.79	1075.48
363.16	1068.69
363.54	1083.20
363.91	1085.77
364.28	1074.07
364.65	1056.05
365.02	1070.09
365.39	1072.20
365.76	1079.69
366.14	1083.20
366.51	1084.37
366.88	1069.86
367.25	1048.33
367.62	1041.77
367.99	1038.03
368.36	1040.60
368.73	1056.52
369.10	1070.09
369.48	1071.03
369.85	1067.28
370.22	1075.48
370.59	1062.14
370.96	1061.43
371.33	1058.16
371.70	1073.14
372.07	1067.05
372.44	1080.86
372.81	1084.84
373.18	1089.99
373.55	1082.03
373.93	1088.82
374.30	1082.50
374.67	1079.46
375.04	1079.22
375.41	1085.07
375.78	1084.60
376.15	1084.84
376.52	1082.50
376.89	1077.82
377.26	1082.50
377.63	1087.88
378.00	1082.03
378.37	1081.56
378.74	1083.67
379.11	1076.41
379.48	1066.35
379.85	1061.43
380.22	1054.41
380.59	1055.11
380.96	1050.90
381.33	1049.50
381.70	1060.50
382.07	1068.45
382.44	1068.22
382.81	1070.56
383.18	1073.84
383.55	1077.35
383.92	1073.14
384.29	1067.99
384.66	1069.86
385.03	1066.11
385.40	1058.39
385.77	1072.90
386.14	1071.03
386.51	1073.37
386.88	1080.16
387.25	1078.52
387.62	1075.24
387.99	1075.94
388.36	1067.75
388.73	1064.01
389.10	1067.52
389.46	1054.18
389.83	1057.22
390.20	1064.71
390.57	1056.28
390.94	1053.24
391.31	1051.84
391.68	1056.05
392.05	1064.01
392.42	1061.20
392.79	1068.45
393.16	1080.16
393.53	1075.48
393.89	1065.88
394.26	1080.63
394.63	1070.09
395.00	1060.26
395.37	1062.37
395.74	1055.82
396.11	1047.39
396.48	1051.13
396.84	1062.60
397.21	1065.41
397.58	1064.71
397.95	1065.65
398.32	1069.62
398.69	1069.39
399.06	1067.99
399.42	1066.82
399.79	1074.31
400.16	1082.26
400.53	1078.52
400.90	1080.16
401.27	1093.26
401.64	1080.16
402.00	1073.14
402.37	1071.03
402.74	1072.90
403.11	1071.03
403.48	1078.28
403.84	1070.56
404.21	1066.11
404.58	1056.52
404.95	1059.33
405.32	1069.16
405.68	1073.14
406.05	1080.63
406.42	1093.73
406.79	1083.43
407.16	1075.94
407.52	1082.97
407.89	1078.99
408.26	1074.07
408.63	1081.33
408.99	1081.33
409.36	1074.31
409.73	1083.43
410.10	1085.77
410.47	1082.73
410.83	1087.65
411.20	1093.26
411.57	1085.77
411.94	1089.52
412.30	1088.82
412.67	1077.11
413.04	1071.26
413.40	1071.26
413.77	1067.99
414.14	1066.11
414.51	1075.24
414.87	1070.56
415.24	1073.84
415.61	1076.41
415.97	1073.37
416.34	1075.01
416.71	1084.37
417.08	1080.16
417.44	1081.56
417.81	1098.41
418.18	1097.48
418.54	1099.35
418.91	1100.75
419.28	1089.52
419.64	1086.94
420.01	1085.07
420.38	1076.41
420.74	1077.35
421.11	1082.03
421.48	1066.11
421.84	1065.88
422.21	1065.88
422.58	1075.71
422.94	1075.01
423.31	1083.90
423.68	1088.12
424.04	1094.20
424.41	1091.39
424.77	1098.41
425.14	1106.84
425.51	1096.78
425.87	1093.26
426.24	1089.52
426.61	1080.16
426.97	1065.65
427.34	1066.35
427.70	1066.35
428.07	1058.16
428.44	1058.86
428.80	1063.77
429.17	1076.88
429.53	1084.37
429.90	1084.84
430.27	1082.97
430.63	1088.12
431.00	1080.39
431.36	1067.52
431.73	1072.20
432.09	1064.94
432.46	1069.16
432.83	1075.94
433.19	1083.67
433.56	1086.71
433.92	1093.50
434.29	1091.16
434.65	1088.82
435.02	1089.52
435.38	1081.56
435.75	1083.20
436.11	1075.24
436.48	1074.54
436.84	1077.58
437.21	1088.35
437.57	1100.52
437.94	1103.56
438.30	1100.75
438.67	1100.99
439.03	1101.92
439.40	1093.50
439.76	1096.31
440.13	1091.86
440.49	1089.29
440.86	1081.80
441.22	1081.09
441.59	1074.54
441.95	1075.71
442.32	1065.18
442.68	1063.07
443.05	1065.18
443.41	1071.03
443.78	1072.20
444.14	1076.88
444.51	1081.09
444.87	1077.58
445.24	1075.48
445.60	1081.80
445.96	1075.71
446.33	1075.48
446.69	1079.22
447.06	1068.92
447.42	1060.26
447.79	1071.97
448.15	1070.33
448.51	1062.14
448.88	1066.58
449.24	1066.58
449.61	1066.58
449.97	1066.35
450.33	1072.43
450.70	1078.52
451.06	1074.54
451.43	1072.67
451.79	1080.63
452.15	1088.12
452.52	1093.50
452.88	1109.41
453.24	1102.86
453.61	1110.82
453.97	1100.52
454.34	1090.22
454.70	1077.58
455.06	1079.69
455.43	1069.39
455.79	1079.46
456.15	1085.77
456.52	1087.88
456.88	1093.73
457.24	1093.03
457.61	1080.86
457.97	1073.60
458.33	1077.82
458.70	1072.43
459.06	1064.01
459.42	1066.11
459.79	1073.37
460.15	1069.16
460.51	1077.35
460.88	1078.05
461.24	1083.67
461.60	1072.67
461.96	1069.86
462.33	1054.88
462.69	1053.24
463.05	1049.96
463.42	1051.84
463.78	1059.56
464.14	1072.43
464.50	1077.58
464.87	1077.35
465.23	1082.50
465.59	1082.50
465.95	1080.63
466.32	1089.52
466.68	1095.14
467.04	1088.12
467.40	1085.77
467.77	1083.67
468.13	1076.65
468.49	1072.90
468.85	1068.22
469.22	1071.26
469.58	1078.28
469.94	1076.41
470.30	1076.41
470.66	1086.71
471.03	1079.22
471.39	1073.14
471.75	1070.56
472.11	1071.50
472.47	1068.69
472.84	1073.37
473.20	1070.33
473.56	1077.58
473.92	1067.99
474.28	1082.26
474.65	1078.05
475.01	1085.07
475.37	1073.37
475.73	1074.54
476.09	1064.24
476.45	1061.67
476.81	1053.71
477.18	1067.99
477.54	1067.52
477.90	1067.75
478.26	1068.45
478.62	1068.92
478.98	1060.50
479.34	1066.82
479.71	1074.54
480.07	1078.05
480.43	1078.75
480.79	1079.92
481.15	1077.58
481.51	1074.54
481.87	1075.94
482.23	1079.46
482.59	1071.03
482.96	1071.50
483.32	1070.33
483.68	1069.86
484.04	1064.01
484.40	1067.75
484.76	1071.50
485.12	1075.24
485.48	1081.33
485.84	1079.69
486.20	1080.86
486.56	1081.09
486.92	1075.48
487.28	1062.14
487.64	1070.09
488.00	1073.84
488.37	1060.03
488.73	1060.50
489.09	1055.58
489.45	1047.62
489.81	1037.33
490.17	1045.99
490.53	1040.60
490.89	1060.26
491.25	1064.94
491.61	1080.86
491.97	1089.52
492.33	1091.86
492.69	1086.94
493.05	1088.58
493.41	1081.09
493.77	1077.58
494.13	1078.99
494.49	1075.24
494.85	1078.99
495.21	1082.50
495.57	1079.22
495.93	1083.43
496.29	1090.46
496.64	1089.99
497.00	1082.97
497.36	1081.56
497.72	1074.31
498.08	1071.03
498.44	1069.39
498.80	1070.33
499.16	1068.45
499.52	1076.41
499.88	1079.46
500.24	1077.35
500.60	1086.94
500.96	1092.09
501.32	1093.03
501.68	1087.18
502.03	1093.50
502.39	1088.82
502.75	1099.82
503.11	1094.90
503.47	1092.33
503.83	1082.26
504.19	1086.24
504.55	1075.48
504.91	1069.16
505.26	1066.58
505.62	1076.41
505.98	1071.97
506.34	1068.69
506.70	1082.26
507.06	1093.97
507.42	1090.22
507.78	1091.39
508.13	1091.86
508.49	1086.48
508.85	1075.48
509.21	1073.14
509.57	1062.37
509.93	1064.71
510.28	1060.73
510.64	1064.48
511.00	1078.99
511.36	1090.46
511.72	1100.52
512.07	1104.50
512.43	1117.14
512.79	1100.75
513.15	1091.86
513.51	1074.54
513.86	1075.24
514.22	1069.86
514.58	1077.82
514.94	1083.43
515.30	1089.52
515.65	1087.18
516.01	1083.43
516.37	1076.41
516.73	1079.92
517.08	1083.20
517.44	1087.18
517.80	1092.09
518.16	1107.31
518.51	1105.90
518.87	1096.31
519.23	1102.86
519.59	1096.31
519.94	1084.84
520.30	1082.03
520.66	1084.84
521.01	1071.26
521.37	1067.99
521.73	1067.52
522.09	1071.03
522.44	1078.28
522.80	1075.71
523.16	1080.86
523.51	1080.63
523.87	1079.46
524.23	1070.33
524.58	1080.16
524.94	1072.43
525.30	1076.88
525.65	1080.86
526.01	1081.80
526.37	1075.01
526.72	1084.14
527.08	1075.94
527.44	1067.99
527.79	1079.22
528.15	1087.88
528.51	1079.69
528.86	1080.16
529.22	1080.16
529.58	1077.58
529.93	1083.20
530.29	1090.46
530.65	1097.24
531.00	1108.01
531.36	1112.92
531.71	1101.46
532.07	1099.82
532.43	1097.24
532.78	1098.41
533.14	1091.39
533.49	1100.99
533.85	1108.71
534.21	1106.37
534.56	1100.75
534.92	1104.50
535.27	1097.01
535.63	1092.33
535.98	1094.67
536.34	1096.31
536.69	1095.14
537.05	1099.58
537.41	1097.24
537.76	1100.29
538.12	1086.01
538.47	1078.05
538.83	1069.39
539.18	1074.54
539.54	1079.22
539.89	1090.92
540.25	1101.69
540.60	1095.37
540.96	1089.29
541.31	1088.12
541.67	1093.26
542.02	1090.69
542.38	1095.84
542.73	1100.52
543.09	1097.01
543.44	1097.24
543.80	1096.31
544.15	1097.71
544.51	1094.43
544.86	1084.37
545.22	1082.03
545.57	1074.54
545.93	1071.97
546.28	1073.60
546.64	1076.88
546.99	1079.92
547.35	1086.71
547.70	1096.54
548.05	1098.41
548.41	1109.65
548.76	1100.75
549.12	1099.12
549.47	1086.01
549.83	1083.43
550.18	1078.75
550.53	1075.24
550.89	1069.86
551.24	1073.84
551.60	1065.18
551.95	1064.24
552.30	1070.33
552.66	1085.77
553.01	1084.60
553.37	1101.46
553.72	1096.07
554.07	1093.26
554.43	1086.71
554.78	1085.77
555.13	1068.92
555.49	1060.26
555.84	1058.62
556.19	1051.84
556.55	1049.26
556.90	1048.79
557.26	1064.94
557.61	1075.94
557.96	1073.14
558.32	1082.73
558.67	1091.86
559.02	1087.65
559.37	1085.77
559.73	1085.54
560.08	1080.39
560.43	1083.20
560.79	1084.84
561.14	1085.54
561.49	1097.48
561.85	1104.03
562.20	1094.20
562.55	1089.75
562.90	1074.77
563.26	1074.54
563.61	1067.05
563.96	1060.50
564.32	1067.75
564.67	1080.63
565.02	1073.14
565.37	1074.77
565.73	1088.82
566.08	1079.92
566.43	1071.26
566.78	1064.24
567.14	1062.37
567.49	1069.39
567.84	1074.31
568.19	1084.14
568.54	1079.92
568.90	1083.90
569.25	1067.05
569.60	1064.94
569.95	1056.99
570.31	1078.05
570.66	1092.56
571.01	1096.07
571.36	1096.07
571.71	1096.07
572.06	1082.50
572.42	1061.67
572.77	1065.41
573.12	1064.48
573.47	1067.99
573.82	1071.97
574.18	1075.01
574.53	1071.97
574.88	1080.39
575.23	1078.75
575.58	1092.09
575.93	1095.60
576.28	1098.18
576.64	1103.80
576.99	1099.82
577.34	1092.56
577.69	1096.31
578.04	1092.33
578.39	1073.37
578.74	1079.22
579.09	1079.92
579.44	1070.80
579.80	1077.82
580.15	1075.24
580.50	1076.65
580.85	1067.52
581.20	1070.80
581.55	1068.45
581.90	1084.60
582.25	1082.50
582.60	1086.24
582.95	1086.94
583.30	1091.39
583.65	1088.82
584.00	1085.31
584.35	1085.31
584.71	1088.12
585.06	1071.50
585.41	1069.62
585.76	1073.14
586.11	1064.01
586.46	1062.14
586.81	1075.94
587.16	1067.52
587.51	1076.18
587.86	1084.37
588.21	1082.73
588.56	1076.65
588.91	1078.05
589.26	1062.37
589.61	1061.67
589.96	1066.11
590.31	1064.94
590.66	1067.99
591.01	1076.18
591.36	1084.14
591.71	1086.01
592.06	1088.12
592.41	1101.69
592.76	1093.26
593.10	1081.80
593.45	1085.07
593.80	1085.31
594.15	1074.77
594.50	1073.14
594.85	1073.14
595.20	1062.37
595.55	1064.01
595.90	1060.26
596.25	1064.01
596.60	1066.35
596.95	1066.35
597.30	1070.56
597.64	1125.10
597.99	1131.88
598.34	1137.27
598.69	1140.31
599.04	1130.01
599.39	1075.71
599.74	1068.92
600.09	1068.45
600.44	1075.94
600.78	1077.11
601.13	1083.90
601.48	1089.05
601.83	1086.71
602.18	1078.75
602.53	1091.63
602.88	1083.90
603.22	1073.84
603.57	1072.20
603.92	1071.03
604.27	1054.18
604.62	1057.69
604.97	1076.18
605.31	1077.35
605.66	1078.99
606.01	1078.99
606.36	1082.97
606.71	1070.33
607.05	1076.88
607.40	1081.80
607.75	1086.01
608.10	1085.54
608.44	1091.16
608.79	1085.54
609.14	1085.31
609.49	1093.50
609.84	1086.71
610.18	1095.37
610.53	1098.88
610.88	1097.24
611.23	1096.07
611.57	1102.86
611.92	1099.35
612.27	1104.03
612.62	1100.29
612.96	1095.60
613.31	1094.20
613.66	1087.65
614.00	1079.69
614.35	1081.09
614.70	1077.35
615.05	1079.22
615.39	1079.46
615.74	1074.77
616.09	1074.54
616.43	1082.03
616.78	1080.63
617.13	1077.58
617.47	1085.07
617.82	1081.56
618.17	1083.43
618.51	1078.28
618.86	1077.35
619.21	1075.94
619.55	1080.86
619.90	1081.56
620.25	1085.31
620.59	1094.20
620.94	1093.73
621.29	1092.33
621.63	1087.88
621.98	1082.97
622.32	1081.80
622.67	1084.37
623.02	1092.56
623.36	1091.39
623.71	1096.54
624.05	1092.09
624.40	1093.03
624.75	1087.18
625.09	1084.84
625.44	1085.31
625.78	1093.03
626.13	1095.84
626.48	1093.26
626.82	1096.31
627.17	1093.97
627.51	1086.94
627.86	1078.52
628.20	1081.33
628.55	1081.33
628.89	1086.01
629.24	1080.86
629.58	1077.11
629.93	1068.69
630.28	1075.71
630.62	1072.90
630.97	1071.03
631.31	1076.65
631.66	1081.80
632.00	1072.20
632.35	1068.69
632.69	1083.67
633.04	1084.14
633.38	1080.39
633.73	1087.18
634.07	1092.56
634.42	1081.33
634.76	1084.37
635.11	1085.77
635.45	1077.11
635.79	1078.75
636.14	1081.80
636.48	1073.37
636.83	1070.56
637.17	1081.33
637.52	1075.94
637.86	1077.11
638.21	1082.26
638.55	1077.82
638.89	1076.18
639.24	1077.82
639.58	1077.58
639.93	1071.03
640.27	1083.20
640.61	1082.97
640.96	1087.88
641.30	1074.54
641.65	1084.14
641.99	1078.28
642.33	1076.18
642.68	1068.69
643.02	1081.56
643.37	1075.94
643.71	1095.60
644.05	1088.35
644.40	1089.99
644.74	1082.50
645.08	1084.84
645.43	1073.84
645.77	1085.07
646.11	1080.39
646.46	1080.16
646.80	1083.20
647.14	1074.31
647.49	1075.94
647.83	1080.39
648.17	1081.09
648.52	1078.28
648.86	1085.77
649.20	1078.52
649.55	1073.60
649.89	1081.56
650.23	1084.84
650.57	1080.86
650.92	1083.43
651.26	1090.46
651.60	1085.54
651.95	1077.58
652.29	1074.31
652.63	1080.39
652.97	1082.97
653.32	1089.29
653.66	1095.14
654.00	1104.73
654.34	1090.22
654.69	1094.90
655.03	1086.48
655.37	1086.94
655.71	1075.71
656.05	1082.26
656.40	1070.80
656.74	1081.56
657.08	1073.37
657.42	1085.54
657.76	1079.22
658.11	1077.35
658.45	1072.43
658.79	1075.71
659.13	1067.52
659.47	1076.88
659.82	1079.22
660.16	1077.11
660.50	1074.54
660.84	1079.22
661.18	1072.20
661.52	1074.54
661.87	1080.39
662.21	1084.84
662.55	1087.65
662.89	1091.39
663.23	1085.31
663.57	1081.09
663.91	1081.80
664.25	1088.58
664.60	1083.90
664.94	1091.63
665.28	1090.92
665.62	1091.86
665.96	1075.01
666.30	1079.69
666.64	1078.75
666.98	1083.43
667.32	1083.43
667.66	1081.09
668.01	1081.33
668.35	1079.69
668.69	1064.48
669.03	1061.90
669.37	1060.96
669.71	1055.35
670.05	1044.58
670.39	1054.88
670.73	1057.22
671.07	1062.84
671.41	1066.11
671.75	1085.07
672.09	1086.48
672.43	1088.82
672.77	1084.37
673.11	1089.99
673.45	1080.39
673.79	1075.48
674.13	1066.35
674.47	1067.75
674.81	1057.22
675.15	1055.35
675.49	1054.65
675.83	1064.71
676.17	1077.35
676.51	1079.46
676.85	1086.94
677.19	1095.37
677.53	1089.29
677.87	1083.20
678.21	1092.80
678.55	1092.56
678.89	1082.97
679.23	1085.07
679.57	1087.41
679.90	1085.07
680.24	1089.29
680.58	1085.54
680.92	1082.50
681.26	1075.71
681.60	1079.46
681.94	1070.56
682.28	1082.26
682.62	1082.50
682.96	1078.28
683.29	1065.65
683.63	1075.24
683.97	1070.09
684.31	1080.86
684.65	1086.71
684.99	1093.73
685.33	1085.77
685.67	1093.50
686.00	1085.31
686.34	1092.33
686.68	1101.22
687.02	1098.65
687.36	1096.31
687.70	1095.14
688.03	1089.29
688.37	1086.24
688.71	1092.09
689.05	1083.43
689.39	1080.63
689.72	1076.41
690.06	1064.94
690.40	1061.20
690.74	1069.16
691.08	1075.01
691.41	1081.56
691.75	1087.88
692.09	1088.58
692.43	1088.12
692.76	1085.54
693.10	1080.86
693.44	1081.56
693.78	1083.20
694.11	1086.48
694.45	1086.48
694.79	1087.41
695.13	1088.12
695.46	1081.33
695.80	1073.37
696.14	1073.14
696.48	1082.26
696.81	1080.63
697.15	1079.92
697.49	1086.01
697.82	1079.22
698.16	1070.56
698.50	1067.28
698.83	1069.16
699.17	1073.84
699.51	1079.92
699.84	1076.88
700.18	1081.33
700.52	1084.84
700.85	1071.50
701.19	1068.22
701.53	1071.50
701.86	1067.99
702.20	1077.82
702.54	1081.56
702.87	1082.50
703.21	1079.22
703.55	1074.77
703.88	1070.33
704.22	1070.80
704.55	1071.73
704.89	1075.94
705.23	1084.60
705.56	1081.80
705.90	1078.28
706.23	1077.82
706.57	1074.77
706.91	1067.99
707.24	1062.37
707.58	1067.28
707.91	1069.39
708.25	1075.24
708.58	1083.67
708.92	1091.86
709.26	1097.48
709.59	1092.56
709.93	1094.67
710.26	1088.82
710.60	1087.65
710.93	1077.35
711.27	1086.48
711.60	1078.99
711.94	1069.39
712.27	1061.67
712.61	1070.56
712.94	1063.77
713.28	1062.60
713.61	1071.26
713.95	1066.82
714.28	1060.03
714.62	1067.75
714.95	1070.33
715.29	1074.77
715.62	1092.09
715.96	1098.18
716.29	1102.16
716.63	1099.58
716.96	1098.41
717.29	1090.69
717.63	1079.69
717.96	1072.20
718.30	1084.84
718.63	1083.20
718.97	1087.18
719.30	1099.35
719.63	1093.97
719.97	1076.41
720.30	1074.54
720.64	1069.62
720.97	1060.50
721.30	1055.82
721.64	1055.35
721.97	1051.84
722.31	1058.86
722.64	1061.43
722.97	1071.97
723.31	1083.20
723.64	1086.94
723.97	1076.18
724.31	1078.99
724.64	1077.11
724.98	1079.92
725.31	1090.46
725.64	1092.33
725.98	1093.73
726.31	1086.71
726.64	1081.80
726.97	1071.50
727.31	1069.86
727.64	1068.45
727.97	1072.20
728.31	1072.90
728.64	1074.77
728.97	1089.29
729.31	1089.05
729.64	1098.65
729.97	1097.71
730.30	1107.54
730.64	1094.90
730.97	1089.52
731.30	1081.56
731.63	1075.94
731.97	1065.88
732.30	1064.24
732.63	1072.90
732.96	1075.94
733.30	1085.07
733.63	1085.77
733.96	1097.24
734.29	1092.09
734.63	1085.54
734.96	1081.33
735.29	1082.26
735.62	1072.67
735.95	1074.54
736.29	1080.63
736.62	1078.52
736.95	1086.48
737.28	1092.09
737.61	1093.50
737.94	1087.18
738.28	1083.90
738.61	1079.22
738.94	1078.99
739.27	1069.16
739.60	1077.82
739.93	1080.86
740.27	1071.50
740.60	1071.73
740.93	1086.48
741.26	1085.07
741.59	1094.20
741.92	1097.48
742.25	1083.90
742.58	1076.65
742.91	1075.01
743.25	1067.52
743.58	1064.71
743.91	1080.63
744.24	1084.37
744.57	1077.58
744.90	1071.97
745.23	1071.97
745.56	1072.67
745.89	1066.82
746.22	1074.07
746.55	1086.24
746.88	1086.01
747.21	1081.80
747.54	1091.16
747.87	1093.26
748.20	1091.16
748.53	1095.14
748.87	1092.09
749.20	1086.48
749.53	1082.03
749.86	1074.54
750.19	1064.01
750.52	1063.07
750.85	1061.20
751.18	1052.07
751.51	1055.58
751.84	1064.24
752.16	1054.65
752.49	1050.67
752.82	1060.96
753.15	1061.67
753.48	1060.26
753.81	1067.52
754.14	1066.35
754.47	1055.35
754.80	1052.77
755.13	1056.52
755.46	1054.41
755.79	1054.18
756.12	1069.39
756.45	1064.71
756.78	1061.67
757.11	1073.14
757.43	1079.92
757.76	1072.90
758.09	1077.35
758.42	1072.67
758.75	1065.41
759.08	1071.26
759.41	1077.11
759.74	1081.56
760.07	1095.60
760.39	1095.14
760.72	1088.82
761.05	1091.16
761.38	1090.69
761.71	1086.24
762.04	1095.37
762.36	1086.94
762.69	1079.46
763.02	1081.80
763.35	1084.84
763.68	1069.62
764.01	1075.24
764.33	1079.22
764.66	1071.26
764.99	1072.43
765.32	1082.73
765.65	1079.92
765.97	1077.82
766.30	1083.67
