SpectraSuite Data File
++++++++++++++++++++++++++++++++++++
Date: Mon Aug 26 10:26:08 PDT 2019
User: corrico
Dark Spectrum Present: No
Reference Spectrum Present: No
Number of Sampled Component Spectra: 1
Spectrometers: USB2+H06089
Integration Time (usec): 10000 (USB2+H06089)
Spectra Averaged: 20 (USB2+H06089)
Boxcar Smoothing: 2 (USB2+H06089)
Correct for Electrical Dark: No (USB2+H06089)
Strobe/Lamp Enabled: No (USB2+H06089)
Correct for Detector Non-linearity: No (USB2+H06089)
Correct for Stray Light: No (USB2+H06089)
Number of Pixels in Processed Spectrum: 2048
>>>>>Begin Processed Spectral Data<<<<<
339.70	1014.04
340.07	1014.04
340.45	985.23
340.82	965.63
341.19	945.79
341.57	927.32
341.94	921.16
342.31	912.62
342.69	907.26
343.06	904.03
343.43	901.62
343.81	902.35
344.18	902.79
344.55	907.64
344.93	914.10
345.30	916.79
345.67	922.17
346.04	934.97
346.42	941.74
346.79	950.87
347.16	960.09
347.54	967.25
347.91	974.76
348.28	985.08
348.65	991.47
349.03	1001.82
349.40	1012.07
349.77	1015.37
350.14	1024.52
350.52	1032.27
350.89	1036.34
351.26	1043.88
351.63	1051.77
352.01	1055.44
352.38	1058.55
352.75	1061.48
353.12	1060.82
353.50	1065.22
353.87	1068.78
354.24	1074.91
354.61	1079.41
354.98	1082.80
355.36	1083.90
355.73	1086.17
356.10	1085.47
356.47	1087.37
356.84	1087.09
357.22	1084.86
357.59	1080.81
357.96	1081.89
358.33	1082.19
358.70	1081.02
359.08	1079.24
359.45	1080.11
359.82	1073.23
360.19	1071.36
360.56	1070.65
360.94	1070.77
361.31	1069.30
361.68	1069.84
362.05	1065.34
362.42	1067.80
362.79	1072.67
363.16	1073.37
363.54	1075.24
363.91	1077.61
364.28	1078.94
364.65	1074.77
365.02	1074.00
365.39	1073.93
365.76	1070.68
366.14	1062.25
366.51	1060.52
366.88	1059.86
367.25	1057.57
367.62	1061.29
367.99	1067.31
368.36	1068.38
368.73	1070.47
369.10	1071.82
369.48	1070.72
369.85	1068.36
370.22	1067.96
370.59	1066.86
370.96	1063.87
371.33	1062.04
371.70	1062.21
372.07	1063.45
372.44	1062.63
372.81	1066.98
373.18	1070.82
373.55	1071.73
373.93	1073.28
374.30	1075.92
374.67	1075.62
375.04	1075.55
375.41	1073.42
375.78	1071.61
376.15	1071.22
376.52	1070.21
376.89	1070.19
377.26	1070.80
377.63	1070.91
378.00	1070.12
378.37	1071.47
378.74	1072.39
379.11	1071.80
379.48	1073.95
379.85	1072.69
380.22	1073.18
380.59	1072.08
380.96	1075.87
381.33	1073.86
381.70	1074.63
382.07	1076.01
382.44	1077.54
382.81	1076.41
383.18	1078.50
383.55	1079.62
383.92	1078.40
384.29	1076.34
384.66	1077.00
385.03	1075.66
385.40	1074.66
385.77	1073.91
386.14	1071.19
386.51	1068.15
386.88	1068.38
387.25	1068.24
387.62	1067.40
387.99	1071.94
388.36	1075.80
388.73	1079.36
389.10	1079.97
389.46	1082.80
389.83	1080.77
390.20	1078.71
390.57	1075.29
390.94	1076.04
391.31	1075.38
391.68	1076.95
392.05	1076.83
392.42	1073.86
392.79	1073.11
393.16	1070.80
393.53	1067.24
393.89	1067.42
394.26	1073.07
394.63	1071.80
395.00	1070.12
395.37	1073.74
395.74	1075.57
396.11	1073.07
396.48	1075.73
396.84	1079.31
397.21	1079.29
397.58	1077.82
397.95	1078.40
398.32	1077.63
398.69	1076.83
399.06	1075.29
399.42	1076.93
399.79	1077.42
400.16	1077.63
400.53	1077.35
400.90	1076.95
401.27	1074.73
401.64	1069.41
402.00	1068.10
402.37	1068.88
402.74	1071.85
403.11	1073.18
403.48	1076.81
403.84	1080.65
404.21	1078.24
404.58	1079.29
404.95	1078.85
405.32	1078.33
405.68	1075.31
406.05	1075.31
406.42	1070.09
406.79	1069.55
407.16	1073.02
407.52	1073.88
407.89	1074.87
408.26	1075.76
408.63	1077.40
408.99	1076.46
409.36	1075.45
409.73	1076.74
410.10	1077.23
410.47	1074.77
410.83	1074.38
411.20	1073.51
411.57	1071.87
411.94	1072.60
412.30	1073.91
412.67	1071.31
413.04	1073.81
413.40	1076.72
413.77	1076.81
414.14	1076.51
414.51	1079.27
414.87	1078.85
415.24	1075.83
415.61	1075.01
415.97	1075.01
416.34	1075.76
416.71	1074.07
417.08	1078.00
417.44	1079.06
417.81	1083.04
418.18	1080.11
418.54	1077.84
418.91	1075.69
419.28	1077.68
419.64	1074.77
420.01	1074.82
420.38	1078.61
420.74	1077.37
421.11	1075.29
421.48	1075.43
421.84	1078.43
422.21	1079.06
422.58	1081.21
422.94	1080.67
423.31	1080.44
423.68	1080.23
424.04	1081.94
424.41	1079.67
424.77	1081.42
425.14	1081.94
425.51	1080.77
425.87	1080.58
426.24	1082.05
426.61	1082.36
426.97	1085.10
427.34	1083.62
427.70	1080.37
428.07	1079.53
428.44	1078.61
428.80	1073.04
429.17	1070.72
429.53	1069.77
429.90	1068.85
430.27	1069.70
430.63	1073.60
431.00	1076.46
431.36	1077.09
431.73	1077.56
432.09	1074.54
432.46	1073.72
432.83	1074.59
433.19	1077.61
433.56	1076.39
433.92	1078.89
434.29	1078.38
434.65	1080.30
435.02	1077.30
435.38	1082.83
435.75	1080.41
436.11	1076.15
436.48	1075.57
436.84	1073.88
437.21	1069.41
437.57	1072.69
437.94	1075.62
438.30	1074.47
438.67	1078.10
439.03	1079.78
439.40	1076.58
439.76	1076.25
440.13	1077.68
440.49	1079.03
440.86	1081.80
441.22	1085.59
441.59	1088.02
441.95	1085.84
442.32	1084.30
442.68	1080.86
443.05	1079.69
443.41	1080.32
443.78	1079.01
444.14	1078.31
444.51	1079.27
444.87	1078.96
445.24	1075.83
445.60	1077.44
445.96	1077.54
446.33	1077.54
446.69	1076.72
447.06	1077.25
447.42	1080.20
447.79	1080.93
448.15	1079.99
448.51	1083.08
448.88	1085.56
449.24	1083.36
449.61	1084.70
449.97	1086.20
450.33	1085.47
450.70	1086.03
451.06	1086.08
451.43	1085.84
451.79	1086.08
452.15	1086.43
452.52	1083.20
452.88	1083.08
453.24	1080.70
453.61	1079.67
453.97	1077.37
454.34	1077.79
454.70	1075.73
455.06	1075.71
455.43	1076.93
455.79	1080.41
456.15	1083.34
456.52	1086.36
456.88	1086.43
457.24	1082.22
457.61	1078.82
457.97	1077.82
458.33	1078.43
458.70	1078.92
459.06	1080.51
459.42	1079.38
459.79	1079.90
460.15	1076.86
460.51	1078.43
460.88	1080.67
461.24	1083.97
461.60	1083.60
461.96	1087.62
462.33	1086.24
462.69	1087.18
463.05	1085.33
463.42	1083.25
463.78	1080.39
464.14	1078.52
464.50	1075.64
464.87	1074.87
465.23	1077.70
465.59	1081.77
465.95	1084.11
466.32	1088.09
466.68	1090.15
467.04	1089.22
467.40	1086.55
467.77	1082.99
468.13	1080.32
468.49	1078.21
468.85	1075.76
469.22	1077.65
469.58	1080.72
469.94	1079.08
470.30	1080.09
470.66	1080.18
471.03	1075.22
471.39	1075.66
471.75	1075.17
472.11	1075.15
472.47	1078.78
472.84	1079.67
473.20	1082.19
473.56	1087.06
473.92	1087.76
474.28	1082.83
474.65	1083.20
475.01	1080.23
475.37	1077.07
475.73	1077.49
476.09	1081.47
476.45	1081.49
476.81	1081.63
477.18	1085.61
477.54	1086.92
477.90	1085.56
478.26	1087.41
478.62	1087.11
478.98	1085.63
479.34	1083.83
479.71	1083.50
480.07	1081.51
480.43	1085.17
480.79	1082.87
481.15	1082.15
481.51	1085.00
481.87	1085.10
482.23	1082.47
482.59	1083.71
482.96	1084.77
483.32	1086.57
483.68	1087.88
484.04	1088.14
484.40	1088.49
484.76	1092.28
485.12	1091.04
485.48	1094.04
485.84	1094.65
486.20	1093.45
486.56	1091.60
486.92	1093.55
487.28	1093.05
487.64	1093.66
488.00	1095.42
488.37	1097.06
488.73	1093.62
489.09	1092.63
489.45	1091.53
489.81	1090.88
490.17	1088.89
490.53	1091.74
490.89	1093.05
491.25	1096.68
491.61	1099.49
491.97	1101.53
492.33	1104.57
492.69	1105.15
493.05	1107.10
493.41	1110.65
493.77	1113.70
494.13	1113.44
494.49	1115.59
494.85	1114.87
495.21	1110.02
495.57	1109.98
495.93	1111.61
496.29	1110.54
496.64	1112.04
497.00	1116.32
497.36	1116.88
497.72	1119.64
498.08	1122.50
498.44	1126.43
498.80	1129.12
499.16	1133.36
499.52	1136.17
499.88	1140.78
500.24	1142.84
500.60	1146.84
500.96	1145.01
501.32	1143.77
501.68	1146.35
502.03	1148.76
502.39	1151.38
502.75	1157.04
503.11	1162.03
503.47	1164.84
503.83	1170.03
504.19	1175.91
504.55	1182.72
504.91	1187.66
505.26	1196.06
505.62	1203.36
505.98	1207.72
506.34	1212.56
506.70	1219.91
507.06	1225.18
507.42	1226.32
507.78	1235.57
508.13	1244.16
508.49	1250.64
508.85	1253.82
509.21	1264.83
509.57	1270.02
509.93	1275.80
510.28	1284.95
510.64	1298.51
511.00	1310.98
511.36	1323.99
511.72	1337.01
512.07	1348.97
512.43	1362.38
512.79	1373.54
513.15	1380.40
513.51	1392.55
513.86	1409.19
514.22	1419.56
514.58	1428.50
514.94	1444.72
515.30	1458.72
515.65	1467.87
516.01	1480.39
516.37	1495.18
516.73	1512.03
517.08	1521.98
517.44	1532.91
517.80	1549.90
518.16	1568.07
518.51	1578.11
518.87	1594.07
519.23	1609.35
519.59	1617.71
519.94	1623.98
520.30	1639.08
520.66	1654.24
521.01	1667.21
521.37	1678.30
521.73	1688.56
522.09	1697.01
522.44	1700.61
522.80	1705.55
523.16	1715.24
523.51	1725.05
523.87	1736.77
524.23	1753.62
524.58	1765.23
524.94	1775.65
525.30	1785.88
525.65	1784.78
526.01	1784.45
526.37	1789.08
526.72	1790.74
527.08	1784.78
527.44	1785.38
527.79	1779.93
528.15	1767.76
528.51	1759.03
528.86	1752.03
529.22	1747.63
529.58	1742.65
529.93	1740.63
530.29	1731.39
530.65	1727.64
531.00	1716.57
531.36	1703.02
531.71	1694.24
532.07	1690.31
532.43	1684.27
532.78	1675.33
533.14	1669.88
533.49	1662.53
533.85	1652.54
534.21	1642.63
534.56	1634.89
534.92	1624.24
535.27	1613.24
535.63	1605.75
535.98	1594.75
536.34	1586.81
536.69	1579.21
537.05	1568.35
537.41	1552.78
537.76	1541.69
538.12	1530.10
538.47	1525.33
538.83	1520.34
539.18	1515.22
539.54	1506.95
539.89	1498.86
540.25	1486.24
540.60	1477.09
540.96	1466.35
541.31	1460.63
541.67	1453.54
542.02	1449.26
542.38	1446.43
542.73	1444.23
543.09	1436.48
543.44	1428.94
543.80	1418.79
544.15	1408.89
544.51	1404.09
544.86	1403.62
545.22	1398.35
545.57	1393.65
545.93	1387.19
546.28	1381.43
546.64	1373.78
546.99	1369.17
547.35	1364.39
547.70	1361.47
548.05	1350.42
548.41	1341.83
548.76	1333.92
549.12	1327.65
549.47	1318.70
549.83	1317.21
550.18	1313.06
550.53	1310.42
550.89	1308.22
551.24	1303.49
551.60	1300.87
551.95	1298.32
552.30	1294.08
552.66	1288.42
553.01	1284.95
553.37	1277.91
553.72	1272.64
554.07	1272.83
554.43	1269.48
554.78	1268.24
555.13	1268.22
555.49	1265.60
555.84	1257.80
556.19	1253.29
556.55	1244.42
556.90	1236.01
557.26	1229.76
557.61	1227.40
557.96	1223.44
558.32	1220.52
558.67	1218.62
559.02	1215.46
559.37	1210.13
559.73	1206.08
560.08	1203.57
560.43	1197.91
560.79	1194.07
561.14	1192.01
561.49	1191.08
561.85	1189.51
562.20	1187.75
562.55	1183.66
562.90	1180.14
563.26	1176.54
563.61	1173.24
563.96	1171.44
564.32	1170.03
564.67	1166.43
565.02	1164.86
565.37	1165.10
565.73	1162.03
566.08	1160.34
566.43	1161.40
566.78	1158.75
567.14	1154.77
567.49	1156.37
567.84	1156.51
568.19	1153.49
568.54	1153.53
568.90	1153.46
569.25	1150.12
569.60	1148.50
569.95	1148.81
570.31	1142.23
570.66	1139.33
571.01	1137.52
571.36	1137.10
571.71	1132.23
572.06	1135.98
572.42	1136.52
572.77	1136.45
573.12	1137.08
573.47	1136.07
573.82	1133.59
574.18	1131.67
574.53	1129.31
574.88	1123.11
575.23	1124.37
575.58	1123.93
575.93	1123.71
576.28	1121.23
576.64	1123.13
576.99	1120.44
577.34	1116.18
577.69	1111.85
578.04	1113.35
578.39	1109.53
578.74	1109.62
579.09	1110.58
579.44	1112.08
579.80	1109.74
580.15	1106.18
580.50	1106.28
580.85	1104.31
581.20	1103.80
581.55	1105.29
581.90	1108.48
582.25	1106.86
582.60	1109.95
582.95	1109.84
583.30	1108.48
583.65	1108.24
584.00	1105.79
584.35	1098.67
584.71	1097.73
585.06	1098.65
585.41	1098.30
585.76	1098.67
586.11	1106.28
586.46	1105.01
586.81	1102.02
587.16	1102.21
587.51	1103.02
587.86	1097.73
588.21	1095.42
588.56	1095.98
588.91	1094.95
589.26	1093.97
589.61	1096.49
589.96	1097.06
590.31	1096.07
590.66	1096.94
591.01	1098.55
591.36	1096.42
591.71	1094.95
592.06	1090.74
592.41	1089.03
592.76	1089.96
593.10	1090.20
593.45	1092.12
593.80	1093.52
594.15	1095.67
594.50	1093.31
594.85	1091.86
595.20	1088.89
595.55	1093.71
595.90	1089.61
596.25	1089.52
596.60	1092.33
596.95	1096.52
597.30	1092.96
597.64	1144.71
597.99	1145.65
598.34	1143.26
598.69	1140.00
599.04	1138.74
599.39	1085.68
599.74	1085.42
600.09	1083.20
600.44	1082.03
600.78	1084.42
601.13	1087.16
601.48	1086.66
601.83	1089.03
602.18	1091.04
602.53	1089.71
602.88	1091.81
603.22	1089.47
603.57	1088.54
603.92	1086.73
604.27	1087.16
604.62	1083.69
604.97	1084.35
605.31	1083.43
605.66	1085.52
606.01	1084.70
606.36	1085.45
606.71	1085.26
607.05	1082.08
607.40	1083.57
607.75	1083.04
608.10	1082.76
608.44	1081.84
608.79	1088.30
609.14	1087.55
609.49	1086.73
609.84	1085.10
610.18	1088.07
610.53	1087.27
610.88	1083.57
611.23	1085.05
611.57	1086.90
611.92	1086.03
612.27	1084.30
612.62	1085.73
612.96	1085.66
613.31	1084.07
613.66	1081.63
614.00	1081.35
614.35	1081.07
614.70	1079.15
615.05	1082.10
615.39	1084.44
615.74	1085.33
616.09	1084.98
616.43	1083.88
616.78	1082.10
617.13	1082.36
617.47	1083.25
617.82	1085.77
618.17	1086.99
618.51	1088.30
618.86	1089.14
619.21	1086.22
619.55	1084.46
619.90	1087.97
620.25	1086.57
620.59	1080.93
620.94	1084.53
621.29	1083.57
621.63	1081.87
621.98	1083.39
622.32	1086.36
622.67	1083.13
623.02	1084.37
623.36	1083.74
623.71	1081.84
624.05	1083.34
624.40	1081.68
624.75	1084.30
625.09	1084.39
625.44	1084.37
625.78	1082.69
626.13	1085.66
626.48	1085.66
626.82	1085.70
627.17	1084.53
627.51	1086.01
627.86	1084.32
628.20	1082.03
628.55	1083.11
628.89	1083.41
629.24	1081.89
629.58	1082.92
629.93	1082.33
630.28	1082.26
630.62	1084.00
630.97	1085.52
631.31	1085.61
631.66	1086.57
632.00	1084.84
632.35	1082.26
632.69	1081.56
633.04	1083.11
633.38	1083.22
633.73	1083.27
634.07	1086.62
634.42	1085.24
634.76	1084.37
635.11	1085.17
635.45	1088.79
635.79	1086.97
636.14	1086.66
636.48	1087.69
636.83	1084.46
637.17	1080.77
637.52	1082.31
637.86	1081.49
638.21	1081.09
638.55	1080.70
638.89	1080.63
639.24	1078.71
639.58	1081.68
639.93	1079.95
640.27	1079.46
640.61	1077.79
640.96	1079.50
641.30	1076.27
641.65	1076.60
641.99	1080.65
642.33	1081.82
642.68	1079.48
643.02	1081.98
643.37	1078.28
643.71	1076.97
644.05	1079.62
644.40	1081.66
644.74	1082.71
645.08	1086.97
645.43	1088.09
645.77	1089.68
646.11	1091.51
646.46	1089.14
646.80	1089.45
647.14	1088.75
647.49	1086.48
647.83	1084.81
648.17	1085.00
648.52	1084.11
648.86	1084.04
649.20	1083.27
649.55	1082.71
649.89	1082.59
650.23	1082.87
650.57	1083.13
650.92	1081.61
651.26	1081.16
651.60	1083.34
651.95	1083.06
652.29	1080.65
652.63	1080.65
652.97	1080.53
653.32	1078.47
653.66	1081.63
654.00	1083.13
654.34	1085.24
654.69	1085.24
655.03	1085.33
655.37	1081.68
655.71	1081.96
656.05	1080.86
656.40	1081.66
656.74	1083.60
657.08	1081.66
657.42	1083.11
657.76	1083.36
658.11	1082.29
658.45	1080.18
658.79	1081.35
659.13	1079.83
659.47	1078.43
659.82	1079.36
660.16	1081.82
660.50	1085.54
660.84	1085.38
661.18	1086.29
661.52	1085.54
661.87	1080.93
662.21	1078.21
662.55	1079.24
662.89	1077.98
663.23	1076.83
663.57	1080.79
663.91	1080.60
664.25	1080.81
664.60	1083.55
664.94	1082.99
665.28	1083.32
665.62	1085.12
665.96	1083.18
666.30	1082.76
666.64	1083.27
666.98	1080.46
667.32	1079.69
667.66	1082.76
668.01	1081.33
668.35	1082.59
668.69	1083.97
669.03	1081.98
669.37	1075.83
669.71	1074.31
670.05	1075.34
670.39	1073.00
670.73	1072.48
671.07	1074.98
671.41	1076.39
671.75	1075.55
672.09	1077.33
672.43	1079.53
672.77	1082.66
673.11	1084.89
673.45	1087.18
673.79	1089.87
674.13	1089.52
674.47	1085.56
674.81	1084.07
675.15	1080.60
675.49	1081.07
675.83	1082.22
676.17	1079.74
676.51	1079.55
676.85	1082.31
677.19	1077.09
677.53	1077.40
677.87	1079.50
678.21	1081.16
678.55	1080.06
678.89	1083.48
679.23	1080.86
679.57	1086.52
679.90	1083.69
680.24	1084.56
680.58	1083.53
680.92	1087.67
681.26	1087.20
681.60	1091.93
681.94	1089.22
682.28	1089.71
682.62	1086.90
682.96	1084.46
683.29	1079.62
683.63	1081.12
683.97	1079.62
684.31	1079.50
684.65	1077.21
684.99	1079.10
685.33	1077.30
685.67	1077.04
686.00	1077.61
686.34	1077.91
686.68	1077.89
687.02	1077.44
687.36	1076.51
687.70	1072.62
688.03	1073.35
688.37	1072.62
688.71	1071.24
689.05	1074.89
689.39	1079.69
689.72	1081.75
690.06	1081.00
690.40	1083.04
690.74	1082.57
691.08	1080.53
691.41	1076.51
691.75	1082.05
692.09	1085.54
692.43	1084.25
692.76	1084.91
693.10	1086.69
693.44	1080.81
693.78	1078.45
694.11	1078.00
694.45	1076.90
694.79	1078.99
695.13	1081.12
695.46	1082.54
695.80	1084.91
696.14	1088.26
696.48	1089.87
696.81	1090.64
697.15	1089.07
697.49	1086.24
697.82	1085.17
698.16	1079.15
698.50	1077.11
698.83	1080.32
699.17	1080.37
699.51	1078.03
699.84	1078.66
700.18	1075.05
700.52	1071.26
700.85	1073.88
701.19	1074.73
701.53	1078.38
701.86	1088.14
702.20	1090.48
702.54	1090.24
702.87	1092.30
703.21	1088.47
703.55	1084.23
703.88	1083.11
704.22	1083.81
704.55	1081.40
704.89	1086.73
705.23	1086.66
705.56	1087.06
705.90	1086.57
706.23	1087.74
706.57	1085.63
706.91	1087.76
707.24	1086.41
707.58	1086.80
707.91	1084.98
708.25	1084.02
708.58	1079.34
708.92	1081.80
709.26	1080.81
709.59	1082.52
709.93	1083.22
710.26	1087.27
710.60	1085.70
710.93	1082.36
711.27	1081.37
711.60	1080.98
711.94	1077.25
712.27	1076.11
712.61	1078.21
712.94	1079.60
713.28	1080.46
713.61	1082.61
713.95	1082.64
714.28	1080.46
714.62	1082.10
714.95	1082.64
715.29	1079.27
715.62	1080.51
715.96	1083.55
716.29	1079.24
716.63	1079.06
716.96	1080.88
717.29	1080.74
717.63	1078.47
717.96	1080.65
718.30	1077.30
718.63	1076.58
718.97	1076.81
719.30	1077.47
719.63	1077.07
719.97	1079.85
720.30	1083.11
720.64	1081.75
720.97	1083.04
721.30	1082.12
721.64	1079.15
721.97	1081.07
722.31	1081.63
722.64	1080.63
722.97	1081.47
723.31	1084.35
723.64	1079.78
723.97	1078.47
724.31	1079.71
724.64	1079.22
724.98	1078.43
725.31	1077.33
725.64	1077.51
725.98	1073.53
726.31	1074.96
726.64	1074.52
726.97	1078.68
727.31	1080.98
727.64	1084.32
727.97	1081.73
728.31	1081.26
728.64	1078.19
728.97	1078.68
729.31	1079.01
729.64	1080.58
729.97	1079.60
730.30	1079.85
730.64	1076.90
730.97	1078.36
731.30	1080.37
731.63	1084.89
731.97	1087.06
732.30	1087.34
732.63	1086.55
732.96	1086.57
733.30	1085.21
733.63	1083.01
733.96	1084.67
734.29	1084.79
734.63	1082.71
734.96	1084.32
735.29	1085.31
735.62	1082.19
735.95	1082.64
736.29	1081.61
736.62	1078.28
736.95	1077.44
737.28	1079.46
737.61	1078.61
737.94	1079.34
738.28	1078.66
738.61	1079.83
738.94	1081.80
739.27	1080.72
739.60	1081.00
739.93	1080.20
740.27	1077.00
740.60	1076.60
740.93	1077.56
741.26	1076.69
741.59	1080.51
741.92	1084.65
742.25	1087.39
742.58	1088.19
742.91	1088.26
743.25	1087.69
743.58	1087.86
743.91	1086.97
744.24	1086.36
744.57	1089.54
744.90	1087.69
745.23	1086.03
745.56	1084.63
745.89	1084.93
746.22	1084.65
746.55	1086.64
746.88	1086.85
747.21	1085.05
747.54	1085.14
747.87	1083.95
748.20	1082.57
748.53	1082.99
748.87	1085.49
749.20	1085.54
749.53	1083.76
749.86	1079.95
750.19	1078.24
750.52	1076.32
750.85	1073.58
751.18	1079.01
751.51	1081.14
751.84	1082.52
752.16	1081.19
752.49	1081.91
752.82	1078.80
753.15	1081.87
753.48	1082.66
753.81	1082.99
754.14	1082.76
754.47	1076.95
754.80	1076.20
755.13	1075.36
755.46	1075.87
755.79	1077.51
756.12	1084.79
756.45	1087.23
756.78	1086.48
757.11	1088.00
757.43	1088.89
757.76	1090.53
758.09	1088.21
758.42	1086.94
758.75	1084.96
759.08	1082.57
759.41	1076.67
759.74	1076.06
760.07	1078.78
760.39	1079.48
760.72	1081.00
761.05	1083.83
761.38	1087.67
761.71	1085.05
762.04	1082.19
762.36	1080.39
762.69	1081.89
763.02	1078.10
763.35	1081.12
763.68	1084.49
764.01	1087.32
764.33	1085.59
764.66	1086.52
764.99	1084.09
765.32	1084.00
765.65	1083.90
765.97	1083.06
766.30	1084.91
