SpectraSuite Data File
++++++++++++++++++++++++++++++++++++
Date: Mon Aug 26 10:26:08 PDT 2019
User: corrico
Dark Spectrum Present: No
Reference Spectrum Present: No
Number of Sampled Component Spectra: 1
Spectrometers: USB2+H06089
Integration Time (usec): 10000 (USB2+H06089)
Spectra Averaged: 20 (USB2+H06089)
Boxcar Smoothing: 2 (USB2+H06089)
Correct for Electrical Dark: No (USB2+H06089)
Strobe/Lamp Enabled: No (USB2+H06089)
Correct for Detector Non-linearity: No (USB2+H06089)
Correct for Stray Light: No (USB2+H06089)
Number of Pixels in Processed Spectrum: 2048
>>>>>Begin Processed Spectral Data<<<<<
339.70	1026.09
340.07	1026.09
340.45	992.11
340.82	968.05
341.19	942.60
341.57	920.18
341.94	911.69
342.31	905.86
342.69	904.36
343.06	906.19
343.43	901.60
343.81	902.42
344.18	906.54
344.55	908.69
344.93	912.72
345.30	919.08
345.67	920.63
346.04	923.32
346.42	932.66
346.79	940.19
347.16	951.03
347.54	962.33
347.91	976.54
348.28	983.70
348.65	993.74
349.03	1001.14
349.40	1012.70
349.77	1017.43
350.14	1027.99
350.52	1034.52
350.89	1039.81
351.26	1043.97
351.63	1049.33
352.01	1052.98
352.38	1055.91
352.75	1061.48
353.12	1067.00
353.50	1070.94
353.87	1072.92
354.24	1076.44
354.61	1077.84
354.98	1076.67
355.36	1075.08
355.73	1076.18
356.10	1078.10
356.47	1077.63
356.84	1075.66
357.22	1078.99
357.59	1078.68
357.96	1077.63
358.33	1078.87
358.70	1082.54
359.08	1081.37
359.45	1082.78
359.82	1083.27
360.19	1082.36
360.56	1080.32
360.94	1080.18
361.31	1078.57
361.68	1074.47
362.05	1074.54
362.42	1075.99
362.79	1072.48
363.16	1071.61
363.54	1072.01
363.91	1073.60
364.28	1070.96
364.65	1072.43
365.02	1071.97
365.39	1070.98
365.76	1067.54
366.14	1065.79
366.51	1065.58
366.88	1068.36
367.25	1067.80
367.62	1069.16
367.99	1073.77
368.36	1071.26
368.73	1068.22
369.10	1068.50
369.48	1068.59
369.85	1063.47
370.22	1061.95
370.59	1062.42
370.96	1060.45
371.33	1058.98
371.70	1060.45
372.07	1066.51
372.44	1065.27
372.81	1067.49
373.18	1067.96
373.55	1066.98
373.93	1067.05
374.30	1070.75
374.67	1072.83
375.04	1069.06
375.41	1068.06
375.78	1066.32
376.15	1064.12
376.52	1063.56
376.89	1068.10
377.26	1071.97
377.63	1071.85
378.00	1072.48
378.37	1074.94
378.74	1072.41
379.11	1069.55
379.48	1066.47
379.85	1066.11
380.22	1064.15
380.59	1065.83
380.96	1067.47
381.33	1068.52
381.70	1066.35
382.07	1067.66
382.44	1068.81
382.81	1069.74
383.18	1070.61
383.55	1073.21
383.92	1072.29
384.29	1072.20
384.66	1072.64
385.03	1073.46
385.40	1074.10
385.77	1072.92
386.14	1071.10
386.51	1070.75
386.88	1071.52
387.25	1068.10
387.62	1071.38
387.99	1076.11
388.36	1075.97
388.73	1077.47
389.10	1079.92
389.46	1076.74
389.83	1073.70
390.20	1074.12
390.57	1072.90
390.94	1073.93
391.31	1074.87
391.68	1075.52
392.05	1072.95
392.42	1071.90
392.79	1069.60
393.16	1070.72
393.53	1070.33
393.89	1070.89
394.26	1071.66
394.63	1071.52
395.00	1069.70
395.37	1070.58
395.74	1071.50
396.11	1071.40
396.48	1074.35
396.84	1073.14
397.21	1073.84
397.58	1073.37
397.95	1070.80
398.32	1068.81
398.69	1070.82
399.06	1067.73
399.42	1069.44
399.79	1074.21
400.16	1073.70
400.53	1072.74
400.90	1074.84
401.27	1075.50
401.64	1073.53
402.00	1073.77
402.37	1078.12
402.74	1080.56
403.11	1079.46
403.48	1080.53
403.84	1082.71
404.21	1078.07
404.58	1075.34
404.95	1077.91
405.32	1077.79
405.68	1073.86
406.05	1074.68
406.42	1073.53
406.79	1071.59
407.16	1074.05
407.52	1080.18
407.89	1080.60
408.26	1083.46
408.63	1084.02
408.99	1080.16
409.36	1079.64
409.73	1076.58
410.10	1074.87
410.47	1074.77
410.83	1075.01
411.20	1073.53
411.57	1076.76
411.94	1079.13
412.30	1078.73
412.67	1080.06
413.04	1082.03
413.40	1082.76
413.77	1081.16
414.14	1081.40
414.51	1081.96
414.87	1075.83
415.24	1074.26
415.61	1074.54
415.97	1073.84
416.34	1072.55
416.71	1074.96
417.08	1075.55
417.44	1071.59
417.81	1072.53
418.18	1074.49
418.54	1075.48
418.91	1073.95
419.28	1077.72
419.64	1080.32
420.01	1081.00
420.38	1077.75
420.74	1079.57
421.11	1079.17
421.48	1076.15
421.84	1072.46
422.21	1074.10
422.58	1074.66
422.94	1073.42
423.31	1075.24
423.68	1074.35
424.04	1076.69
424.41	1077.44
424.77	1076.15
425.14	1075.71
425.51	1083.86
425.87	1079.81
426.24	1079.17
426.61	1080.09
426.97	1081.70
427.34	1077.07
427.70	1080.58
428.07	1081.40
428.44	1082.69
428.80	1080.74
429.17	1081.56
429.53	1077.72
429.90	1077.11
430.27	1077.42
430.63	1075.31
431.00	1073.98
431.36	1075.92
431.73	1073.49
432.09	1071.59
432.46	1075.78
432.83	1075.92
433.19	1078.28
433.56	1078.92
433.92	1079.85
434.29	1076.60
434.65	1074.05
435.02	1073.32
435.38	1076.11
435.75	1074.80
436.11	1073.67
436.48	1078.71
436.84	1080.77
437.21	1081.07
437.57	1082.87
437.94	1088.96
438.30	1086.90
438.67	1083.69
439.03	1083.64
439.40	1084.09
439.76	1078.17
440.13	1077.09
440.49	1079.41
440.86	1079.27
441.22	1079.36
441.59	1082.17
441.95	1077.02
442.32	1078.14
442.68	1078.99
443.05	1083.97
443.41	1084.39
443.78	1088.79
444.14	1084.18
444.51	1081.07
444.87	1075.90
445.24	1072.36
445.60	1074.05
445.96	1076.18
446.33	1077.11
446.69	1079.64
447.06	1079.31
447.42	1079.13
447.79	1079.62
448.15	1080.67
448.51	1078.57
448.88	1078.82
449.24	1077.63
449.61	1078.26
449.97	1076.08
450.33	1076.11
450.70	1077.82
451.06	1078.52
451.43	1077.23
451.79	1082.80
452.15	1081.80
452.52	1080.46
452.88	1082.24
453.24	1084.51
453.61	1077.16
453.97	1079.01
454.34	1082.43
454.70	1083.97
455.06	1081.33
455.43	1082.90
455.79	1080.37
456.15	1082.33
456.52	1079.36
456.88	1080.56
457.24	1079.76
457.61	1080.37
457.97	1079.10
458.33	1079.55
458.70	1078.99
459.06	1079.97
459.42	1079.60
459.79	1078.61
460.15	1078.38
460.51	1079.31
460.88	1081.23
461.24	1082.33
461.60	1081.09
461.96	1080.77
462.33	1080.67
462.69	1080.34
463.05	1081.77
463.42	1081.49
463.78	1080.91
464.14	1078.99
464.50	1078.82
464.87	1077.28
465.23	1077.84
465.59	1078.36
465.95	1079.57
466.32	1079.03
466.68	1076.11
467.04	1076.18
467.40	1077.75
467.77	1078.17
468.13	1079.29
468.49	1081.19
468.85	1080.56
469.22	1077.68
469.58	1076.69
469.94	1076.39
470.30	1079.15
470.66	1080.56
471.03	1081.00
471.39	1079.41
471.75	1078.89
472.11	1077.44
472.47	1076.13
472.84	1074.17
473.20	1079.76
473.56	1076.86
473.92	1077.16
474.28	1079.27
474.65	1080.93
475.01	1078.45
475.37	1080.81
475.73	1081.91
476.09	1079.41
476.45	1083.79
476.81	1084.86
477.18	1083.81
477.54	1081.58
477.90	1083.53
478.26	1080.18
478.62	1079.38
478.98	1080.37
479.34	1079.69
479.71	1078.12
480.07	1079.90
480.43	1078.10
480.79	1078.03
481.15	1082.97
481.51	1083.06
481.87	1079.64
482.23	1084.25
482.59	1083.95
482.96	1082.33
483.32	1082.64
483.68	1083.64
484.04	1080.06
484.40	1080.27
484.76	1078.12
485.12	1078.21
485.48	1078.31
485.84	1080.06
486.20	1080.51
486.56	1079.67
486.92	1080.30
487.28	1083.04
487.64	1081.47
488.00	1081.49
488.37	1084.96
488.73	1084.51
489.09	1083.36
489.45	1086.73
489.81	1085.21
490.17	1083.13
490.53	1083.25
490.89	1083.04
491.25	1080.77
491.61	1082.10
491.97	1082.59
492.33	1083.93
492.69	1083.64
493.05	1082.40
493.41	1084.67
493.77	1084.86
494.13	1084.04
494.49	1082.43
494.85	1082.01
495.21	1079.71
495.57	1076.34
495.93	1073.72
496.29	1077.25
496.64	1078.61
497.00	1079.24
497.36	1084.46
497.72	1083.13
498.08	1079.34
498.44	1075.69
498.80	1075.73
499.16	1073.60
499.52	1075.94
499.88	1074.94
500.24	1077.25
500.60	1077.02
500.96	1079.85
501.32	1080.84
501.68	1085.31
502.03	1087.27
502.39	1089.22
502.75	1085.42
503.11	1083.95
503.47	1082.26
503.83	1080.16
504.19	1082.15
504.55	1083.36
504.91	1087.20
505.26	1086.76
505.62	1086.29
505.98	1086.10
506.34	1085.49
506.70	1083.71
507.06	1082.22
507.42	1084.58
507.78	1079.31
508.13	1081.63
508.49	1080.56
508.85	1083.88
509.21	1085.12
509.57	1086.24
509.93	1085.87
510.28	1088.86
510.64	1088.72
511.00	1086.78
511.36	1089.73
511.72	1088.26
512.07	1086.41
512.43	1083.18
512.79	1085.63
513.15	1084.93
513.51	1086.66
513.86	1088.54
514.22	1091.37
514.58	1087.46
514.94	1087.60
515.30	1087.13
515.65	1086.03
516.01	1088.23
516.37	1094.20
516.73	1095.09
517.08	1093.62
517.44	1094.50
517.80	1093.12
518.16	1090.95
518.51	1091.72
518.87	1093.66
519.23	1093.31
519.59	1094.72
519.94	1095.42
520.30	1094.93
520.66	1096.07
521.01	1096.56
521.37	1095.93
521.73	1096.61
522.09	1096.96
522.44	1096.40
522.80	1098.48
523.16	1099.72
523.51	1099.72
523.87	1103.38
524.23	1101.88
524.58	1099.70
524.94	1099.00
525.30	1098.95
525.65	1095.72
526.01	1097.48
526.37	1096.19
526.72	1096.70
527.08	1094.88
527.44	1092.91
527.79	1094.93
528.15	1097.66
528.51	1096.52
528.86	1097.13
529.22	1097.20
529.58	1094.88
529.93	1094.72
530.29	1092.47
530.65	1090.99
531.00	1091.51
531.36	1091.37
531.71	1089.47
532.07	1091.25
532.43	1093.73
532.78	1094.04
533.14	1091.93
533.49	1090.32
533.85	1091.60
534.21	1089.92
534.56	1088.63
534.92	1093.69
535.27	1096.80
535.63	1095.53
535.98	1095.60
536.34	1098.58
536.69	1092.33
537.05	1090.15
537.41	1087.23
537.76	1086.31
538.12	1083.71
538.47	1085.14
538.83	1085.77
539.18	1089.31
539.54	1091.16
539.89	1090.08
540.25	1092.54
540.60	1088.75
540.96	1085.77
541.31	1087.11
541.67	1086.48
542.02	1082.31
542.38	1086.13
542.73	1090.60
543.09	1087.27
543.44	1089.80
543.80	1092.75
544.15	1092.42
544.51	1090.24
544.86	1091.04
545.22	1090.15
545.57	1088.86
545.93	1088.49
546.28	1087.25
546.64	1085.10
546.99	1085.07
547.35	1085.75
547.70	1086.52
548.05	1084.23
548.41	1084.49
548.76	1080.84
549.12	1079.92
549.47	1080.11
549.83	1084.35
550.18	1086.43
550.53	1091.27
550.89	1092.00
551.24	1089.80
551.60	1085.12
551.95	1082.17
552.30	1080.81
552.66	1081.47
553.01	1082.15
553.37	1082.87
553.72	1083.01
554.07	1084.70
554.43	1082.26
554.78	1081.66
555.13	1083.32
555.49	1085.12
555.84	1083.48
556.19	1087.90
556.55	1091.06
556.90	1091.72
557.26	1091.18
557.61	1091.74
557.96	1090.29
558.32	1084.23
558.67	1083.95
559.02	1086.20
559.37	1085.14
559.73	1081.61
560.08	1085.80
560.43	1087.02
560.79	1087.83
561.14	1087.81
561.49	1088.40
561.85	1087.60
562.20	1086.78
562.55	1084.44
562.90	1085.66
563.26	1086.94
563.61	1087.90
563.96	1085.40
564.32	1083.95
564.67	1082.33
565.02	1081.07
565.37	1078.89
565.73	1081.66
566.08	1079.50
566.43	1077.11
566.78	1079.48
567.14	1079.64
567.49	1080.23
567.84	1082.15
568.19	1083.69
568.54	1082.26
568.90	1081.66
569.25	1081.40
569.60	1082.54
569.95	1084.49
570.31	1083.69
570.66	1083.36
571.01	1083.43
571.36	1082.10
571.71	1079.13
572.06	1079.81
572.42	1083.83
572.77	1084.93
573.12	1087.95
573.47	1090.99
573.82	1092.87
574.18	1091.86
574.53	1089.73
574.88	1088.91
575.23	1086.55
575.58	1085.82
575.93	1083.88
576.28	1079.57
576.64	1077.75
576.99	1078.40
577.34	1079.48
577.69	1081.02
578.04	1083.62
578.39	1084.65
578.74	1085.05
579.09	1082.26
579.44	1080.23
579.80	1081.61
580.15	1081.12
580.50	1080.39
580.85	1080.11
581.20	1081.58
581.55	1080.46
581.90	1080.65
582.25	1082.29
582.60	1083.64
582.95	1083.86
583.30	1083.25
583.65	1084.42
584.00	1081.56
584.35	1082.45
584.71	1083.50
585.06	1086.38
585.41	1084.72
585.76	1086.27
586.11	1087.44
586.46	1087.16
586.81	1087.74
587.16	1088.84
587.51	1088.58
587.86	1084.18
588.21	1082.61
588.56	1082.36
588.91	1083.41
589.26	1087.32
589.61	1088.86
589.96	1088.82
590.31	1086.34
590.66	1081.75
591.01	1078.94
591.36	1081.26
591.71	1079.55
592.06	1077.84
592.41	1081.66
592.76	1082.66
593.10	1081.19
593.45	1083.62
593.80	1086.73
594.15	1084.91
594.50	1083.95
594.85	1082.99
595.20	1081.33
595.55	1081.12
595.90	1085.70
596.25	1085.87
596.60	1086.03
596.95	1084.63
597.30	1084.46
597.64	1135.18
597.99	1141.36
598.34	1143.05
598.69	1146.23
599.04	1144.94
599.39	1093.08
599.74	1086.29
600.09	1087.09
600.44	1083.27
600.78	1083.74
601.13	1083.15
601.48	1082.17
601.83	1079.50
602.18	1081.19
602.53	1081.14
602.88	1079.57
603.22	1079.38
603.57	1080.09
603.92	1082.61
604.27	1085.66
604.62	1083.36
604.97	1083.15
605.31	1083.93
605.66	1083.06
606.01	1078.52
606.36	1078.17
606.71	1077.02
607.05	1074.17
607.40	1074.33
607.75	1075.71
608.10	1078.61
608.44	1078.57
608.79	1080.11
609.14	1081.84
609.49	1081.12
609.84	1078.64
610.18	1084.44
610.53	1085.63
610.88	1086.15
611.23	1086.83
611.57	1091.11
611.92	1089.78
612.27	1088.35
612.62	1084.51
612.96	1085.84
613.31	1082.31
613.66	1079.81
614.00	1082.52
614.35	1083.22
614.70	1083.50
615.05	1084.65
615.39	1086.41
615.74	1083.15
616.09	1082.90
616.43	1083.62
616.78	1082.29
617.13	1081.68
617.47	1083.22
617.82	1083.97
618.17	1081.63
618.51	1081.40
618.86	1084.04
619.21	1085.96
619.55	1085.47
619.90	1085.49
620.25	1088.54
620.59	1084.86
620.94	1082.87
621.29	1081.98
621.63	1081.40
621.98	1079.85
622.32	1076.13
622.67	1076.18
623.02	1077.79
623.36	1078.75
623.71	1077.42
624.05	1079.97
624.40	1078.59
624.75	1076.55
625.09	1075.36
625.44	1076.20
625.78	1074.17
626.13	1076.15
626.48	1077.47
626.82	1081.68
627.17	1080.79
627.51	1083.86
627.86	1082.47
628.20	1082.61
628.55	1078.85
628.89	1080.32
629.24	1079.36
629.58	1079.50
629.93	1080.34
630.28	1079.27
630.62	1081.33
630.97	1082.57
631.31	1085.35
631.66	1085.94
632.00	1090.20
632.35	1086.08
632.69	1084.23
633.04	1081.42
633.38	1079.50
633.73	1079.64
634.07	1081.58
634.42	1081.77
634.76	1082.73
635.11	1080.60
635.45	1079.99
635.79	1080.25
636.14	1080.20
636.48	1079.67
636.83	1082.08
637.17	1080.74
637.52	1078.24
637.86	1077.63
638.21	1077.11
638.55	1075.24
638.89	1074.77
639.24	1076.48
639.58	1077.04
639.93	1077.93
640.27	1081.58
640.61	1082.90
640.96	1082.33
641.30	1084.86
641.65	1082.10
641.99	1080.06
642.33	1082.08
642.68	1082.05
643.02	1080.25
643.37	1081.07
643.71	1083.74
644.05	1079.01
644.40	1080.63
644.74	1081.40
645.08	1083.22
645.43	1081.94
645.77	1083.13
646.11	1081.91
646.46	1083.27
646.80	1084.67
647.14	1085.89
647.49	1085.68
647.83	1084.91
648.17	1084.63
648.52	1081.96
648.86	1077.77
649.20	1077.77
649.55	1077.77
649.89	1075.99
650.23	1074.68
650.57	1079.15
650.92	1081.02
651.26	1081.98
651.60	1083.15
651.95	1083.01
652.29	1081.61
652.63	1079.53
652.97	1080.20
653.32	1079.43
653.66	1085.28
654.00	1084.58
654.34	1086.97
654.69	1084.98
655.03	1086.03
655.37	1082.19
655.71	1082.61
656.05	1082.92
656.40	1083.83
656.74	1082.92
657.08	1083.64
657.42	1084.04
657.76	1081.70
658.11	1080.41
658.45	1080.44
658.79	1081.87
659.13	1077.51
659.47	1077.98
659.82	1078.96
660.16	1079.08
660.50	1074.77
660.84	1077.16
661.18	1077.63
661.52	1081.07
661.87	1082.78
662.21	1083.60
662.55	1082.57
662.89	1082.69
663.23	1079.03
663.57	1077.40
663.91	1078.94
664.25	1083.15
664.60	1082.71
664.94	1084.39
665.28	1084.63
665.62	1085.28
665.96	1085.12
666.30	1085.99
666.64	1088.30
666.98	1084.30
667.32	1084.81
667.66	1081.47
668.01	1078.80
668.35	1075.48
668.69	1077.07
669.03	1076.62
669.37	1079.46
669.71	1081.61
670.05	1083.18
670.39	1086.01
670.73	1088.65
671.07	1087.32
671.41	1087.16
671.75	1084.23
672.09	1080.39
672.43	1076.55
672.77	1076.48
673.11	1074.68
673.45	1074.68
673.79	1079.03
674.13	1077.96
674.47	1079.50
674.81	1079.48
675.15	1082.10
675.49	1078.78
675.83	1078.64
676.17	1077.37
676.51	1083.11
676.85	1081.30
677.19	1081.26
677.53	1083.25
677.87	1081.09
678.21	1075.45
678.55	1075.29
678.89	1076.53
679.23	1078.21
679.57	1079.64
679.90	1080.65
680.24	1082.90
680.58	1084.89
680.92	1085.49
681.26	1086.29
681.60	1084.77
681.94	1082.36
682.28	1080.23
682.62	1075.15
682.96	1073.02
683.29	1072.67
683.63	1071.80
683.97	1074.61
684.31	1073.53
684.65	1075.99
684.99	1079.95
685.33	1082.78
685.67	1079.99
686.00	1082.26
686.34	1080.86
686.68	1079.27
687.02	1077.75
687.36	1080.81
687.70	1084.93
688.03	1082.47
688.37	1081.73
688.71	1082.40
689.05	1080.20
689.39	1078.03
689.72	1084.60
690.06	1085.70
690.40	1086.34
690.74	1086.06
691.08	1083.55
691.41	1080.37
691.75	1078.45
692.09	1078.59
692.43	1079.01
692.76	1078.07
693.10	1079.41
693.44	1076.81
693.78	1075.24
694.11	1075.10
694.45	1081.00
694.79	1080.91
695.13	1085.99
695.46	1085.00
695.80	1088.51
696.14	1086.73
696.48	1086.78
696.81	1086.80
697.15	1088.30
697.49	1083.01
697.82	1080.79
698.16	1079.01
698.50	1077.61
698.83	1081.30
699.17	1083.27
699.51	1085.21
699.84	1083.04
700.18	1083.71
700.52	1079.76
700.85	1076.93
701.19	1074.17
701.53	1077.68
701.86	1075.13
702.20	1074.84
702.54	1076.72
702.87	1081.19
703.21	1081.05
703.55	1085.96
703.88	1087.18
704.22	1091.95
704.55	1087.53
704.89	1089.50
705.23	1083.88
705.56	1083.86
705.90	1082.01
706.23	1086.90
706.57	1084.07
706.91	1087.62
707.24	1086.69
707.58	1085.87
707.91	1082.29
708.25	1078.43
708.58	1079.62
708.92	1081.23
709.26	1079.78
709.59	1083.22
709.93	1084.84
710.26	1082.78
710.60	1081.54
710.93	1080.86
711.27	1077.72
711.60	1079.41
711.94	1077.00
712.27	1074.26
712.61	1071.19
712.94	1072.15
713.28	1074.98
713.61	1078.89
713.95	1082.26
714.28	1086.06
714.62	1081.63
714.95	1077.42
715.29	1073.91
715.62	1072.83
715.96	1073.44
716.29	1077.84
716.63	1078.14
716.96	1080.37
717.29	1085.40
717.63	1088.61
717.96	1088.84
718.30	1091.67
718.63	1092.12
718.97	1087.53
719.30	1083.81
719.63	1080.51
719.97	1078.45
720.30	1076.90
720.64	1078.12
720.97	1078.24
721.30	1081.58
721.64	1082.54
721.97	1084.32
722.31	1083.97
722.64	1084.58
722.97	1084.51
723.31	1086.17
723.64	1085.10
723.97	1085.73
724.31	1085.68
724.64	1085.42
724.98	1083.76
725.31	1083.53
725.64	1080.86
725.98	1077.96
726.31	1075.71
726.64	1076.18
726.97	1080.39
727.31	1082.50
727.64	1084.96
727.97	1090.36
728.31	1090.78
728.64	1084.93
728.97	1083.48
729.31	1083.36
729.64	1079.46
729.97	1082.40
730.30	1081.73
730.64	1081.16
730.97	1084.56
731.30	1084.18
731.63	1079.69
731.97	1082.36
732.30	1082.69
732.63	1080.70
732.96	1082.45
733.30	1082.40
733.63	1084.23
733.96	1086.99
734.29	1087.11
734.63	1084.39
734.96	1085.47
735.29	1080.60
735.62	1075.71
735.95	1076.23
736.29	1079.76
736.62	1080.84
736.95	1086.80
737.28	1092.00
737.61	1092.94
737.94	1090.74
738.28	1088.61
738.61	1085.56
738.94	1085.80
739.27	1081.14
739.60	1082.38
739.93	1081.80
740.27	1081.56
740.60	1081.02
740.93	1081.28
741.26	1080.72
741.59	1081.91
741.92	1082.12
742.25	1080.98
742.58	1082.71
742.91	1081.26
743.25	1084.53
743.58	1084.02
743.91	1082.36
744.24	1080.34
744.57	1077.42
744.90	1075.13
745.23	1074.47
745.56	1075.05
745.89	1075.17
746.22	1080.67
746.55	1079.92
746.88	1078.85
747.21	1079.92
747.54	1082.94
747.87	1081.80
748.20	1081.89
748.53	1089.00
748.87	1086.10
749.20	1085.70
749.53	1085.35
749.86	1084.79
750.19	1080.48
750.52	1081.82
750.85	1081.19
751.18	1078.71
751.51	1080.60
751.84	1077.44
752.16	1076.81
752.49	1075.38
752.82	1075.71
753.15	1074.82
753.48	1073.53
753.81	1074.87
754.14	1077.58
754.47	1078.26
754.80	1073.07
755.13	1075.85
755.46	1078.96
755.79	1077.25
756.12	1082.92
756.45	1086.87
756.78	1087.69
757.11	1084.42
757.43	1087.16
757.76	1083.34
758.09	1081.21
758.42	1080.44
758.75	1079.24
759.08	1077.18
759.41	1078.33
759.74	1081.51
760.07	1082.90
760.39	1083.81
760.72	1084.35
761.05	1082.31
761.38	1082.33
761.71	1083.86
762.04	1085.80
762.36	1084.81
762.69	1086.97
763.02	1087.39
763.35	1084.72
763.68	1085.33
764.01	1085.03
764.33	1082.80
764.66	1081.49
764.99	1083.79
765.32	1081.05
765.65	1082.29
765.97	1083.20
766.30	1085.47
