SpectraSuite Data File
++++++++++++++++++++++++++++++++++++
Date: Mon Aug 26 10:26:00 PDT 2019
User: corrico
Dark Spectrum Present: No
Reference Spectrum Present: No
Number of Sampled Component Spectra: 1
Spectrometers: USB2+H06089
Integration Time (usec): 10000 (USB2+H06089)
Spectra Averaged: 2 (USB2+H06089)
Boxcar Smoothing: 2 (USB2+H06089)
Correct for Electrical Dark: No (USB2+H06089)
Strobe/Lamp Enabled: No (USB2+H06089)
Correct for Detector Non-linearity: No (USB2+H06089)
Correct for Stray Light: No (USB2+H06089)
Number of Pixels in Processed Spectrum: 2048
>>>>>Begin Processed Spectral Data<<<<<
339.70	985.37
340.07	985.37
340.45	969.68
340.82	957.28
341.19	941.83
341.57	928.72
341.94	916.32
342.31	906.02
342.69	899.47
343.06	901.11
343.43	887.53
343.81	893.15
344.18	899.70
344.55	909.06
344.93	909.53
345.30	920.53
345.67	928.72
346.04	938.09
346.42	943.70
346.79	954.00
347.16	966.17
347.54	964.77
347.91	971.09
348.28	972.26
348.65	982.79
349.03	994.73
349.40	1006.90
349.77	1003.39
350.14	1021.18
350.52	1028.43
350.89	1039.20
351.26	1048.33
351.63	1064.01
352.01	1074.31
352.38	1077.11
352.75	1070.09
353.12	1073.84
353.50	1074.77
353.87	1062.60
354.24	1063.07
354.61	1074.07
354.98	1075.71
355.36	1068.92
355.73	1081.80
356.10	1080.63
356.47	1075.48
356.84	1068.22
357.22	1079.69
357.59	1076.18
357.96	1084.60
358.33	1082.50
358.70	1092.09
359.08	1089.99
359.45	1081.80
359.82	1077.11
360.19	1073.60
360.56	1072.43
360.94	1076.88
361.31	1071.50
361.68	1071.03
362.05	1080.16
362.42	1077.11
362.79	1076.65
363.16	1082.73
363.54	1085.07
363.91	1079.92
364.28	1085.31
364.65	1080.86
365.02	1081.56
365.39	1082.73
365.76	1078.05
366.14	1072.20
366.51	1072.67
366.88	1072.20
367.25	1062.60
367.62	1067.75
367.99	1059.79
368.36	1059.56
368.73	1056.75
369.10	1065.65
369.48	1069.62
369.85	1074.77
370.22	1074.07
370.59	1068.69
370.96	1066.35
371.33	1054.65
371.70	1057.45
372.07	1062.60
372.44	1071.73
372.81	1073.60
373.18	1086.48
373.55	1091.63
373.93	1080.16
374.30	1078.05
374.67	1075.94
375.04	1072.43
375.41	1072.20
375.78	1076.18
376.15	1082.26
376.52	1082.50
376.89	1081.33
377.26	1079.22
377.63	1081.33
378.00	1066.35
378.37	1061.20
378.74	1068.92
379.11	1064.01
379.48	1070.33
379.85	1082.26
380.22	1091.16
380.59	1080.16
380.96	1079.92
381.33	1074.54
381.70	1074.54
382.07	1080.16
382.44	1082.73
382.81	1091.86
383.18	1096.07
383.55	1091.16
383.92	1076.41
384.29	1077.11
384.66	1062.37
385.03	1053.24
385.40	1059.33
385.77	1057.22
386.14	1060.50
386.51	1066.35
386.88	1064.48
387.25	1066.58
387.62	1068.45
387.99	1060.26
388.36	1059.56
388.73	1056.52
389.10	1048.79
389.46	1048.33
389.83	1062.37
390.20	1064.48
390.57	1077.35
390.94	1085.07
391.31	1093.26
391.68	1075.71
392.05	1066.82
392.42	1060.73
392.79	1056.28
393.16	1059.33
393.53	1064.94
393.89	1076.18
394.26	1076.41
394.63	1079.92
395.00	1071.73
395.37	1082.97
395.74	1078.52
396.11	1085.31
396.48	1084.14
396.84	1083.43
397.21	1075.24
397.58	1072.67
397.95	1066.58
398.32	1060.73
398.69	1065.88
399.06	1064.01
399.42	1072.20
399.79	1067.52
400.16	1075.01
400.53	1071.73
400.90	1073.60
401.27	1079.69
401.64	1078.05
402.00	1076.65
402.37	1077.35
402.74	1080.63
403.11	1076.41
403.48	1086.01
403.84	1090.92
404.21	1089.52
404.58	1090.22
404.95	1089.05
405.32	1085.31
405.68	1070.80
406.05	1062.84
406.42	1060.26
406.79	1068.22
407.16	1061.43
407.52	1069.86
407.89	1082.73
408.26	1085.31
408.63	1076.88
408.99	1081.09
409.36	1085.54
409.73	1084.37
410.10	1075.94
410.47	1082.03
410.83	1080.39
411.20	1069.86
411.57	1073.37
411.94	1079.46
412.30	1067.28
412.67	1071.73
413.04	1079.92
413.40	1082.03
413.77	1088.82
414.14	1099.35
414.51	1104.03
414.87	1105.44
415.24	1085.07
415.61	1073.84
415.97	1066.82
416.34	1055.58
416.71	1046.69
417.08	1055.11
417.44	1060.03
417.81	1058.16
418.18	1071.73
418.54	1073.14
418.91	1072.43
419.28	1071.03
419.64	1074.07
420.01	1067.28
420.38	1068.45
420.74	1066.58
421.11	1065.41
421.48	1067.52
421.84	1061.20
422.21	1065.18
422.58	1072.20
422.94	1079.22
423.31	1073.14
423.68	1081.09
424.04	1077.82
424.41	1084.60
424.77	1078.52
425.14	1089.75
425.51	1094.67
425.87	1093.26
426.24	1081.09
426.61	1074.77
426.97	1082.73
427.34	1082.26
427.70	1086.24
428.07	1094.43
428.44	1100.52
428.80	1086.01
429.17	1074.31
429.53	1070.09
429.90	1064.24
430.27	1069.86
430.63	1066.58
431.00	1066.82
431.36	1070.56
431.73	1076.41
432.09	1072.90
432.46	1076.88
432.83	1089.05
433.19	1094.43
433.56	1085.31
433.92	1082.97
434.29	1083.90
434.65	1080.86
435.02	1074.54
435.38	1074.54
435.75	1071.26
436.11	1067.75
436.48	1056.99
436.84	1064.94
437.21	1071.97
437.57	1068.22
437.94	1081.56
438.30	1095.37
438.67	1093.26
439.03	1084.37
439.40	1094.20
439.76	1085.07
440.13	1077.11
440.49	1078.99
440.86	1088.35
441.22	1086.71
441.59	1078.28
441.95	1082.26
442.32	1070.09
442.68	1077.82
443.05	1081.56
443.41	1084.37
443.78	1082.97
444.14	1094.90
444.51	1093.50
444.87	1087.18
445.24	1086.24
445.60	1079.92
445.96	1076.18
446.33	1067.28
446.69	1071.97
447.06	1085.77
447.42	1099.12
447.79	1095.60
448.15	1101.22
448.51	1098.18
448.88	1082.26
449.24	1075.01
449.61	1086.01
449.97	1079.92
450.33	1088.82
450.70	1097.71
451.06	1095.84
451.43	1097.24
451.79	1109.65
452.15	1099.12
452.52	1095.84
452.88	1096.07
453.24	1084.37
453.61	1066.82
453.97	1067.05
454.34	1070.56
454.70	1079.92
455.06	1083.20
455.43	1087.18
455.79	1094.20
456.15	1094.90
456.52	1094.20
456.88	1090.92
457.24	1085.07
457.61	1083.90
457.97	1079.69
458.33	1075.01
458.70	1074.54
459.06	1070.80
459.42	1067.28
459.79	1063.54
460.15	1065.41
460.51	1066.58
460.88	1067.75
461.24	1068.92
461.60	1067.28
461.96	1057.92
462.33	1056.05
462.69	1063.31
463.05	1054.18
463.42	1069.16
463.78	1075.48
464.14	1078.52
464.50	1079.46
464.87	1086.48
465.23	1080.63
465.59	1074.54
465.95	1070.09
466.32	1077.35
466.68	1082.73
467.04	1076.88
467.40	1075.24
467.77	1074.54
468.13	1073.37
468.49	1067.28
468.85	1066.35
469.22	1069.39
469.58	1076.41
469.94	1069.86
470.30	1071.26
470.66	1076.88
471.03	1080.63
471.39	1077.82
471.75	1089.29
472.11	1082.03
472.47	1076.65
472.84	1068.22
473.20	1065.88
473.56	1060.96
473.92	1066.11
474.28	1075.71
474.65	1082.73
475.01	1088.58
475.37	1082.50
475.73	1080.63
476.09	1081.80
476.45	1073.14
476.81	1079.46
477.18	1080.39
477.54	1091.63
477.90	1086.71
478.26	1095.37
478.62	1090.22
478.98	1095.14
479.34	1085.31
479.71	1079.92
480.07	1075.71
480.43	1078.75
480.79	1074.77
481.15	1079.22
481.51	1084.37
481.87	1095.37
482.23	1087.18
482.59	1088.82
482.96	1090.22
483.32	1083.43
483.68	1074.07
484.04	1080.86
484.40	1075.01
484.76	1066.82
485.12	1073.37
485.48	1077.11
485.84	1067.99
486.20	1071.50
486.56	1072.90
486.92	1064.71
487.28	1060.73
487.64	1064.94
488.00	1068.69
488.37	1075.48
488.73	1080.39
489.09	1080.86
489.45	1090.92
489.81	1086.71
490.17	1082.50
490.53	1090.22
490.89	1097.71
491.25	1086.01
491.61	1081.09
491.97	1081.33
492.33	1073.37
492.69	1064.71
493.05	1063.77
493.41	1066.35
493.77	1063.77
494.13	1057.45
494.49	1057.22
494.85	1064.24
495.21	1069.39
495.57	1074.31
495.93	1080.39
496.29	1087.65
496.64	1082.26
497.00	1078.99
497.36	1069.39
497.72	1078.05
498.08	1077.11
498.44	1076.41
498.80	1080.63
499.16	1092.33
499.52	1082.50
499.88	1081.56
500.24	1087.88
500.60	1082.73
500.96	1096.31
501.32	1102.39
501.68	1102.16
502.03	1092.80
502.39	1101.92
502.75	1083.67
503.11	1087.88
503.47	1087.18
503.83	1092.80
504.19	1089.99
504.55	1090.22
504.91	1088.35
505.26	1090.22
505.62	1090.22
505.98	1077.11
506.34	1075.24
506.70	1063.07
507.06	1065.88
507.42	1074.07
507.78	1085.07
508.13	1089.99
508.49	1104.97
508.85	1111.29
509.21	1102.16
509.57	1106.14
509.93	1106.14
510.28	1097.48
510.64	1086.71
511.00	1089.52
511.36	1085.77
511.72	1092.33
512.07	1097.95
512.43	1098.65
512.79	1088.12
513.15	1090.69
513.51	1084.37
513.86	1085.77
514.22	1088.12
514.58	1097.01
514.94	1094.43
515.30	1090.22
515.65	1086.48
516.01	1080.86
516.37	1087.18
516.73	1093.73
517.08	1094.67
517.44	1095.60
517.80	1095.84
518.16	1084.84
518.51	1083.67
518.87	1086.71
519.23	1092.33
519.59	1098.88
519.94	1097.48
520.30	1089.29
520.66	1090.22
521.01	1084.14
521.37	1084.84
521.73	1095.37
522.09	1099.12
522.44	1108.48
522.80	1110.58
523.16	1104.97
523.51	1104.26
523.87	1108.48
524.23	1097.24
524.58	1100.05
524.94	1099.82
525.30	1096.54
525.65	1086.24
526.01	1088.35
526.37	1083.90
526.72	1079.92
527.08	1081.80
527.44	1089.99
527.79	1082.73
528.15	1078.99
528.51	1091.63
528.86	1088.82
529.22	1082.50
529.58	1089.52
529.93	1092.80
530.29	1087.88
530.65	1089.75
531.00	1095.84
531.36	1102.16
531.71	1102.16
532.07	1099.82
532.43	1097.24
532.78	1104.73
533.14	1099.82
533.49	1087.65
533.85	1093.50
534.21	1088.35
534.56	1084.14
534.92	1083.67
535.27	1103.80
535.63	1103.80
535.98	1105.20
536.34	1096.07
536.69	1104.26
537.05	1089.99
537.41	1089.29
537.76	1103.09
538.12	1111.05
538.47	1098.18
538.83	1099.35
539.18	1102.16
539.54	1089.05
539.89	1087.65
540.25	1092.56
540.60	1105.90
540.96	1096.07
541.31	1105.67
541.67	1107.07
542.02	1107.54
542.38	1105.90
542.73	1111.29
543.09	1104.50
543.44	1094.43
543.80	1092.80
544.15	1082.97
544.51	1074.31
544.86	1084.37
545.22	1091.86
545.57	1085.31
545.93	1087.65
546.28	1095.14
546.64	1091.63
546.99	1099.58
547.35	1106.37
547.70	1104.97
548.05	1101.22
548.41	1096.78
548.76	1082.26
549.12	1073.84
549.47	1066.58
549.83	1071.50
550.18	1072.90
550.53	1073.84
550.89	1077.11
551.24	1085.77
551.60	1089.75
551.95	1095.14
552.30	1104.50
552.66	1106.37
553.01	1099.82
553.37	1104.50
553.72	1100.75
554.07	1090.22
554.43	1096.54
554.78	1097.71
555.13	1079.46
555.49	1082.73
555.84	1086.71
556.19	1089.05
556.55	1091.86
556.90	1097.95
557.26	1091.39
557.61	1104.73
557.96	1091.63
558.32	1090.22
558.67	1088.58
559.02	1096.07
559.37	1090.92
559.73	1097.71
560.08	1108.24
560.43	1112.92
560.79	1112.92
561.14	1103.80
561.49	1102.86
561.85	1088.12
562.20	1082.26
562.55	1069.86
562.90	1079.69
563.26	1086.48
563.61	1089.52
563.96	1094.90
564.32	1098.65
564.67	1092.56
565.02	1089.52
565.37	1095.60
565.73	1092.56
566.08	1085.54
566.43	1075.01
566.78	1074.54
567.14	1078.99
567.49	1081.33
567.84	1088.12
568.19	1088.82
568.54	1079.92
568.90	1068.92
569.25	1070.33
569.60	1074.31
569.95	1077.35
570.31	1077.58
570.66	1086.48
571.01	1075.71
571.36	1070.09
571.71	1067.75
572.06	1067.28
572.42	1059.09
572.77	1071.73
573.12	1076.65
573.47	1082.03
573.82	1086.48
574.18	1096.54
574.53	1094.90
574.88	1092.09
575.23	1095.60
575.58	1101.92
575.93	1089.05
576.28	1092.33
576.64	1092.56
576.99	1084.84
577.34	1079.22
577.69	1081.33
578.04	1085.31
578.39	1091.39
578.74	1091.86
579.09	1097.95
579.44	1095.37
579.80	1081.80
580.15	1074.77
580.50	1084.60
580.85	1076.41
581.20	1082.97
581.55	1089.05
581.90	1095.14
582.25	1090.92
582.60	1083.43
582.95	1081.09
583.30	1091.63
583.65	1082.73
584.00	1084.37
584.35	1088.35
584.71	1092.09
585.06	1077.35
585.41	1089.29
585.76	1088.35
586.11	1092.80
586.46	1090.22
586.81	1100.99
587.16	1085.31
587.51	1081.56
587.86	1075.48
588.21	1077.35
588.56	1067.28
588.91	1073.60
589.26	1075.71
589.61	1094.20
589.96	1086.48
590.31	1084.37
590.66	1089.99
591.01	1089.05
591.36	1081.80
591.71	1089.29
592.06	1086.94
592.41	1075.24
592.76	1076.88
593.10	1067.75
593.45	1063.31
593.80	1065.65
594.15	1073.37
594.50	1067.99
594.85	1066.82
595.20	1066.35
595.55	1060.73
595.90	1058.16
596.25	1055.58
596.60	1051.60
596.95	1058.16
597.30	1075.01
597.64	1120.41
597.99	1121.82
598.34	1130.24
598.69	1127.20
599.04	1122.05
599.39	1075.24
599.74	1086.94
600.09	1087.18
600.44	1090.22
600.78	1096.07
601.13	1104.97
601.48	1096.31
601.83	1103.09
602.18	1102.16
602.53	1088.12
602.88	1071.73
603.22	1067.99
603.57	1062.14
603.92	1062.14
604.27	1066.58
604.62	1085.54
604.97	1093.50
605.31	1095.60
605.66	1100.52
606.01	1109.88
606.36	1093.97
606.71	1098.88
607.05	1095.14
607.40	1086.71
607.75	1077.58
608.10	1080.63
608.44	1080.16
608.79	1082.97
609.14	1090.69
609.49	1101.22
609.84	1113.16
610.18	1109.88
610.53	1108.01
610.88	1108.71
611.23	1105.20
611.57	1095.60
611.92	1084.37
612.27	1078.05
612.62	1086.94
612.96	1080.16
613.31	1078.99
613.66	1087.41
614.00	1089.52
614.35	1078.05
614.70	1077.35
615.05	1083.90
615.39	1080.63
615.74	1079.22
616.09	1071.26
616.43	1069.86
616.78	1064.71
617.13	1066.11
617.47	1070.33
617.82	1082.26
618.17	1083.90
618.51	1082.50
618.86	1082.73
619.21	1089.52
619.55	1092.09
619.90	1087.88
620.25	1093.03
620.59	1095.84
620.94	1097.01
621.29	1081.56
621.63	1083.67
621.98	1084.37
622.32	1088.35
622.67	1081.56
623.02	1079.69
623.36	1080.63
623.71	1078.99
624.05	1081.09
624.40	1084.84
624.75	1094.20
625.09	1098.41
625.44	1092.09
625.78	1086.71
626.13	1084.60
626.48	1089.75
626.82	1086.48
627.17	1099.35
627.51	1109.65
627.86	1096.78
628.20	1085.31
628.55	1087.18
628.89	1070.09
629.24	1059.56
629.58	1070.33
629.93	1071.97
630.28	1073.84
630.62	1085.77
630.97	1084.84
631.31	1091.16
631.66	1101.69
632.00	1093.26
632.35	1088.35
632.69	1086.71
633.04	1083.20
633.38	1082.03
633.73	1096.31
634.07	1101.46
634.42	1099.35
634.76	1099.35
635.11	1087.88
635.45	1074.07
635.79	1075.01
636.14	1082.26
636.48	1071.73
636.83	1082.73
637.17	1082.26
637.52	1084.37
637.86	1080.16
638.21	1084.60
638.55	1079.22
638.89	1088.12
639.24	1081.09
639.58	1084.60
639.93	1087.88
640.27	1084.84
640.61	1080.63
640.96	1077.58
641.30	1076.65
641.65	1090.46
641.99	1100.29
642.33	1101.46
642.68	1097.01
643.02	1101.69
643.37	1093.50
643.71	1084.84
644.05	1083.43
644.40	1094.90
644.74	1087.41
645.08	1083.67
645.43	1078.99
645.77	1081.09
646.11	1069.62
646.46	1077.58
646.80	1076.18
647.14	1090.22
647.49	1086.48
647.83	1091.86
648.17	1073.60
648.52	1081.09
648.86	1076.65
649.20	1087.18
649.55	1084.14
649.89	1097.24
650.23	1095.14
650.57	1092.80
650.92	1090.46
651.26	1096.07
651.60	1095.60
651.95	1096.07
652.29	1094.67
652.63	1089.99
652.97	1086.71
653.32	1085.77
653.66	1089.99
654.00	1084.37
654.34	1079.69
654.69	1088.12
655.03	1090.69
655.37	1084.60
655.71	1092.33
656.05	1098.65
656.40	1096.31
656.74	1081.80
657.08	1081.56
657.42	1080.63
657.76	1081.80
658.11	1080.86
658.45	1089.29
658.79	1087.65
659.13	1085.31
659.47	1081.80
659.82	1077.58
660.16	1075.94
660.50	1073.37
660.84	1066.58
661.18	1058.39
661.52	1062.84
661.87	1058.86
662.21	1061.20
662.55	1075.94
662.89	1072.90
663.23	1063.31
663.57	1068.22
663.91	1068.22
664.25	1059.79
664.60	1069.86
664.94	1074.07
665.28	1074.77
665.62	1081.56
665.96	1078.52
666.30	1078.05
666.64	1079.22
666.98	1073.14
667.32	1069.16
667.66	1077.11
668.01	1086.71
668.35	1082.03
668.69	1088.58
669.03	1076.41
669.37	1072.20
669.71	1065.41
670.05	1071.73
670.39	1076.65
670.73	1092.09
671.07	1095.14
671.41	1093.73
671.75	1086.01
672.09	1081.56
672.43	1079.69
672.77	1072.90
673.11	1061.43
673.45	1068.45
673.79	1085.07
674.13	1069.16
674.47	1069.62
674.81	1081.33
675.15	1075.48
675.49	1064.24
675.83	1073.37
676.17	1077.35
676.51	1075.01
676.85	1084.37
677.19	1083.43
677.53	1089.05
677.87	1079.22
678.21	1086.01
678.55	1079.69
678.89	1070.80
679.23	1075.71
679.57	1088.35
679.90	1083.20
680.24	1089.52
680.58	1093.03
680.92	1088.58
681.26	1082.26
681.60	1082.26
681.94	1084.14
682.28	1085.54
682.62	1081.33
682.96	1086.94
683.29	1083.43
683.63	1085.54
683.97	1084.37
684.31	1076.18
684.65	1082.97
684.99	1074.54
685.33	1066.58
685.67	1070.80
686.00	1074.77
686.34	1061.20
686.68	1070.56
687.02	1077.58
687.36	1073.14
687.70	1076.18
688.03	1078.28
688.37	1078.75
688.71	1074.77
689.05	1068.92
689.39	1064.48
689.72	1067.99
690.06	1070.80
690.40	1075.94
690.74	1084.60
691.08	1088.82
691.41	1094.67
691.75	1086.01
692.09	1075.01
692.43	1078.52
692.76	1080.16
693.10	1080.39
693.44	1091.63
693.78	1083.43
694.11	1081.80
694.45	1073.37
694.79	1062.60
695.13	1062.84
695.46	1079.22
695.80	1072.20
696.14	1089.29
696.48	1097.24
696.81	1098.18
697.15	1089.52
697.49	1100.52
697.82	1088.82
698.16	1082.03
698.50	1083.67
698.83	1088.35
699.17	1078.05
699.51	1075.01
699.84	1084.60
700.18	1083.90
700.52	1077.58
700.85	1081.56
701.19	1082.50
701.53	1071.03
701.86	1065.65
702.20	1072.90
702.54	1077.35
702.87	1077.35
703.21	1081.80
703.55	1086.01
703.88	1099.12
704.22	1087.88
704.55	1097.71
704.89	1094.90
705.23	1087.41
705.56	1065.88
705.90	1078.75
706.23	1079.92
706.57	1079.69
706.91	1088.12
707.24	1083.20
707.58	1083.43
707.91	1074.31
708.25	1074.54
708.58	1070.56
708.92	1074.77
709.26	1057.92
709.59	1069.62
709.93	1068.45
710.26	1066.82
710.60	1075.24
710.93	1086.94
711.27	1083.67
711.60	1086.94
711.94	1093.50
712.27	1091.63
712.61	1087.41
712.94	1082.50
713.28	1086.01
713.61	1079.22
713.95	1078.75
714.28	1077.58
714.62	1069.86
714.95	1066.35
715.29	1071.97
715.62	1068.22
715.96	1072.43
716.29	1078.28
716.63	1082.26
716.96	1079.22
717.29	1088.35
717.63	1095.60
717.96	1101.69
718.30	1099.12
718.63	1092.09
718.97	1094.43
719.30	1084.60
719.63	1082.97
719.97	1080.16
720.30	1082.97
720.64	1082.03
720.97	1089.29
721.30	1084.84
721.64	1083.43
721.97	1087.65
722.31	1084.14
722.64	1085.54
722.97	1088.35
723.31	1095.60
723.64	1100.75
723.97	1102.39
724.31	1097.71
724.64	1098.88
724.98	1096.07
725.31	1089.75
725.64	1090.22
725.98	1083.90
726.31	1097.95
726.64	1097.24
726.97	1102.63
727.31	1095.84
727.64	1097.95
727.97	1083.90
728.31	1088.82
728.64	1085.77
728.97	1092.80
729.31	1082.97
729.64	1080.39
729.97	1080.86
730.30	1083.90
730.64	1083.67
730.97	1091.86
731.30	1085.54
731.63	1075.24
731.97	1074.07
732.30	1069.16
732.63	1080.39
732.96	1088.58
733.30	1083.90
733.63	1082.50
733.96	1083.20
734.29	1077.82
734.63	1080.39
734.96	1097.71
735.29	1088.12
735.62	1101.46
735.95	1096.31
736.29	1098.18
736.62	1086.24
736.95	1093.03
737.28	1079.69
737.61	1093.73
737.94	1090.22
738.28	1091.16
738.61	1097.01
738.94	1100.52
739.27	1086.94
739.60	1088.12
739.93	1090.92
740.27	1086.48
740.60	1085.77
740.93	1085.07
741.26	1090.22
741.59	1089.99
741.92	1092.33
742.25	1089.05
742.58	1094.43
742.91	1085.07
743.25	1083.90
743.58	1080.39
743.91	1075.94
744.24	1076.41
744.57	1074.31
744.90	1081.56
745.23	1076.41
745.56	1079.69
745.89	1076.65
746.22	1083.20
746.55	1075.71
746.88	1082.03
747.21	1073.37
747.54	1077.11
747.87	1068.45
748.20	1069.16
748.53	1069.16
748.87	1077.11
749.20	1068.22
749.53	1072.43
749.86	1074.07
750.19	1070.56
750.52	1081.09
750.85	1097.71
751.18	1104.97
751.51	1109.18
751.84	1102.16
752.16	1100.52
752.49	1098.18
752.82	1088.58
753.15	1087.18
753.48	1094.67
753.81	1093.26
754.14	1085.77
754.47	1085.77
754.80	1089.99
755.13	1094.43
755.46	1091.39
755.79	1090.22
756.12	1098.41
756.45	1093.73
756.78	1098.88
757.11	1097.24
757.43	1096.54
757.76	1090.69
758.09	1086.94
758.42	1080.86
758.75	1081.80
759.08	1078.52
759.41	1083.20
759.74	1089.05
760.07	1088.35
760.39	1074.77
760.72	1078.28
761.05	1071.50
761.38	1071.03
761.71	1077.35
762.04	1082.97
762.36	1085.54
762.69	1078.75
763.02	1073.60
763.35	1060.26
763.68	1071.73
764.01	1073.60
764.33	1076.88
764.66	1067.52
764.99	1078.52
765.32	1081.33
765.65	1073.84
765.97	1082.03
766.30	1092.09
