SpectraSuite Data File
++++++++++++++++++++++++++++++++++++
Date: Mon Aug 26 10:26:02 PDT 2019
User: corrico
Dark Spectrum Present: No
Reference Spectrum Present: No
Number of Sampled Component Spectra: 1
Spectrometers: USB2+H06089
Integration Time (usec): 10000 (USB2+H06089)
Spectra Averaged: 2 (USB2+H06089)
Boxcar Smoothing: 2 (USB2+H06089)
Correct for Electrical Dark: No (USB2+H06089)
Strobe/Lamp Enabled: No (USB2+H06089)
Correct for Detector Non-linearity: No (USB2+H06089)
Correct for Stray Light: No (USB2+H06089)
Number of Pixels in Processed Spectrum: 2048
>>>>>Begin Processed Spectral Data<<<<<
339.70	987.71
340.07	987.71
340.45	974.37
340.82	961.73
341.19	955.87
341.57	938.32
341.94	923.11
342.31	922.87
342.69	913.98
343.06	893.15
343.43	891.98
343.81	891.74
344.18	888.00
344.55	893.62
344.93	912.57
345.30	918.89
345.67	925.92
346.04	933.64
346.42	939.26
346.79	934.34
347.16	942.30
347.54	954.70
347.91	962.90
348.28	979.05
348.65	998.71
349.03	1004.09
349.40	1012.28
349.77	1025.62
350.14	1038.96
350.52	1050.67
350.89	1065.18
351.26	1067.52
351.63	1073.14
352.01	1074.54
352.38	1070.33
352.75	1066.58
353.12	1069.86
353.50	1069.16
353.87	1064.01
354.24	1059.33
354.61	1070.09
354.98	1071.97
355.36	1065.65
355.73	1065.18
356.10	1072.43
356.47	1071.50
356.84	1071.73
357.22	1076.65
357.59	1086.94
357.96	1084.84
358.33	1080.63
358.70	1071.97
359.08	1070.33
359.45	1069.62
359.82	1079.69
360.19	1074.07
360.56	1082.73
360.94	1084.60
361.31	1068.92
361.68	1070.09
362.05	1070.80
362.42	1061.90
362.79	1066.35
363.16	1078.28
363.54	1067.99
363.91	1064.71
364.28	1068.92
364.65	1063.54
365.02	1063.07
365.39	1062.14
365.76	1066.58
366.14	1071.97
366.51	1066.11
366.88	1062.60
367.25	1063.31
367.62	1074.77
367.99	1067.28
368.36	1071.26
368.73	1072.43
369.10	1079.69
369.48	1067.52
369.85	1069.86
370.22	1074.54
370.59	1075.48
370.96	1067.99
371.33	1077.35
371.70	1076.41
372.07	1065.65
372.44	1060.96
372.81	1065.88
373.18	1061.90
373.55	1070.80
373.93	1083.67
374.30	1087.65
374.67	1076.18
375.04	1072.20
375.41	1064.01
375.78	1059.09
376.15	1068.22
376.52	1076.88
376.89	1073.14
377.26	1070.56
377.63	1069.62
378.00	1059.09
378.37	1056.28
378.74	1061.67
379.11	1059.09
379.48	1059.79
379.85	1062.37
380.22	1069.16
380.59	1068.69
380.96	1079.69
381.33	1080.39
381.70	1080.16
382.07	1070.80
382.44	1065.88
382.81	1060.73
383.18	1062.14
383.55	1061.20
383.92	1060.26
384.29	1068.45
384.66	1066.35
385.03	1065.18
385.40	1064.48
385.77	1069.39
386.14	1064.94
386.51	1066.35
386.88	1061.67
387.25	1056.28
387.62	1063.07
387.99	1055.58
388.36	1055.11
388.73	1060.03
389.10	1060.26
389.46	1049.26
389.83	1057.92
390.20	1066.58
390.57	1067.99
390.94	1076.41
391.31	1078.99
391.68	1082.97
392.05	1082.97
392.42	1086.01
392.79	1072.43
393.16	1075.01
393.53	1074.31
393.89	1069.16
394.26	1064.71
394.63	1076.18
395.00	1084.14
395.37	1086.48
395.74	1094.90
396.11	1092.80
396.48	1098.65
396.84	1100.05
397.21	1090.69
397.58	1083.67
397.95	1083.20
398.32	1076.65
398.69	1059.33
399.06	1052.07
399.42	1051.60
399.79	1051.84
400.16	1060.26
400.53	1065.88
400.90	1073.37
401.27	1071.50
401.64	1081.33
402.00	1070.33
402.37	1069.16
402.74	1073.60
403.11	1075.48
403.48	1070.80
403.84	1064.48
404.21	1061.43
404.58	1057.45
404.95	1055.58
405.32	1055.11
405.68	1061.43
406.05	1073.37
406.42	1085.07
406.79	1080.63
407.16	1075.94
407.52	1078.75
407.89	1081.09
408.26	1070.80
408.63	1079.92
408.99	1084.37
409.36	1082.26
409.73	1071.26
410.10	1070.56
410.47	1067.28
410.83	1072.90
411.20	1079.69
411.57	1086.01
411.94	1092.33
412.30	1090.22
412.67	1078.52
413.04	1072.20
413.40	1075.71
413.77	1082.03
414.14	1082.50
414.51	1082.97
414.87	1088.82
415.24	1088.58
415.61	1076.88
415.97	1074.54
416.34	1082.50
416.71	1076.18
417.08	1077.35
417.44	1078.75
417.81	1084.37
418.18	1074.77
418.54	1081.56
418.91	1080.39
419.28	1080.39
419.64	1081.56
420.01	1092.56
420.38	1073.84
420.74	1071.50
421.11	1064.94
421.48	1059.09
421.84	1049.96
422.21	1065.88
422.58	1062.37
422.94	1068.92
423.31	1076.88
423.68	1078.28
424.04	1072.67
424.41	1071.03
424.77	1073.14
425.14	1072.20
425.51	1078.99
425.87	1083.90
426.24	1085.54
426.61	1077.58
426.97	1080.16
427.34	1066.58
427.70	1064.01
428.07	1072.20
428.44	1085.31
428.80	1085.54
429.17	1096.31
429.53	1094.90
429.90	1094.67
430.27	1089.52
430.63	1086.71
431.00	1083.20
431.36	1073.37
431.73	1060.26
432.09	1051.13
432.46	1052.07
432.83	1057.69
433.19	1072.90
433.56	1082.73
433.92	1090.46
434.29	1086.94
434.65	1088.58
435.02	1088.35
435.38	1071.97
435.75	1076.18
436.11	1075.01
436.48	1067.75
436.84	1057.92
437.21	1070.56
437.57	1071.73
437.94	1076.41
438.30	1082.97
438.67	1102.16
439.03	1106.61
439.40	1101.46
439.76	1098.65
440.13	1095.14
440.49	1082.03
440.86	1082.73
441.22	1085.31
441.59	1082.03
441.95	1078.52
442.32	1076.65
442.68	1072.67
443.05	1075.48
443.41	1072.43
443.78	1078.75
444.14	1084.84
444.51	1084.60
444.87	1073.60
445.24	1079.46
445.60	1074.31
445.96	1080.63
446.33	1075.24
446.69	1086.48
447.06	1078.28
447.42	1075.24
447.79	1066.82
448.15	1076.65
448.51	1070.09
448.88	1088.12
449.24	1099.35
449.61	1099.82
449.97	1092.56
450.33	1096.78
450.70	1090.69
451.06	1077.35
451.43	1073.84
451.79	1083.20
452.15	1089.29
452.52	1081.09
452.88	1075.48
453.24	1089.52
453.61	1070.33
453.97	1050.90
454.34	1053.94
454.70	1062.60
455.06	1053.24
455.43	1063.77
455.79	1067.52
456.15	1070.80
456.52	1075.24
456.88	1067.52
457.24	1071.97
457.61	1075.01
457.97	1071.97
458.33	1068.22
458.70	1067.52
459.06	1063.31
459.42	1073.14
459.79	1078.99
460.15	1079.22
460.51	1088.35
460.88	1083.20
461.24	1074.31
461.60	1053.94
461.96	1054.88
462.33	1049.03
462.69	1048.09
463.05	1050.90
463.42	1073.37
463.78	1063.54
464.14	1059.09
464.50	1070.09
464.87	1070.56
465.23	1053.01
465.59	1065.88
465.95	1068.69
466.32	1064.71
466.68	1065.41
467.04	1075.94
467.40	1070.09
467.77	1069.86
468.13	1066.35
468.49	1058.16
468.85	1061.67
469.22	1060.50
469.58	1064.48
469.94	1067.52
470.30	1082.50
470.66	1077.11
471.03	1084.37
471.39	1078.75
471.75	1077.35
472.11	1068.22
472.47	1068.22
472.84	1071.50
473.20	1080.86
473.56	1092.80
473.92	1106.37
474.28	1109.41
474.65	1110.82
475.01	1108.48
475.37	1093.03
475.73	1079.46
476.09	1075.24
476.45	1075.01
476.81	1065.88
477.18	1073.60
477.54	1072.43
477.90	1077.11
478.26	1069.86
478.62	1067.99
478.98	1058.86
479.34	1060.96
479.71	1060.26
480.07	1061.43
480.43	1078.52
480.79	1084.84
481.15	1090.22
481.51	1087.88
481.87	1080.16
482.23	1072.67
482.59	1067.75
482.96	1062.37
483.32	1067.75
483.68	1074.07
484.04	1081.09
484.40	1094.20
484.76	1089.75
485.12	1082.50
485.48	1081.33
485.84	1075.24
486.20	1065.18
486.56	1065.65
486.92	1071.73
487.28	1074.54
487.64	1069.16
488.00	1086.01
488.37	1094.67
488.73	1097.71
489.09	1093.73
489.45	1099.12
489.81	1084.14
490.17	1082.50
490.53	1078.28
490.89	1086.48
491.25	1092.09
491.61	1097.24
491.97	1095.37
492.33	1096.07
492.69	1086.24
493.05	1075.71
493.41	1076.18
493.77	1076.41
494.13	1074.31
494.49	1081.56
494.85	1094.67
495.21	1084.84
495.57	1088.12
495.93	1080.86
496.29	1070.56
496.64	1057.69
497.00	1058.62
497.36	1052.07
497.72	1066.58
498.08	1067.75
498.44	1065.65
498.80	1070.80
499.16	1083.20
499.52	1073.84
499.88	1080.16
500.24	1089.05
500.60	1094.20
500.96	1083.90
501.32	1083.20
501.68	1083.20
502.03	1085.07
502.39	1081.33
502.75	1083.20
503.11	1089.75
503.47	1093.97
503.83	1082.97
504.19	1075.48
504.55	1066.82
504.91	1061.43
505.26	1058.16
505.62	1060.50
505.98	1060.03
506.34	1071.03
506.70	1072.43
507.06	1078.52
507.42	1077.35
507.78	1079.22
508.13	1078.05
508.49	1085.07
508.85	1078.75
509.21	1078.05
509.57	1088.82
509.93	1092.09
510.28	1079.22
510.64	1077.11
511.00	1084.37
511.36	1070.33
511.72	1064.94
512.07	1074.31
512.43	1072.20
512.79	1069.39
513.15	1085.54
513.51	1086.71
513.86	1089.05
514.22	1096.78
514.58	1104.73
514.94	1100.52
515.30	1103.33
515.65	1100.29
516.01	1095.14
516.37	1099.82
516.73	1102.86
517.08	1098.88
517.44	1102.63
517.80	1103.09
518.16	1093.73
518.51	1088.58
518.87	1089.52
519.23	1084.14
519.59	1089.75
519.94	1095.14
520.30	1097.24
520.66	1094.90
521.01	1093.50
521.37	1097.48
521.73	1091.86
522.09	1080.86
522.44	1086.94
522.80	1095.84
523.16	1091.16
523.51	1088.82
523.87	1098.65
524.23	1093.50
524.58	1082.50
524.94	1080.86
525.30	1079.92
525.65	1073.37
526.01	1077.35
526.37	1087.88
526.72	1086.01
527.08	1085.54
527.44	1087.41
527.79	1087.18
528.15	1083.90
528.51	1084.60
528.86	1097.24
529.22	1093.50
529.58	1087.18
529.93	1080.39
530.29	1081.33
530.65	1066.11
531.00	1071.03
531.36	1069.86
531.71	1072.90
532.07	1070.80
532.43	1078.28
532.78	1081.09
533.14	1084.37
533.49	1089.75
533.85	1097.01
534.21	1099.58
534.56	1097.48
534.92	1102.39
535.27	1091.63
535.63	1087.88
535.98	1088.35
536.34	1098.41
536.69	1100.99
537.05	1104.26
537.41	1104.97
537.76	1101.22
538.12	1099.82
538.47	1096.07
538.83	1103.09
539.18	1104.97
539.54	1108.95
539.89	1095.14
540.25	1090.46
540.60	1086.48
540.96	1090.46
541.31	1091.16
541.67	1100.52
542.02	1125.33
542.38	1131.18
542.73	1120.41
543.09	1111.99
543.44	1101.69
543.80	1081.56
544.15	1083.43
544.51	1093.03
544.86	1100.75
545.22	1107.78
545.57	1101.46
545.93	1093.26
546.28	1080.86
546.64	1070.80
546.99	1065.41
547.35	1083.43
547.70	1092.80
548.05	1099.82
548.41	1103.56
548.76	1106.84
549.12	1091.63
549.47	1085.54
549.83	1081.56
550.18	1077.11
550.53	1080.86
550.89	1086.71
551.24	1091.63
551.60	1100.52
551.95	1102.39
552.30	1105.44
552.66	1093.50
553.01	1079.46
553.37	1068.69
553.72	1073.84
554.07	1072.90
554.43	1087.88
554.78	1096.54
555.13	1098.65
555.49	1099.58
555.84	1087.88
556.19	1079.22
556.55	1079.46
556.90	1084.84
557.26	1083.20
557.61	1092.33
557.96	1098.88
558.32	1096.54
558.67	1080.16
559.02	1075.94
559.37	1074.77
559.73	1073.14
560.08	1067.05
560.43	1077.35
560.79	1078.75
561.14	1072.67
561.49	1075.01
561.85	1074.07
562.20	1080.39
562.55	1077.35
562.90	1076.18
563.26	1077.58
563.61	1085.31
563.96	1087.88
564.32	1095.14
564.67	1107.07
565.02	1092.56
565.37	1087.65
565.73	1090.22
566.08	1087.65
566.43	1078.52
566.78	1089.29
567.14	1097.24
567.49	1089.52
567.84	1085.54
568.19	1092.09
568.54	1092.09
568.90	1090.69
569.25	1092.33
569.60	1104.26
569.95	1093.26
570.31	1099.82
570.66	1098.18
571.01	1094.20
571.36	1088.12
571.71	1100.75
572.06	1089.29
572.42	1089.99
572.77	1087.18
573.12	1084.14
573.47	1084.14
573.82	1095.60
574.18	1086.01
574.53	1086.71
574.88	1082.50
575.23	1072.67
575.58	1054.41
575.93	1063.77
576.28	1068.92
576.64	1079.69
576.99	1080.86
577.34	1081.33
577.69	1084.60
578.04	1093.03
578.39	1089.29
578.74	1091.39
579.09	1104.97
579.44	1098.41
579.80	1082.73
580.15	1077.35
580.50	1078.75
580.85	1071.26
581.20	1076.41
581.55	1078.52
581.90	1073.14
582.25	1063.54
582.60	1061.90
582.95	1055.35
583.30	1060.73
583.65	1076.41
584.00	1076.18
584.35	1080.39
584.71	1082.97
585.06	1085.77
585.41	1080.39
585.76	1092.56
586.11	1091.86
586.46	1103.56
586.81	1093.03
587.16	1091.39
587.51	1089.52
587.86	1091.86
588.21	1084.37
588.56	1089.52
588.91	1079.69
589.26	1076.18
589.61	1077.82
589.96	1071.03
590.31	1073.60
590.66	1090.92
591.01	1093.50
591.36	1082.26
591.71	1078.99
592.06	1070.56
592.41	1053.01
592.76	1045.99
593.10	1062.84
593.45	1072.90
593.80	1085.77
594.15	1100.99
594.50	1103.56
594.85	1098.65
595.20	1090.69
595.55	1084.37
595.90	1078.99
596.25	1079.46
596.60	1072.90
596.95	1070.09
597.30	1074.54
597.64	1129.54
597.99	1131.41
598.34	1128.61
598.69	1127.90
599.04	1126.73
599.39	1066.82
599.74	1067.99
600.09	1070.09
600.44	1070.33
600.78	1060.50
601.13	1071.03
601.48	1065.41
601.83	1075.01
602.18	1085.31
602.53	1094.90
602.88	1086.71
603.22	1086.48
603.57	1080.86
603.92	1078.28
604.27	1071.03
604.62	1073.60
604.97	1075.24
605.31	1075.48
605.66	1073.84
606.01	1070.33
606.36	1071.73
606.71	1085.77
607.05	1083.20
607.40	1085.77
607.75	1093.26
608.10	1095.60
608.44	1088.35
608.79	1094.20
609.14	1092.80
609.49	1091.39
609.84	1090.69
610.18	1090.69
610.53	1093.26
610.88	1093.97
611.23	1096.78
611.57	1092.09
611.92	1091.16
612.27	1080.63
612.62	1079.46
612.96	1082.26
613.31	1090.22
613.66	1088.12
614.00	1094.20
614.35	1088.82
614.70	1070.33
615.05	1061.20
615.39	1063.77
615.74	1063.77
616.09	1077.58
616.43	1082.03
616.78	1086.71
617.13	1090.46
617.47	1088.12
617.82	1072.43
618.17	1081.56
618.51	1082.73
618.86	1071.73
619.21	1070.56
619.55	1077.58
619.90	1078.75
620.25	1086.01
620.59	1098.41
620.94	1098.41
621.29	1098.88
621.63	1104.26
621.98	1103.80
622.32	1094.20
622.67	1088.82
623.02	1084.37
623.36	1075.94
623.71	1069.62
624.05	1074.07
624.40	1083.43
624.75	1089.05
625.09	1088.58
625.44	1084.60
625.78	1083.43
626.13	1075.24
626.48	1075.24
626.82	1073.60
627.17	1073.60
627.51	1077.82
627.86	1081.80
628.20	1082.73
628.55	1085.31
628.89	1078.75
629.24	1077.11
629.58	1082.26
629.93	1080.39
630.28	1076.18
630.62	1085.07
630.97	1093.73
631.31	1086.01
631.66	1081.56
632.00	1082.03
632.35	1080.16
632.69	1068.45
633.04	1069.39
633.38	1075.24
633.73	1080.39
634.07	1078.28
634.42	1075.94
634.76	1070.33
635.11	1074.07
635.45	1077.35
635.79	1084.84
636.14	1093.50
636.48	1097.24
636.83	1088.58
637.17	1084.84
637.52	1082.03
637.86	1071.97
638.21	1069.16
638.55	1068.22
638.89	1065.88
639.24	1056.99
639.58	1057.92
639.93	1063.54
640.27	1069.16
640.61	1070.09
640.96	1077.35
641.30	1070.80
641.65	1067.05
641.99	1056.05
642.33	1065.65
642.68	1058.39
643.02	1069.16
643.37	1077.82
643.71	1093.50
644.05	1078.52
644.40	1084.84
644.74	1083.43
645.08	1082.97
645.43	1079.22
645.77	1092.09
646.11	1097.01
646.46	1090.92
646.80	1086.24
647.14	1083.67
647.49	1073.84
647.83	1065.41
648.17	1075.01
648.52	1072.67
648.86	1066.82
649.20	1072.43
649.55	1086.94
649.89	1077.82
650.23	1083.20
650.57	1093.26
650.92	1084.14
651.26	1079.69
651.60	1085.07
651.95	1089.05
652.29	1082.97
652.63	1096.07
652.97	1087.41
653.32	1078.05
653.66	1067.05
654.00	1067.99
654.34	1051.84
654.69	1060.26
655.03	1067.75
655.37	1067.75
655.71	1066.11
656.05	1076.41
656.40	1085.07
656.74	1087.41
657.08	1086.48
657.42	1098.18
657.76	1094.67
658.11	1085.07
658.45	1081.56
658.79	1084.14
659.13	1074.54
659.47	1081.80
659.82	1076.18
660.16	1082.26
660.50	1095.14
660.84	1091.86
661.18	1091.39
661.52	1100.05
661.87	1096.07
662.21	1093.97
662.55	1093.97
662.89	1095.37
663.23	1089.29
663.57	1086.01
663.91	1076.65
664.25	1079.46
664.60	1075.94
664.94	1069.39
665.28	1083.67
665.62	1090.22
665.96	1089.29
666.30	1085.77
666.64	1096.78
666.98	1076.41
667.32	1064.01
667.66	1060.50
668.01	1062.84
668.35	1062.60
668.69	1071.73
669.03	1075.94
669.37	1087.18
669.71	1082.73
670.05	1076.88
670.39	1078.99
670.73	1086.94
671.07	1088.35
671.41	1091.63
671.75	1086.48
672.09	1090.46
672.43	1085.31
672.77	1080.16
673.11	1082.50
673.45	1097.01
673.79	1096.31
674.13	1099.82
674.47	1095.14
674.81	1095.84
675.15	1089.29
675.49	1081.56
675.83	1079.22
676.17	1075.71
676.51	1076.41
676.85	1084.60
677.19	1082.73
677.53	1086.01
677.87	1089.05
678.21	1091.63
678.55	1077.35
678.89	1090.69
679.23	1084.60
679.57	1081.56
679.90	1078.75
680.24	1076.65
680.58	1066.35
680.92	1075.24
681.26	1086.71
681.60	1087.18
681.94	1094.20
682.28	1092.56
682.62	1083.43
682.96	1072.20
683.29	1076.41
683.63	1079.69
683.97	1090.46
684.31	1102.63
684.65	1106.61
684.99	1095.37
685.33	1093.73
685.67	1093.26
686.00	1087.18
686.34	1090.92
686.68	1094.67
687.02	1089.05
687.36	1085.54
687.70	1083.90
688.03	1084.37
688.37	1086.24
688.71	1091.39
689.05	1089.99
689.39	1088.12
689.72	1078.75
690.06	1084.60
690.40	1079.46
690.74	1078.75
691.08	1081.56
691.41	1085.31
691.75	1077.58
692.09	1076.88
692.43	1070.33
692.76	1067.52
693.10	1064.94
693.44	1067.05
693.78	1076.18
694.11	1084.37
694.45	1087.88
694.79	1088.35
695.13	1078.52
695.46	1071.26
695.80	1071.73
696.14	1064.01
696.48	1059.33
696.81	1070.09
697.15	1062.60
697.49	1054.88
697.82	1063.31
698.16	1079.46
698.50	1080.86
698.83	1096.54
699.17	1098.41
699.51	1100.05
699.84	1084.14
700.18	1077.58
700.52	1080.16
700.85	1082.26
701.19	1068.45
701.53	1073.60
701.86	1071.26
702.20	1069.86
702.54	1067.99
702.87	1068.45
703.21	1072.20
703.55	1082.97
703.88	1078.28
704.22	1079.92
704.55	1083.20
704.89	1078.52
705.23	1071.03
705.56	1069.62
705.90	1074.07
706.23	1080.39
706.57	1075.24
706.91	1079.46
707.24	1082.50
707.58	1084.60
707.91	1078.75
708.25	1080.16
708.58	1075.71
708.92	1069.62
709.26	1059.33
709.59	1053.24
709.93	1059.33
710.26	1061.43
710.60	1063.31
710.93	1064.48
711.27	1075.01
711.60	1075.71
711.94	1079.46
712.27	1079.22
712.61	1079.22
712.94	1081.80
713.28	1089.75
713.61	1087.88
713.95	1085.54
714.28	1089.52
714.62	1093.50
714.95	1089.99
715.29	1088.58
715.62	1083.20
715.96	1088.82
716.29	1074.07
716.63	1072.67
716.96	1068.22
717.29	1085.07
717.63	1079.22
717.96	1084.14
718.30	1079.46
718.63	1089.05
718.97	1082.50
719.30	1079.92
719.63	1082.97
719.97	1082.50
720.30	1071.73
720.64	1065.18
720.97	1070.56
721.30	1065.88
721.64	1069.86
721.97	1073.37
722.31	1070.09
722.64	1057.92
722.97	1060.50
723.31	1057.22
723.64	1051.84
723.97	1063.31
724.31	1066.58
724.64	1059.33
724.98	1060.26
725.31	1060.73
725.64	1051.37
725.98	1058.86
726.31	1068.92
726.64	1071.50
726.97	1078.52
727.31	1083.20
727.64	1081.09
727.97	1083.90
728.31	1083.43
728.64	1092.56
728.97	1086.94
729.31	1083.20
729.64	1075.01
729.97	1068.92
730.30	1053.48
730.64	1058.86
730.97	1058.86
731.30	1069.62
731.63	1079.92
731.97	1082.50
732.30	1082.73
732.63	1085.77
732.96	1081.33
733.30	1080.39
733.63	1085.07
733.96	1082.26
734.29	1084.60
734.63	1078.52
734.96	1072.67
735.29	1070.33
735.62	1069.16
735.95	1062.60
736.29	1069.16
736.62	1064.48
736.95	1073.14
737.28	1078.28
737.61	1081.33
737.94	1083.43
738.28	1099.58
738.61	1089.75
738.94	1090.46
739.27	1095.84
739.60	1083.67
739.93	1062.37
740.27	1060.03
740.60	1058.62
740.93	1051.13
741.26	1057.92
741.59	1061.43
741.92	1067.75
742.25	1065.88
742.58	1081.80
742.91	1083.90
743.25	1095.84
743.58	1095.37
743.91	1094.90
744.24	1079.92
744.57	1081.09
744.90	1081.80
745.23	1086.24
745.56	1090.46
745.89	1090.92
746.22	1097.71
746.55	1094.90
746.88	1090.46
747.21	1080.39
747.54	1087.18
747.87	1083.20
748.20	1081.80
748.53	1087.18
748.87	1095.60
749.20	1091.86
749.53	1092.80
749.86	1099.82
750.19	1089.75
750.52	1094.90
750.85	1107.54
751.18	1104.26
751.51	1095.84
751.84	1099.58
752.16	1097.24
752.49	1092.33
752.82	1090.92
753.15	1095.14
753.48	1089.05
753.81	1084.84
754.14	1074.54
754.47	1071.50
754.80	1067.05
755.13	1076.18
755.46	1074.07
755.79	1082.26
756.12	1082.73
756.45	1084.37
756.78	1080.63
757.11	1078.05
757.43	1080.39
757.76	1092.56
758.09	1098.18
758.42	1100.99
758.75	1118.31
759.08	1105.90
759.41	1098.88
759.74	1095.84
760.07	1093.26
760.39	1091.16
760.72	1101.69
761.05	1094.43
761.38	1091.39
761.71	1085.77
762.04	1080.63
762.36	1070.56
762.69	1078.28
763.02	1082.03
763.35	1082.03
763.68	1076.41
764.01	1084.14
764.33	1082.73
764.66	1084.37
764.99	1088.82
765.32	1086.71
765.65	1094.43
765.97	1094.90
766.30	1092.56
