SpectraSuite Data File
++++++++++++++++++++++++++++++++++++
Date: Mon Aug 26 10:26:13 PDT 2019
User: corrico
Dark Spectrum Present: No
Reference Spectrum Present: No
Number of Sampled Component Spectra: 1
Spectrometers: USB2+H06089
Integration Time (usec): 10000 (USB2+H06089)
Spectra Averaged: 20 (USB2+H06089)
Boxcar Smoothing: 2 (USB2+H06089)
Correct for Electrical Dark: No (USB2+H06089)
Strobe/Lamp Enabled: No (USB2+H06089)
Correct for Detector Non-linearity: No (USB2+H06089)
Correct for Stray Light: No (USB2+H06089)
Number of Pixels in Processed Spectrum: 2048
>>>>>Begin Processed Spectral Data<<<<<
339.70	1029.48
340.07	1029.48
340.45	995.71
340.82	975.49
341.19	952.41
341.57	928.09
341.94	918.75
342.31	909.51
342.69	904.69
343.06	902.72
343.43	901.36
343.81	905.16
344.18	907.64
344.55	911.17
344.93	916.30
345.30	923.34
345.67	930.85
346.04	938.74
346.42	947.80
346.79	955.31
347.16	962.59
347.54	970.69
347.91	977.92
348.28	986.96
348.65	998.19
349.03	1009.08
349.40	1018.81
349.77	1031.80
350.14	1040.25
350.52	1047.04
350.89	1055.46
351.26	1060.66
351.63	1064.52
352.01	1067.96
352.38	1074.12
352.75	1076.76
353.12	1081.19
353.50	1083.86
353.87	1088.63
354.24	1087.48
354.61	1089.85
354.98	1087.72
355.36	1089.31
355.73	1090.36
356.10	1093.97
356.47	1093.31
356.84	1094.20
357.22	1092.91
357.59	1091.04
357.96	1087.32
358.33	1086.87
358.70	1086.59
359.08	1085.99
359.45	1086.43
359.82	1088.00
360.19	1086.27
360.56	1085.33
360.94	1084.84
361.31	1083.86
361.68	1085.52
362.05	1086.92
362.42	1085.91
362.79	1087.58
363.16	1087.79
363.54	1086.24
363.91	1085.91
364.28	1089.36
364.65	1087.65
365.02	1086.03
365.39	1085.21
365.76	1083.50
366.14	1085.10
366.51	1084.93
366.88	1085.70
367.25	1081.89
367.62	1084.67
367.99	1081.42
368.36	1080.56
368.73	1078.54
369.10	1082.33
369.48	1081.49
369.85	1080.81
370.22	1081.56
370.59	1081.33
370.96	1081.42
371.33	1081.33
371.70	1084.49
372.07	1084.16
372.44	1086.80
372.81	1087.83
373.18	1090.50
373.55	1087.69
373.93	1086.69
374.30	1085.05
374.67	1086.10
375.04	1083.46
375.41	1083.76
375.78	1083.69
376.15	1081.42
376.52	1080.65
376.89	1080.70
377.26	1081.44
377.63	1082.40
378.00	1085.21
378.37	1083.29
378.74	1083.83
379.11	1082.29
379.48	1084.72
379.85	1083.81
380.22	1086.29
380.59	1082.78
380.96	1082.85
381.33	1080.48
381.70	1082.85
382.07	1076.74
382.44	1078.47
382.81	1081.91
383.18	1081.84
383.55	1079.92
383.92	1083.81
384.29	1084.30
384.66	1083.74
385.03	1086.57
385.40	1087.97
385.77	1089.89
386.14	1093.40
386.51	1091.70
386.88	1090.60
387.25	1090.34
387.62	1087.13
387.99	1082.08
388.36	1082.10
388.73	1082.26
389.10	1083.95
389.46	1085.73
389.83	1089.52
390.20	1089.36
390.57	1089.40
390.94	1088.70
391.31	1088.79
391.68	1086.66
392.05	1088.51
392.42	1087.95
392.79	1088.09
393.16	1088.21
393.53	1088.12
393.89	1085.59
394.26	1084.44
394.63	1085.77
395.00	1087.32
395.37	1087.20
395.74	1091.34
396.11	1091.79
396.48	1091.13
396.84	1088.12
397.21	1091.25
397.58	1093.10
397.95	1095.16
398.32	1094.88
398.69	1099.21
399.06	1097.80
399.42	1097.22
399.79	1100.61
400.16	1101.01
400.53	1099.12
400.90	1103.28
401.27	1099.37
401.64	1097.24
402.00	1096.26
402.37	1097.43
402.74	1091.86
403.11	1092.73
403.48	1092.30
403.84	1092.26
404.21	1089.45
404.58	1090.64
404.95	1092.12
405.32	1088.72
405.68	1088.96
406.05	1089.68
406.42	1091.04
406.79	1092.05
407.16	1098.20
407.52	1097.41
407.89	1096.28
408.26	1096.47
408.63	1096.21
408.99	1094.27
409.36	1098.32
409.73	1102.86
410.10	1105.86
410.47	1107.21
410.83	1106.18
411.20	1107.12
411.57	1105.44
411.94	1105.95
412.30	1104.33
412.67	1106.96
413.04	1105.39
413.40	1107.28
413.77	1108.71
414.14	1112.71
414.51	1112.81
414.87	1114.38
415.24	1116.06
415.61	1114.31
415.97	1108.31
416.34	1106.72
416.71	1105.69
417.08	1104.43
417.44	1102.72
417.81	1103.54
418.18	1103.68
418.54	1104.12
418.91	1106.28
419.28	1110.63
419.64	1115.29
420.01	1118.21
420.38	1115.66
420.74	1114.14
421.11	1111.47
421.48	1109.30
421.84	1107.21
422.21	1111.57
422.58	1114.19
422.94	1115.55
423.31	1122.22
423.68	1126.01
424.04	1125.28
424.41	1124.70
424.77	1124.93
425.14	1120.79
425.51	1116.93
425.87	1118.57
426.24	1120.41
426.61	1120.88
426.97	1123.67
427.34	1126.85
427.70	1127.62
428.07	1123.93
428.44	1123.86
428.80	1123.39
429.17	1125.26
429.53	1125.75
429.90	1126.57
430.27	1126.50
430.63	1124.77
431.00	1122.12
431.36	1121.02
431.73	1121.05
432.09	1123.48
432.46	1125.49
432.83	1127.48
433.19	1127.39
433.56	1126.83
433.92	1121.40
434.29	1118.54
434.65	1117.14
435.02	1119.31
435.38	1120.70
435.75	1123.29
436.11	1124.63
436.48	1123.55
436.84	1123.27
437.21	1124.93
437.57	1123.43
437.94	1122.40
438.30	1122.12
438.67	1122.75
439.03	1122.12
439.40	1125.00
439.76	1124.28
440.13	1125.28
440.49	1123.95
440.86	1119.74
441.22	1119.69
441.59	1121.91
441.95	1122.12
442.32	1121.16
442.68	1123.55
443.05	1122.75
443.41	1119.62
443.78	1118.64
444.14	1116.11
444.51	1115.12
444.87	1115.20
445.24	1118.59
445.60	1119.78
445.96	1121.98
446.33	1127.48
446.69	1126.38
447.06	1125.63
447.42	1123.95
447.79	1122.85
448.15	1119.22
448.51	1120.70
448.88	1119.62
449.24	1121.82
449.61	1122.92
449.97	1121.98
450.33	1118.38
450.70	1117.79
451.06	1115.59
451.43	1114.63
451.79	1115.59
452.15	1117.49
452.52	1117.63
452.88	1120.58
453.24	1122.19
453.61	1122.45
453.97	1123.95
454.34	1125.66
454.70	1123.36
455.06	1124.42
455.43	1123.32
455.79	1123.97
456.15	1121.30
456.52	1123.41
456.88	1120.13
457.24	1121.63
457.61	1120.58
457.97	1123.62
458.33	1122.92
458.70	1125.56
459.06	1126.83
459.42	1128.35
459.79	1125.54
460.15	1127.23
460.51	1126.24
460.88	1126.57
461.24	1125.45
461.60	1128.96
461.96	1127.72
462.33	1132.44
462.69	1132.00
463.05	1132.49
463.42	1133.15
463.78	1135.23
464.14	1135.02
464.50	1135.93
464.87	1141.06
465.23	1143.91
465.59	1144.26
465.95	1142.58
466.32	1142.49
466.68	1141.88
467.04	1141.20
467.40	1144.64
467.77	1148.22
468.13	1147.49
468.49	1147.59
468.85	1148.76
469.22	1148.64
469.58	1149.74
469.94	1157.21
470.30	1159.97
470.66	1163.74
471.03	1166.97
471.39	1170.24
471.75	1171.65
472.11	1172.66
472.47	1172.89
472.84	1176.42
473.20	1178.60
473.56	1184.05
473.92	1192.83
474.28	1200.69
474.65	1206.50
475.01	1215.91
475.37	1219.09
475.73	1220.59
476.09	1226.86
476.45	1230.19
476.81	1234.45
477.18	1244.18
477.54	1252.72
477.90	1259.07
478.26	1269.09
478.62	1279.43
478.98	1291.46
479.34	1301.88
479.71	1317.16
480.07	1332.35
480.43	1346.02
480.79	1361.12
481.15	1379.37
481.51	1393.39
481.87	1410.87
482.23	1428.78
482.59	1446.69
482.96	1466.63
483.32	1489.00
483.68	1510.14
484.04	1531.46
484.40	1553.09
484.76	1579.53
485.12	1608.44
485.48	1641.18
485.84	1671.87
486.20	1707.26
486.56	1743.65
486.92	1782.39
487.28	1822.50
487.64	1864.96
488.00	1908.15
488.37	1949.20
488.73	1993.90
489.09	2038.49
489.45	2095.04
489.81	2151.44
490.17	2215.13
490.53	2277.32
490.89	2343.74
491.25	2402.65
491.61	2473.57
491.97	2545.00
492.33	2620.70
492.69	2702.36
493.05	2790.69
493.41	2884.38
493.77	2980.91
494.13	3083.30
494.49	3182.15
494.85	3295.43
495.21	3411.10
495.57	3532.78
495.93	3660.88
496.29	3800.37
496.64	3947.10
497.00	4091.19
497.36	4248.91
497.72	4415.02
498.08	4598.01
498.44	4792.55
498.80	5000.32
499.16	5199.36
499.52	5410.24
499.88	5635.24
500.24	5865.57
500.60	6088.46
500.96	6339.25
501.32	6590.18
501.68	6845.04
502.03	7122.44
502.39	7429.66
502.75	7781.79
503.11	8159.86
503.47	8539.49
503.83	8932.70
504.19	9330.22
504.55	9729.12
504.91	10119.07
505.26	10529.79
505.62	10993.61
505.98	11505.30
506.34	12000.84
506.70	12554.10
507.06	13190.58
507.42	13828.40
507.78	14484.12
508.13	15246.62
508.49	16048.16
508.85	16800.46
509.21	17565.32
509.57	18386.83
509.93	19154.31
510.28	19915.69
510.64	20764.11
511.00	21599.05
511.36	22478.11
511.72	23416.57
512.07	24471.96
512.43	25509.38
512.79	26642.25
513.15	27773.92
513.51	28918.00
513.86	29998.69
514.22	31234.47
514.58	32482.56
514.94	33704.09
515.30	34995.99
515.65	36383.91
516.01	37690.40
516.37	38936.94
516.73	40252.65
517.08	41434.57
517.44	42571.65
517.80	43712.43
518.16	44867.55
518.51	46017.32
518.87	47274.84
519.23	48482.56
519.59	49637.17
519.94	50812.07
520.30	51859.41
520.66	52623.01
521.01	53335.68
521.37	54066.28
521.73	54613.92
522.09	55101.48
522.44	55756.27
522.80	56280.38
523.16	56606.79
523.51	56834.34
523.87	57090.46
524.23	57319.23
524.58	57473.61
524.94	57645.10
525.30	57877.00
525.65	57996.32
526.01	58041.38
526.37	58202.97
526.72	58355.62
527.08	58478.21
527.44	58497.22
527.79	58466.16
528.15	58326.38
528.51	58184.71
528.86	58056.24
529.22	57816.26
529.58	57502.21
529.93	57192.61
530.29	56694.73
530.65	56102.34
531.00	55658.06
531.36	55083.97
531.71	54479.50
532.07	53886.79
532.43	53106.05
532.78	52195.07
533.14	51476.20
533.49	50731.70
533.85	50160.93
534.21	49759.65
534.56	49346.73
534.92	48682.74
535.27	47914.16
535.63	46905.83
535.98	45821.81
536.34	44733.35
536.69	43765.91
537.05	42862.28
537.41	42074.69
537.76	41412.32
538.12	40606.94
538.47	39774.06
538.83	39067.22
539.18	38344.41
539.54	37466.78
539.89	36912.71
540.25	36462.50
540.60	35881.11
540.96	35149.04
541.31	34536.13
541.67	33944.13
542.02	33249.30
542.38	32612.28
542.73	31976.59
543.09	31291.84
543.44	30514.24
543.80	29854.59
544.15	29192.12
544.51	28718.93
544.86	28261.69
545.22	27865.95
545.57	27366.06
545.93	26799.88
546.28	26208.31
546.64	25736.79
546.99	25214.19
547.35	24716.57
547.70	24243.81
548.05	23760.49
548.41	23227.94
548.76	22631.32
549.12	22099.17
549.47	21606.21
549.83	21211.34
550.18	20772.39
550.53	20387.59
550.89	19976.64
551.24	19540.27
551.60	19073.66
551.95	18654.56
552.30	18300.48
552.66	17939.83
553.01	17601.32
553.37	17233.01
553.72	16845.47
554.07	16423.84
554.43	16031.66
554.78	15663.87
555.13	15303.90
555.49	14900.65
555.84	14517.31
556.19	14138.31
556.55	13723.43
556.90	13341.64
557.26	13085.23
557.61	12819.98
557.96	12542.32
558.32	12293.94
558.67	12014.58
559.02	11679.88
559.37	11369.69
559.73	11109.35
560.08	10854.87
560.43	10607.00
560.79	10373.35
561.14	10136.98
561.49	9902.97
561.85	9666.44
562.20	9462.55
562.55	9289.47
562.90	9100.19
563.26	8909.74
563.61	8735.49
563.96	8519.74
564.32	8263.71
564.67	8041.94
565.02	7844.31
565.37	7689.88
565.73	7525.64
566.08	7374.72
566.43	7209.83
566.78	7027.46
567.14	6840.19
567.49	6698.33
567.84	6557.20
568.19	6419.69
568.54	6297.38
568.90	6162.72
569.25	6038.89
569.60	5924.93
569.95	5832.01
570.31	5723.24
570.66	5617.36
571.01	5506.84
571.36	5399.19
571.71	5288.39
572.06	5182.77
572.42	5083.08
572.77	4977.80
573.12	4880.77
573.47	4779.94
573.82	4704.57
574.18	4634.05
574.53	4557.80
574.88	4480.35
575.23	4405.31
575.58	4313.35
575.93	4219.66
576.28	4123.72
576.64	4035.34
576.99	3943.52
577.34	3854.23
577.69	3766.95
578.04	3690.23
578.39	3618.05
578.74	3553.33
579.09	3496.13
579.44	3425.30
579.80	3364.75
580.15	3302.17
580.50	3245.43
580.85	3184.86
581.20	3141.77
581.55	3090.86
581.90	3044.33
582.25	2993.22
582.60	2938.71
582.95	2888.85
583.30	2848.03
583.65	2802.09
584.00	2748.19
584.35	2701.26
584.71	2653.56
585.06	2602.25
585.41	2563.14
585.76	2529.58
586.11	2500.11
586.46	2459.04
586.81	2422.20
587.16	2387.46
587.51	2363.08
587.86	2335.76
588.21	2314.04
588.56	2285.51
588.91	2257.12
589.26	2225.19
589.61	2191.12
589.96	2163.94
590.31	2138.08
590.66	2102.43
591.01	2075.14
591.36	2052.28
591.71	2020.47
592.06	1996.92
592.41	1975.95
592.76	1956.41
593.10	1932.67
593.45	1916.62
593.80	1892.98
594.15	1875.75
594.50	1853.47
594.85	1839.15
595.20	1822.20
595.55	1803.90
595.90	1785.64
596.25	1766.78
596.60	1745.88
596.95	1727.50
597.30	1717.41
597.64	1756.24
597.99	1746.02
598.34	1737.31
598.69	1721.96
599.04	1706.02
599.39	1640.32
599.74	1620.45
600.09	1604.04
600.44	1591.75
600.78	1581.87
601.13	1568.95
601.48	1563.78
601.83	1552.34
602.18	1542.95
602.53	1531.25
602.88	1522.17
603.22	1508.08
603.57	1501.43
603.92	1488.98
604.27	1477.56
604.62	1467.05
604.97	1459.75
605.31	1450.55
605.66	1443.74
606.01	1438.28
606.36	1430.54
606.71	1426.53
607.05	1414.78
607.40	1408.67
607.75	1399.83
608.10	1392.31
608.44	1381.81
608.79	1375.42
609.14	1366.03
609.49	1356.01
609.84	1347.38
610.18	1339.68
610.53	1334.92
610.88	1332.09
611.23	1329.52
611.57	1327.79
611.92	1323.41
612.27	1316.36
612.62	1309.32
612.96	1304.73
613.31	1296.49
613.66	1290.97
614.00	1289.66
614.35	1287.15
614.70	1280.55
615.05	1280.04
615.39	1273.81
615.74	1265.39
616.09	1258.18
616.43	1257.03
616.78	1251.23
617.13	1248.86
617.47	1245.52
617.82	1241.33
618.17	1233.46
618.51	1230.77
618.86	1227.03
619.21	1225.27
619.55	1222.93
619.90	1221.69
620.25	1216.70
620.59	1216.14
620.94	1214.93
621.29	1213.71
621.63	1212.26
621.98	1212.19
622.32	1209.03
622.67	1205.63
623.02	1201.96
623.36	1198.26
623.71	1194.47
624.05	1194.77
624.40	1192.97
624.75	1190.86
625.09	1189.30
625.44	1187.14
625.78	1180.64
626.13	1179.21
626.48	1178.76
626.82	1176.80
627.17	1174.48
627.51	1172.61
627.86	1169.38
628.20	1165.68
628.55	1164.25
628.89	1160.84
629.24	1159.95
629.58	1158.38
629.93	1155.85
630.28	1157.68
630.62	1159.90
630.97	1156.60
631.31	1155.62
631.66	1154.59
632.00	1148.83
632.35	1146.98
632.69	1147.28
633.04	1147.66
633.38	1148.34
633.73	1146.46
634.07	1143.80
634.42	1144.71
634.76	1142.60
635.11	1141.81
635.45	1140.87
635.79	1139.96
636.14	1136.70
636.48	1130.78
636.83	1129.50
637.17	1127.46
637.52	1126.48
637.86	1124.56
638.21	1126.38
638.55	1122.59
638.89	1126.10
639.24	1125.82
639.58	1127.32
639.93	1126.64
640.27	1124.84
640.61	1118.42
640.96	1117.42
641.30	1114.89
641.65	1113.30
641.99	1114.35
642.33	1117.09
642.68	1119.95
643.02	1120.46
643.37	1120.34
643.71	1121.94
644.05	1119.22
644.40	1113.70
644.74	1113.88
645.08	1116.76
645.43	1115.24
645.77	1113.58
646.11	1115.22
646.46	1115.12
646.80	1110.87
647.14	1110.65
647.49	1113.53
647.83	1112.76
648.17	1113.98
648.52	1114.70
648.86	1115.34
649.20	1116.06
649.55	1116.27
649.89	1111.80
650.23	1112.71
650.57	1114.75
650.92	1114.98
651.26	1114.98
651.60	1118.85
651.95	1119.43
652.29	1115.43
652.63	1112.78
652.97	1111.82
653.32	1108.50
653.66	1109.77
654.00	1110.42
654.34	1108.83
654.69	1107.75
655.03	1108.78
655.37	1104.71
655.71	1104.38
656.05	1106.56
656.40	1106.02
656.74	1104.83
657.08	1104.12
657.42	1102.72
657.76	1103.89
658.11	1105.06
658.45	1105.22
658.79	1104.12
659.13	1105.83
659.47	1104.22
659.82	1104.80
660.16	1105.29
660.50	1105.88
660.84	1104.31
661.18	1101.95
661.52	1099.19
661.87	1097.73
662.21	1096.80
662.55	1096.17
662.89	1096.49
663.23	1099.49
663.57	1097.88
663.91	1098.23
664.25	1096.78
664.60	1096.99
664.94	1097.43
665.28	1099.82
665.62	1099.56
665.96	1099.44
666.30	1102.30
666.64	1098.39
666.98	1097.43
667.32	1099.00
667.66	1100.89
668.01	1098.44
668.35	1098.55
668.69	1101.11
669.03	1099.42
669.37	1099.30
669.71	1101.97
670.05	1101.71
670.39	1100.45
670.73	1101.81
671.07	1097.88
671.41	1093.97
671.75	1091.18
672.09	1085.70
672.43	1085.24
672.77	1088.51
673.11	1088.49
673.45	1091.53
673.79	1093.12
674.13	1092.19
674.47	1092.59
674.81	1093.64
675.15	1093.45
675.49	1096.68
675.83	1095.49
676.17	1093.19
676.51	1094.60
676.85	1096.17
677.19	1095.89
677.53	1098.53
677.87	1096.38
678.21	1092.54
678.55	1091.02
678.89	1089.50
679.23	1088.68
679.57	1093.50
679.90	1094.20
680.24	1094.74
680.58	1092.26
680.92	1092.63
681.26	1089.68
681.60	1088.30
681.94	1090.06
682.28	1094.15
682.62	1093.12
682.96	1094.15
683.29	1095.53
683.63	1094.32
683.97	1090.57
684.31	1091.04
684.65	1089.80
684.99	1088.42
685.33	1088.44
685.67	1092.14
686.00	1091.39
686.34	1093.24
686.68	1098.13
687.02	1095.60
687.36	1094.97
687.70	1097.97
688.03	1097.83
688.37	1094.93
688.71	1098.76
689.05	1097.45
689.39	1095.56
689.72	1098.81
690.06	1099.28
690.40	1097.41
690.74	1098.74
691.08	1099.00
691.41	1095.51
691.75	1095.21
692.09	1095.56
692.43	1097.73
692.76	1098.69
693.10	1099.91
693.44	1100.12
693.78	1101.11
694.11	1099.47
694.45	1094.25
694.79	1092.12
695.13	1090.83
695.46	1085.52
695.80	1082.38
696.14	1085.52
696.48	1085.14
696.81	1083.90
697.15	1084.74
697.49	1085.56
697.82	1082.40
698.16	1084.18
698.50	1087.41
698.83	1086.87
699.17	1086.17
699.51	1087.41
699.84	1086.27
700.18	1087.53
700.52	1091.27
700.85	1093.47
701.19	1096.35
701.53	1095.44
701.86	1091.39
702.20	1091.49
702.54	1089.64
702.87	1087.79
703.21	1088.58
703.55	1090.01
703.88	1089.80
704.22	1091.79
704.55	1092.09
704.89	1090.15
705.23	1090.78
705.56	1091.39
705.90	1090.85
706.23	1092.96
706.57	1094.57
706.91	1095.89
707.24	1098.02
707.58	1095.65
707.91	1095.18
708.25	1095.91
708.58	1097.06
708.92	1090.36
709.26	1091.04
709.59	1088.96
709.93	1087.93
710.26	1084.23
710.60	1087.93
710.93	1087.02
711.27	1086.64
711.60	1088.65
711.94	1088.82
712.27	1087.53
712.61	1092.68
712.94	1094.22
713.28	1092.77
713.61	1092.56
713.95	1091.39
714.28	1085.40
714.62	1084.18
714.95	1085.42
715.29	1084.44
715.62	1085.56
715.96	1089.19
716.29	1089.43
716.63	1088.47
716.96	1088.96
717.29	1089.57
717.63	1085.59
717.96	1085.96
718.30	1085.87
718.63	1089.24
718.97	1088.40
719.30	1091.53
719.63	1093.36
719.97	1094.90
720.30	1092.28
720.64	1090.01
720.97	1091.51
721.30	1086.83
721.64	1086.90
721.97	1087.97
722.31	1092.35
722.64	1088.72
722.97	1091.34
723.31	1090.01
723.64	1089.68
723.97	1087.02
724.31	1087.93
724.64	1088.16
724.98	1088.12
725.31	1088.63
725.64	1088.84
725.98	1088.56
726.31	1088.93
726.64	1089.03
726.97	1090.03
727.31	1089.73
727.64	1090.20
727.97	1089.57
728.31	1088.16
728.64	1086.08
728.97	1084.46
729.31	1084.02
729.64	1085.40
729.97	1085.91
730.30	1084.51
730.64	1087.09
730.97	1089.29
731.30	1086.90
731.63	1089.87
731.97	1092.96
732.30	1097.03
732.63	1095.67
732.96	1095.46
733.30	1090.08
733.63	1090.03
733.96	1087.11
734.29	1089.66
734.63	1092.84
734.96	1096.94
735.29	1095.79
735.62	1096.24
735.95	1095.56
736.29	1094.29
736.62	1094.01
736.95	1095.84
737.28	1094.67
737.61	1092.87
737.94	1091.95
738.28	1094.79
738.61	1095.14
738.94	1093.52
739.27	1093.92
739.60	1093.19
739.93	1087.04
740.27	1083.22
740.60	1083.39
740.93	1079.67
741.26	1080.20
741.59	1083.76
741.92	1084.89
742.25	1084.67
742.58	1087.39
742.91	1085.19
743.25	1086.94
743.58	1088.30
743.91	1088.75
744.24	1088.91
744.57	1092.61
744.90	1090.71
745.23	1088.91
745.56	1089.89
745.89	1089.10
746.22	1088.37
746.55	1089.54
746.88	1090.64
747.21	1089.61
747.54	1093.36
747.87	1091.25
748.20	1087.53
748.53	1086.80
748.87	1086.13
749.20	1084.39
749.53	1086.69
749.86	1090.69
750.19	1089.03
750.52	1089.89
750.85	1088.84
751.18	1090.67
751.51	1087.23
751.84	1091.63
752.16	1090.78
752.49	1092.54
752.82	1091.44
753.15	1092.68
753.48	1088.84
753.81	1088.77
754.14	1085.52
754.47	1083.46
754.80	1086.13
755.13	1084.70
755.46	1085.61
755.79	1086.99
756.12	1092.19
756.45	1091.53
756.78	1096.19
757.11	1097.88
757.43	1098.53
757.76	1092.94
758.09	1090.01
758.42	1085.24
758.75	1085.77
759.08	1085.03
759.41	1090.20
759.74	1088.28
760.07	1090.46
760.39	1088.77
760.72	1088.65
761.05	1085.19
761.38	1087.74
761.71	1087.95
762.04	1088.37
762.36	1088.65
762.69	1089.33
763.02	1092.28
