SpectraSuite Data File
++++++++++++++++++++++++++++++++++++
Date: Mon Aug 26 10:26:01 PDT 2019
User: corrico
Dark Spectrum Present: No
Reference Spectrum Present: No
Number of Sampled Component Spectra: 1
Spectrometers: USB2+H06089
Integration Time (usec): 10000 (USB2+H06089)
Spectra Averaged: 2 (USB2+H06089)
Boxcar Smoothing: 2 (USB2+H06089)
Correct for Electrical Dark: No (USB2+H06089)
Strobe/Lamp Enabled: No (USB2+H06089)
Correct for Detector Non-linearity: No (USB2+H06089)
Correct for Stray Light: No (USB2+H06089)
Number of Pixels in Processed Spectrum: 2048
>>>>>Begin Processed Spectral Data<<<<<
339.70	1053.24
340.07	1053.24
340.45	1005.26
340.82	974.37
341.19	953.07
341.57	919.83
341.94	915.85
342.31	916.79
342.69	910.70
343.06	897.13
343.43	892.21
343.81	891.74
344.18	892.68
344.55	905.09
344.93	912.11
345.30	926.15
345.67	928.02
346.04	938.55
346.42	937.38
346.79	950.49
347.16	962.19
347.54	968.05
347.91	963.83
348.28	974.37
348.65	982.32
349.03	991.68
349.40	999.17
349.77	1016.26
350.14	1029.13
350.52	1039.20
350.89	1053.48
351.26	1056.99
351.63	1060.96
352.01	1057.22
352.38	1048.33
352.75	1030.77
353.12	1047.62
353.50	1036.62
353.87	1040.84
354.24	1051.60
354.61	1056.75
354.98	1055.35
355.36	1073.84
355.73	1085.31
356.10	1091.63
356.47	1102.16
356.84	1105.20
357.22	1105.20
357.59	1105.67
357.96	1096.78
358.33	1084.60
358.70	1082.26
359.08	1079.69
359.45	1082.73
359.82	1085.07
360.19	1086.01
360.56	1074.54
360.94	1067.99
361.31	1061.90
361.68	1068.69
362.05	1076.18
362.42	1086.71
362.79	1090.92
363.16	1084.37
363.54	1072.20
363.91	1064.71
364.28	1060.50
364.65	1069.16
365.02	1071.97
365.39	1074.31
365.76	1079.69
366.14	1077.35
366.51	1057.92
366.88	1053.71
367.25	1057.69
367.62	1058.39
367.99	1061.90
368.36	1059.56
368.73	1062.60
369.10	1054.65
369.48	1053.24
369.85	1055.82
370.22	1070.80
370.59	1074.31
370.96	1084.60
371.33	1087.88
371.70	1086.24
372.07	1080.86
372.44	1077.35
372.81	1067.99
373.18	1063.54
373.55	1057.69
373.93	1060.26
374.30	1062.14
374.67	1069.16
375.04	1080.86
375.41	1078.52
375.78	1086.24
376.15	1084.60
376.52	1082.73
376.89	1073.84
377.26	1073.14
377.63	1057.45
378.00	1061.43
378.37	1055.82
378.74	1052.30
379.11	1056.99
379.48	1071.03
379.85	1069.39
380.22	1077.35
380.59	1080.63
380.96	1082.50
381.33	1072.43
381.70	1077.58
382.07	1084.84
382.44	1087.41
382.81	1086.01
383.18	1088.35
383.55	1084.60
383.92	1075.01
384.29	1075.71
384.66	1073.60
385.03	1080.39
385.40	1074.54
385.77	1069.86
386.14	1065.65
386.51	1064.24
386.88	1049.96
387.25	1053.24
387.62	1057.69
387.99	1056.05
388.36	1056.52
388.73	1069.86
389.10	1070.80
389.46	1071.73
389.83	1075.24
390.20	1085.31
390.57	1082.50
390.94	1087.88
391.31	1088.58
391.68	1085.07
392.05	1080.86
392.42	1081.33
392.79	1075.94
393.16	1073.84
393.53	1084.60
393.89	1077.11
394.26	1076.41
394.63	1070.56
395.00	1069.86
395.37	1064.24
395.74	1073.14
396.11	1074.31
396.48	1075.24
396.84	1070.09
397.21	1072.90
397.58	1063.77
397.95	1059.79
398.32	1071.73
398.69	1079.92
399.06	1082.73
399.42	1092.56
399.79	1104.50
400.16	1101.46
400.53	1100.99
400.90	1102.16
401.27	1101.22
401.64	1090.46
402.00	1084.14
402.37	1084.37
402.74	1072.43
403.11	1067.75
403.48	1071.26
403.84	1074.77
404.21	1078.05
404.58	1066.35
404.95	1065.88
405.32	1056.75
405.68	1052.30
406.05	1042.94
406.42	1053.48
406.79	1049.03
407.16	1055.82
407.52	1059.33
407.89	1061.90
408.26	1069.39
408.63	1072.20
408.99	1071.50
409.36	1067.75
409.73	1072.20
410.10	1066.82
410.47	1075.48
410.83	1075.71
411.20	1075.48
411.57	1067.75
411.94	1060.03
412.30	1057.92
412.67	1056.99
413.04	1064.71
413.40	1073.84
413.77	1081.33
414.14	1066.11
414.51	1067.75
414.87	1065.88
415.24	1064.24
415.61	1071.97
415.97	1076.41
416.34	1084.14
416.71	1082.97
417.08	1079.46
417.44	1071.73
417.81	1085.54
418.18	1078.28
418.54	1081.33
418.91	1077.35
419.28	1085.07
419.64	1081.33
420.01	1073.84
420.38	1069.86
420.74	1077.82
421.11	1081.80
421.48	1082.97
421.84	1091.16
422.21	1091.16
422.58	1095.60
422.94	1087.88
423.31	1085.31
423.68	1084.60
424.04	1087.65
424.41	1084.60
424.77	1088.35
425.14	1100.05
425.51	1105.44
425.87	1101.92
426.24	1101.46
426.61	1101.69
426.97	1089.29
427.34	1075.24
427.70	1072.90
428.07	1080.63
428.44	1079.22
428.80	1075.01
429.17	1086.01
429.53	1085.77
429.90	1071.97
430.27	1062.84
430.63	1060.50
431.00	1049.73
431.36	1052.30
431.73	1053.24
432.09	1060.50
432.46	1058.16
432.83	1061.90
433.19	1064.24
433.56	1057.45
433.92	1057.45
434.29	1075.94
434.65	1082.26
435.02	1077.82
435.38	1079.92
435.75	1073.84
436.11	1066.58
436.48	1070.09
436.84	1073.84
437.21	1086.24
437.57	1090.46
437.94	1095.84
438.30	1095.14
438.67	1090.69
439.03	1085.07
439.40	1097.24
439.76	1094.67
440.13	1092.56
440.49	1090.69
440.86	1095.37
441.22	1081.80
441.59	1069.62
441.95	1056.52
442.32	1071.26
442.68	1063.54
443.05	1062.14
443.41	1074.77
443.78	1089.75
444.14	1088.12
444.51	1086.71
444.87	1096.07
445.24	1094.20
445.60	1094.20
445.96	1094.43
446.33	1097.24
446.69	1084.60
447.06	1074.07
447.42	1070.80
447.79	1069.62
448.15	1081.09
448.51	1080.63
448.88	1097.01
449.24	1097.24
449.61	1093.97
449.97	1085.31
450.33	1093.50
450.70	1083.43
451.06	1080.86
451.43	1083.20
451.79	1081.56
452.15	1085.07
452.52	1091.16
452.88	1089.05
453.24	1081.56
453.61	1086.24
453.97	1078.99
454.34	1071.73
454.70	1070.09
455.06	1083.20
455.43	1073.37
455.79	1073.14
456.15	1083.43
456.52	1086.48
456.88	1081.56
457.24	1095.14
457.61	1092.33
457.97	1082.97
458.33	1089.05
458.70	1078.28
459.06	1077.82
459.42	1086.71
459.79	1092.56
460.15	1091.86
460.51	1094.67
460.88	1089.99
461.24	1078.05
461.60	1077.35
461.96	1074.31
462.33	1077.82
462.69	1069.62
463.05	1077.11
463.42	1073.37
463.78	1070.80
464.14	1064.94
464.50	1064.71
464.87	1065.18
465.23	1062.37
465.59	1060.50
465.95	1063.77
466.32	1064.24
466.68	1066.11
467.04	1071.50
467.40	1076.65
467.77	1079.69
468.13	1078.75
468.49	1075.48
468.85	1072.90
469.22	1073.84
469.58	1070.09
469.94	1073.84
470.30	1079.22
470.66	1088.35
471.03	1082.97
471.39	1083.90
471.75	1076.41
472.11	1068.22
472.47	1065.88
472.84	1064.24
473.20	1063.31
473.56	1082.03
473.92	1084.14
474.28	1082.73
474.65	1086.71
475.01	1090.22
475.37	1077.58
475.73	1077.82
476.09	1076.65
476.45	1073.14
476.81	1072.67
477.18	1082.50
477.54	1080.16
477.90	1067.75
478.26	1069.39
478.62	1073.60
478.98	1060.26
479.34	1066.35
479.71	1072.20
480.07	1086.48
480.43	1082.03
480.79	1097.48
481.15	1087.65
481.51	1088.58
481.87	1082.73
482.23	1078.52
482.59	1063.31
482.96	1070.33
483.32	1077.82
483.68	1077.82
484.04	1085.31
484.40	1098.18
484.76	1098.18
485.12	1089.05
485.48	1082.97
485.84	1083.43
486.20	1082.97
486.56	1079.92
486.92	1079.69
487.28	1086.71
487.64	1079.22
488.00	1077.58
488.37	1081.09
488.73	1090.46
489.09	1090.22
489.45	1095.60
489.81	1086.01
490.17	1087.41
490.53	1073.37
490.89	1073.37
491.25	1061.43
491.61	1072.20
491.97	1075.24
492.33	1085.31
492.69	1073.60
493.05	1078.52
493.41	1071.03
493.77	1062.84
494.13	1064.94
494.49	1072.20
494.85	1074.31
495.21	1068.69
495.57	1075.48
495.93	1067.05
496.29	1056.05
496.64	1056.75
497.00	1067.05
497.36	1072.20
497.72	1075.01
498.08	1083.43
498.44	1078.75
498.80	1080.16
499.16	1070.80
499.52	1073.60
499.88	1072.20
500.24	1082.97
500.60	1081.56
500.96	1093.73
501.32	1094.90
501.68	1097.71
502.03	1090.92
502.39	1082.26
502.75	1071.73
503.11	1062.60
503.47	1059.79
503.83	1058.86
504.19	1066.35
504.55	1066.35
504.91	1076.65
505.26	1075.94
505.62	1078.52
505.98	1075.71
506.34	1076.88
506.70	1071.26
507.06	1081.80
507.42	1075.94
507.78	1078.05
508.13	1077.35
508.49	1073.37
508.85	1061.20
509.21	1069.62
509.57	1075.71
509.93	1074.77
510.28	1095.60
510.64	1096.31
511.00	1087.41
511.36	1081.56
511.72	1083.43
512.07	1067.05
512.43	1074.77
512.79	1084.14
513.15	1091.63
513.51	1084.37
513.86	1091.39
514.22	1080.63
514.58	1082.26
514.94	1078.75
515.30	1080.86
515.65	1081.09
516.01	1085.54
516.37	1078.75
516.73	1076.88
517.08	1083.20
517.44	1079.46
517.80	1086.71
518.16	1096.78
518.51	1099.35
518.87	1097.71
519.23	1101.92
519.59	1100.99
519.94	1094.43
520.30	1088.12
520.66	1092.33
521.01	1092.56
521.37	1085.31
521.73	1078.99
522.09	1075.48
522.44	1067.99
522.80	1063.31
523.16	1070.80
523.51	1072.20
523.87	1078.99
524.23	1092.80
524.58	1085.77
524.94	1080.39
525.30	1082.50
525.65	1084.37
526.01	1067.05
526.37	1078.52
526.72	1081.56
527.08	1078.05
527.44	1080.63
527.79	1080.86
528.15	1073.84
528.51	1071.26
528.86	1078.28
529.22	1071.03
529.58	1073.37
529.93	1079.22
530.29	1081.33
530.65	1075.01
531.00	1084.84
531.36	1085.31
531.71	1081.80
532.07	1091.16
532.43	1098.41
532.78	1091.63
533.14	1094.67
533.49	1097.48
533.85	1091.16
534.21	1089.05
534.56	1095.37
534.92	1102.39
535.27	1100.99
535.63	1099.58
535.98	1105.90
536.34	1099.35
536.69	1094.43
537.05	1089.52
537.41	1089.99
537.76	1088.58
538.12	1092.33
538.47	1098.88
538.83	1097.71
539.18	1105.20
539.54	1097.24
539.89	1099.35
540.25	1094.90
540.60	1105.44
540.96	1092.80
541.31	1097.01
541.67	1094.67
542.02	1094.20
542.38	1086.94
542.73	1100.05
543.09	1091.39
543.44	1098.18
543.80	1095.37
544.15	1098.88
544.51	1088.58
544.86	1097.24
545.22	1084.14
545.57	1079.69
545.93	1088.35
546.28	1095.14
546.64	1094.67
546.99	1092.09
547.35	1100.29
547.70	1092.09
548.05	1090.69
548.41	1092.80
548.76	1105.20
549.12	1102.16
549.47	1104.73
549.83	1098.88
550.18	1091.63
550.53	1088.35
550.89	1083.90
551.24	1082.73
551.60	1090.92
551.95	1097.95
552.30	1107.07
552.66	1107.78
553.01	1104.26
553.37	1090.69
553.72	1093.73
554.07	1084.14
554.43	1093.73
554.78	1087.41
555.13	1090.22
555.49	1088.12
555.84	1078.75
556.19	1064.48
556.55	1062.14
556.90	1066.58
557.26	1067.99
557.61	1076.65
557.96	1082.03
558.32	1083.20
558.67	1080.16
559.02	1078.99
559.37	1071.97
559.73	1075.94
560.08	1089.99
560.43	1091.86
560.79	1089.99
561.14	1097.95
561.49	1094.90
561.85	1086.01
562.20	1090.92
562.55	1090.22
562.90	1085.77
563.26	1086.71
563.61	1085.54
563.96	1072.43
564.32	1067.99
564.67	1068.22
565.02	1068.92
565.37	1062.14
565.73	1062.60
566.08	1069.62
566.43	1064.48
566.78	1060.50
567.14	1070.33
567.49	1080.39
567.84	1081.80
568.19	1090.69
568.54	1096.07
568.90	1097.95
569.25	1103.56
569.60	1089.75
569.95	1085.31
570.31	1084.84
570.66	1084.37
571.01	1074.31
571.36	1076.41
571.71	1077.58
572.06	1071.50
572.42	1068.92
572.77	1064.01
573.12	1073.60
573.47	1071.73
573.82	1078.99
574.18	1080.63
574.53	1084.14
574.88	1082.26
575.23	1091.86
575.58	1094.20
575.93	1095.60
576.28	1107.31
576.64	1104.50
576.99	1095.37
577.34	1103.33
577.69	1101.69
578.04	1093.03
578.39	1088.12
578.74	1093.50
579.09	1073.84
579.44	1067.75
579.80	1067.75
580.15	1075.01
580.50	1067.05
580.85	1080.86
581.20	1078.28
581.55	1082.97
581.90	1082.03
582.25	1084.14
582.60	1077.82
582.95	1084.37
583.30	1075.48
583.65	1078.75
584.00	1078.28
584.35	1083.20
584.71	1082.73
585.06	1085.54
585.41	1083.67
585.76	1079.46
586.11	1081.09
586.46	1075.94
586.81	1071.50
587.16	1078.05
587.51	1093.97
587.86	1081.09
588.21	1085.31
588.56	1095.60
588.91	1081.56
589.26	1071.97
589.61	1074.31
589.96	1073.37
590.31	1064.94
590.66	1067.75
591.01	1063.07
591.36	1066.58
591.71	1067.99
592.06	1073.84
592.41	1077.58
592.76	1089.29
593.10	1084.60
593.45	1080.63
593.80	1079.69
594.15	1085.07
594.50	1078.28
594.85	1081.56
595.20	1080.63
595.55	1083.43
595.90	1074.07
596.25	1073.14
596.60	1078.75
596.95	1080.63
597.30	1069.86
597.64	1133.99
597.99	1127.90
598.34	1124.86
598.69	1132.82
599.04	1135.16
599.39	1064.48
599.74	1068.92
600.09	1059.79
600.44	1061.20
600.78	1072.20
601.13	1090.22
601.48	1091.86
601.83	1091.86
602.18	1086.24
602.53	1079.22
602.88	1067.05
603.22	1063.07
603.57	1061.90
603.92	1063.54
604.27	1060.50
604.62	1062.37
604.97	1067.28
605.31	1078.75
605.66	1080.86
606.01	1084.14
606.36	1088.12
606.71	1086.01
607.05	1081.09
607.40	1072.20
607.75	1069.39
608.10	1068.92
608.44	1069.62
608.79	1067.05
609.14	1071.73
609.49	1077.82
609.84	1082.97
610.18	1082.97
610.53	1082.26
610.88	1079.46
611.23	1081.80
611.57	1076.65
611.92	1084.14
612.27	1092.09
612.62	1101.22
612.96	1094.43
613.31	1091.63
613.66	1083.90
614.00	1082.26
614.35	1088.35
614.70	1093.73
615.05	1100.29
615.39	1105.20
615.74	1108.95
616.09	1100.99
616.43	1100.05
616.78	1093.50
617.13	1097.48
617.47	1100.75
617.82	1100.99
618.17	1106.84
618.51	1104.97
618.86	1100.52
619.21	1087.41
619.55	1086.71
619.90	1071.73
620.25	1085.31
620.59	1087.18
620.94	1098.65
621.29	1092.09
621.63	1101.69
621.98	1095.37
622.32	1094.67
622.67	1094.20
623.02	1101.69
623.36	1094.20
623.71	1093.73
624.05	1088.35
624.40	1079.69
624.75	1074.54
625.09	1078.99
625.44	1073.60
625.78	1072.67
626.13	1068.92
626.48	1075.01
626.82	1073.37
627.17	1075.24
627.51	1082.73
627.86	1091.63
628.20	1091.86
628.55	1097.24
628.89	1099.12
629.24	1093.73
629.58	1090.46
629.93	1086.24
630.28	1078.05
630.62	1078.52
630.97	1079.46
631.31	1078.05
631.66	1071.50
632.00	1074.31
632.35	1070.33
632.69	1071.73
633.04	1066.35
633.38	1066.82
633.73	1064.01
634.07	1061.90
634.42	1054.65
634.76	1064.24
635.11	1071.03
635.45	1070.09
635.79	1068.69
636.14	1066.58
636.48	1068.45
636.83	1060.96
637.17	1075.48
637.52	1078.05
637.86	1086.01
638.21	1079.46
638.55	1084.84
638.89	1076.65
639.24	1071.26
639.58	1076.41
639.93	1079.92
640.27	1085.31
640.61	1085.31
640.96	1096.78
641.30	1087.65
641.65	1100.29
641.99	1087.41
642.33	1095.84
642.68	1093.03
643.02	1093.97
643.37	1086.71
643.71	1096.31
644.05	1090.46
644.40	1097.48
644.74	1093.50
645.08	1087.18
645.43	1081.56
645.77	1082.03
646.11	1072.20
646.46	1082.26
646.80	1092.09
647.14	1098.65
647.49	1102.16
647.83	1107.54
648.17	1099.12
648.52	1090.22
648.86	1077.58
649.20	1077.82
649.55	1074.07
649.89	1073.60
650.23	1078.05
650.57	1089.29
650.92	1084.14
651.26	1090.92
651.60	1086.94
651.95	1081.09
652.29	1089.99
652.63	1088.35
652.97	1086.01
653.32	1090.69
653.66	1096.54
654.00	1086.24
654.34	1079.46
654.69	1078.75
655.03	1080.86
655.37	1070.56
655.71	1063.54
656.05	1066.82
656.40	1058.86
656.74	1056.99
657.08	1061.90
657.42	1077.82
657.76	1078.05
658.11	1078.05
658.45	1081.80
658.79	1083.67
659.13	1071.26
659.47	1071.03
659.82	1077.82
660.16	1068.69
660.50	1065.41
660.84	1065.88
661.18	1063.07
661.52	1060.96
661.87	1067.52
662.21	1082.50
662.55	1084.84
662.89	1092.09
663.23	1101.22
663.57	1095.60
663.91	1082.97
664.25	1078.28
664.60	1082.26
664.94	1069.86
665.28	1082.03
665.62	1077.11
665.96	1086.71
666.30	1077.82
666.64	1090.46
666.98	1084.37
667.32	1090.46
667.66	1080.16
668.01	1076.88
668.35	1072.20
668.69	1070.09
669.03	1060.50
669.37	1066.35
669.71	1072.20
670.05	1060.73
670.39	1057.45
670.73	1070.09
671.07	1074.77
671.41	1074.31
671.75	1084.37
672.09	1092.80
672.43	1086.24
672.77	1084.14
673.11	1090.46
673.45	1084.60
673.79	1086.71
674.13	1083.67
674.47	1083.67
674.81	1080.16
675.15	1094.20
675.49	1084.84
675.83	1086.48
676.17	1083.90
676.51	1083.43
676.85	1073.37
677.19	1078.99
677.53	1078.75
677.87	1074.54
678.21	1075.01
678.55	1071.97
678.89	1077.11
679.23	1081.09
679.57	1082.97
679.90	1079.46
680.24	1083.90
680.58	1078.75
680.92	1082.97
681.26	1089.99
681.60	1092.80
681.94	1086.24
682.28	1082.97
682.62	1073.14
682.96	1070.56
683.29	1071.26
683.63	1071.50
683.97	1067.99
684.31	1073.84
684.65	1071.97
684.99	1064.48
685.33	1072.90
685.67	1080.63
686.00	1074.31
686.34	1074.07
686.68	1074.07
687.02	1074.07
687.36	1073.37
687.70	1078.05
688.03	1076.18
688.37	1076.18
688.71	1073.84
689.05	1071.03
689.39	1072.43
689.72	1072.90
690.06	1078.75
690.40	1077.11
690.74	1087.18
691.08	1081.09
691.41	1092.09
691.75	1086.71
692.09	1086.24
692.43	1073.84
692.76	1082.50
693.10	1074.31
693.44	1080.16
693.78	1081.09
694.11	1086.24
694.45	1079.46
694.79	1081.80
695.13	1082.50
695.46	1085.54
695.80	1088.82
696.14	1090.46
696.48	1092.33
696.81	1091.86
697.15	1091.86
697.49	1098.88
697.82	1100.05
698.16	1089.99
698.50	1089.75
698.83	1094.20
699.17	1093.73
699.51	1090.69
699.84	1098.65
700.18	1100.75
700.52	1096.78
700.85	1089.52
701.19	1096.54
701.53	1099.82
701.86	1104.73
702.20	1098.88
702.54	1099.12
702.87	1102.16
703.21	1100.99
703.55	1089.75
703.88	1091.63
704.22	1086.48
704.55	1081.33
704.89	1067.52
705.23	1073.84
705.56	1079.22
705.90	1072.20
706.23	1068.45
706.57	1074.31
706.91	1075.24
707.24	1066.82
707.58	1068.92
707.91	1070.33
708.25	1076.88
708.58	1073.37
708.92	1078.75
709.26	1088.82
709.59	1087.18
709.93	1075.94
710.26	1073.84
710.60	1068.45
710.93	1063.31
711.27	1072.90
711.60	1076.88
711.94	1078.75
712.27	1082.50
712.61	1093.03
712.94	1080.86
713.28	1080.86
713.61	1085.77
713.95	1079.69
714.28	1076.88
714.62	1085.54
714.95	1086.94
715.29	1075.48
715.62	1080.86
715.96	1074.07
716.29	1066.35
716.63	1060.96
716.96	1070.33
717.29	1067.05
717.63	1067.28
717.96	1073.14
718.30	1086.01
718.63	1077.11
718.97	1078.52
719.30	1082.97
719.63	1075.94
719.97	1076.18
720.30	1082.73
720.64	1078.99
720.97	1074.31
721.30	1086.48
721.64	1082.50
721.97	1076.41
722.31	1082.73
722.64	1086.94
722.97	1078.99
723.31	1069.62
723.64	1070.09
723.97	1072.20
724.31	1069.39
724.64	1062.84
724.98	1071.03
725.31	1074.77
725.64	1073.37
725.98	1082.97
726.31	1086.94
726.64	1087.88
726.97	1093.97
727.31	1097.48
727.64	1090.69
727.97	1093.73
728.31	1084.37
728.64	1076.18
728.97	1072.67
729.31	1076.88
729.64	1083.20
729.97	1083.20
730.30	1082.73
730.64	1076.41
730.97	1064.48
731.30	1056.99
731.63	1067.28
731.97	1074.54
732.30	1076.65
732.63	1080.63
732.96	1075.71
733.30	1070.33
733.63	1080.63
733.96	1088.82
734.29	1089.29
734.63	1097.24
734.96	1101.46
735.29	1078.52
735.62	1068.22
735.95	1067.28
736.29	1071.26
736.62	1061.20
736.95	1075.94
737.28	1075.94
737.61	1077.58
737.94	1083.20
738.28	1093.97
738.61	1089.99
738.94	1095.37
739.27	1098.18
739.60	1085.31
739.93	1086.24
740.27	1089.05
740.60	1084.37
740.93	1076.65
741.26	1083.67
741.59	1084.14
741.92	1090.69
742.25	1094.20
742.58	1097.71
742.91	1093.50
743.25	1090.92
743.58	1083.20
743.91	1086.24
744.24	1086.01
744.57	1091.39
744.90	1086.01
745.23	1088.82
745.56	1081.33
745.89	1082.26
746.22	1077.35
746.55	1083.90
746.88	1069.39
747.21	1074.54
747.54	1065.41
747.87	1059.56
748.20	1061.43
748.53	1078.05
748.87	1075.24
749.20	1086.48
749.53	1101.22
749.86	1096.54
750.19	1079.22
750.52	1074.77
750.85	1069.86
751.18	1061.43
751.51	1064.01
751.84	1073.84
752.16	1071.03
752.49	1066.82
752.82	1065.65
753.15	1057.92
753.48	1050.90
753.81	1056.52
754.14	1068.69
754.47	1070.56
754.80	1079.22
755.13	1083.20
755.46	1087.88
755.79	1075.71
756.12	1078.52
756.45	1085.54
756.78	1082.03
757.11	1080.16
757.43	1084.60
757.76	1083.20
758.09	1074.31
758.42	1085.31
758.75	1088.35
759.08	1086.01
759.41	1083.20
759.74	1091.86
760.07	1091.63
760.39	1090.69
760.72	1099.12
761.05	1106.14
761.38	1104.50
761.71	1096.54
762.04	1099.82
762.36	1100.29
762.69	1096.07
763.02	1091.16
763.35	1096.31
763.68	1095.14
764.01	1089.52
764.33	1084.84
764.66	1081.56
764.99	1082.26
765.32	1089.52
765.65	1090.22
765.97	1097.24
766.30	1100.05
