SpectraSuite Data File
++++++++++++++++++++++++++++++++++++
Date: Mon Aug 26 10:26:00 PDT 2019
User: corrico
Dark Spectrum Present: No
Reference Spectrum Present: No
Number of Sampled Component Spectra: 1
Spectrometers: USB2+H06089
Integration Time (usec): 10000 (USB2+H06089)
Spectra Averaged: 2 (USB2+H06089)
Boxcar Smoothing: 2 (USB2+H06089)
Correct for Electrical Dark: No (USB2+H06089)
Strobe/Lamp Enabled: No (USB2+H06089)
Correct for Detector Non-linearity: No (USB2+H06089)
Correct for Stray Light: No (USB2+H06089)
Number of Pixels in Processed Spectrum: 2048
>>>>>Begin Processed Spectral Data<<<<<
339.70	1022.81
340.07	1022.81
340.45	987.47
340.82	966.17
341.19	953.07
341.57	923.34
341.94	916.79
342.31	908.60
342.69	896.66
343.06	883.32
343.43	885.42
343.81	883.32
344.18	878.64
344.55	891.74
344.93	891.51
345.30	905.09
345.67	914.45
346.04	928.96
346.42	934.58
346.79	960.09
347.16	967.58
347.54	973.43
347.91	982.32
348.28	992.86
348.65	978.34
349.03	984.66
349.40	989.34
349.77	1005.73
350.14	1018.60
350.52	1037.09
350.89	1044.11
351.26	1056.52
351.63	1054.18
352.01	1051.13
352.38	1054.41
352.75	1056.28
353.12	1061.67
353.50	1062.14
353.87	1067.28
354.24	1066.58
354.61	1065.18
354.98	1064.94
355.36	1069.39
355.73	1065.18
356.10	1081.33
356.47	1086.94
356.84	1090.46
357.22	1094.20
357.59	1097.48
357.96	1088.35
358.33	1091.16
358.70	1083.67
359.08	1085.77
359.45	1078.05
359.82	1069.86
360.19	1071.97
360.56	1073.37
360.94	1056.52
361.31	1067.05
361.68	1067.75
362.05	1056.75
362.42	1057.22
362.79	1065.65
363.16	1059.56
363.54	1064.48
363.91	1062.60
364.28	1056.99
364.65	1058.16
365.02	1062.84
365.39	1060.26
365.76	1061.67
366.14	1070.33
366.51	1061.20
366.88	1063.31
367.25	1068.22
367.62	1073.60
367.99	1081.33
368.36	1086.71
368.73	1074.54
369.10	1071.50
369.48	1073.37
369.85	1071.03
370.22	1074.07
370.59	1072.67
370.96	1071.03
371.33	1065.41
371.70	1060.96
372.07	1058.39
372.44	1068.45
372.81	1071.03
373.18	1068.45
373.55	1061.90
373.93	1068.69
374.30	1063.07
374.67	1071.73
375.04	1075.01
375.41	1073.60
375.78	1057.45
376.15	1058.16
376.52	1052.07
376.89	1060.73
377.26	1065.65
377.63	1074.54
378.00	1084.84
378.37	1088.35
378.74	1080.16
379.11	1080.39
379.48	1084.84
379.85	1078.75
380.22	1065.65
380.59	1057.69
380.96	1064.94
381.33	1061.67
381.70	1059.09
382.07	1070.56
382.44	1088.58
382.81	1075.24
383.18	1073.84
383.55	1075.71
383.92	1066.11
384.29	1062.60
384.66	1067.28
385.03	1064.48
385.40	1066.58
385.77	1062.60
386.14	1058.62
386.51	1063.07
386.88	1064.94
387.25	1065.65
387.62	1081.33
387.99	1091.16
388.36	1089.05
388.73	1100.99
389.10	1091.16
389.46	1075.94
389.83	1069.39
390.20	1070.09
390.57	1062.14
390.94	1078.75
391.31	1083.43
391.68	1080.86
392.05	1087.65
392.42	1080.39
392.79	1059.56
393.16	1063.31
393.53	1051.13
393.89	1051.13
394.26	1057.45
394.63	1071.73
395.00	1069.39
395.37	1082.50
395.74	1079.69
396.11	1084.37
396.48	1075.24
396.84	1082.73
397.21	1080.63
397.58	1078.28
397.95	1066.58
398.32	1076.41
398.69	1062.60
399.06	1060.96
399.42	1060.50
399.79	1066.11
400.16	1062.60
400.53	1075.94
400.90	1072.43
401.27	1069.39
401.64	1071.03
402.00	1075.01
402.37	1069.39
402.74	1074.54
403.11	1076.88
403.48	1082.03
403.84	1084.37
404.21	1087.88
404.58	1085.54
404.95	1078.99
405.32	1067.99
405.68	1064.71
406.05	1068.92
406.42	1071.97
406.79	1086.24
407.16	1091.16
407.52	1093.73
407.89	1079.22
408.26	1075.48
408.63	1062.14
408.99	1063.54
409.36	1059.33
409.73	1067.52
410.10	1064.94
410.47	1075.48
410.83	1077.58
411.20	1076.65
411.57	1073.14
411.94	1087.18
412.30	1085.77
412.67	1082.03
413.04	1081.80
413.40	1097.71
413.77	1093.73
414.14	1096.07
414.51	1095.37
414.87	1105.44
415.24	1089.75
415.61	1096.54
415.97	1099.82
416.34	1107.54
416.71	1102.16
417.08	1103.56
417.44	1089.99
417.81	1077.11
418.18	1074.31
418.54	1070.56
418.91	1069.16
419.28	1072.90
419.64	1068.92
420.01	1069.86
420.38	1075.24
420.74	1081.33
421.11	1084.14
421.48	1091.86
421.84	1080.39
422.21	1075.94
422.58	1077.82
422.94	1075.71
423.31	1082.03
423.68	1084.84
424.04	1084.60
424.41	1085.54
424.77	1082.50
425.14	1079.92
425.51	1085.77
425.87	1077.58
426.24	1065.65
426.61	1056.99
426.97	1058.62
427.34	1054.41
427.70	1056.28
428.07	1060.96
428.44	1076.41
428.80	1077.11
429.17	1079.22
429.53	1083.43
429.90	1079.92
430.27	1071.73
430.63	1057.22
431.00	1051.84
431.36	1055.35
431.73	1063.77
432.09	1065.18
432.46	1079.22
432.83	1084.37
433.19	1079.69
433.56	1079.69
433.92	1075.01
434.29	1066.35
434.65	1068.92
435.02	1075.48
435.38	1076.65
435.75	1070.56
436.11	1083.67
436.48	1083.67
436.84	1081.56
437.21	1067.52
437.57	1085.54
437.94	1087.41
438.30	1090.92
438.67	1082.03
439.03	1090.69
439.40	1085.31
439.76	1070.56
440.13	1071.03
440.49	1073.37
440.86	1075.01
441.22	1073.84
441.59	1080.16
441.95	1075.24
442.32	1081.56
442.68	1075.94
443.05	1076.88
443.41	1079.46
443.78	1088.58
444.14	1079.22
444.51	1084.60
444.87	1094.20
445.24	1090.22
445.60	1076.65
445.96	1086.94
446.33	1084.84
446.69	1068.45
447.06	1070.56
447.42	1081.33
447.79	1079.69
448.15	1078.52
448.51	1088.12
448.88	1086.24
449.24	1083.20
449.61	1085.07
449.97	1086.71
450.33	1083.20
450.70	1085.31
451.06	1083.67
451.43	1087.65
451.79	1089.99
452.15	1090.92
452.52	1087.41
452.88	1086.01
453.24	1079.92
453.61	1079.69
453.97	1084.84
454.34	1080.16
454.70	1076.18
455.06	1082.73
455.43	1079.46
455.79	1068.22
456.15	1076.65
456.52	1091.86
456.88	1088.58
457.24	1093.03
457.61	1107.54
457.97	1104.50
458.33	1093.50
458.70	1091.16
459.06	1085.54
459.42	1074.07
459.79	1075.24
460.15	1075.24
460.51	1090.22
460.88	1085.07
461.24	1078.28
461.60	1082.73
461.96	1081.80
462.33	1069.62
462.69	1078.28
463.05	1088.58
463.42	1079.22
463.78	1083.43
464.14	1070.56
464.50	1065.88
464.87	1059.56
465.23	1060.50
465.59	1057.22
465.95	1069.86
466.32	1080.16
466.68	1080.86
467.04	1083.20
467.40	1075.94
467.77	1077.11
468.13	1068.69
468.49	1070.80
468.85	1079.46
469.22	1100.99
469.58	1100.52
469.94	1105.90
470.30	1110.35
470.66	1092.56
471.03	1075.71
471.39	1075.94
471.75	1070.09
472.11	1072.67
472.47	1080.86
472.84	1075.01
473.20	1078.99
473.56	1083.90
473.92	1076.65
474.28	1080.63
474.65	1084.60
475.01	1085.54
475.37	1087.41
475.73	1086.01
476.09	1084.37
476.45	1092.33
476.81	1091.16
477.18	1091.16
477.54	1100.05
477.90	1089.52
478.26	1085.07
478.62	1074.07
478.98	1064.24
479.34	1062.84
479.71	1075.48
480.07	1075.94
480.43	1079.46
480.79	1096.54
481.15	1101.92
481.51	1103.56
481.87	1105.67
482.23	1109.18
482.59	1093.50
482.96	1080.63
483.32	1065.18
483.68	1056.52
484.04	1055.58
484.40	1064.24
484.76	1067.52
485.12	1085.07
485.48	1095.37
485.84	1100.05
486.20	1087.88
486.56	1088.58
486.92	1082.26
487.28	1078.28
487.64	1079.22
488.00	1092.80
488.37	1091.63
488.73	1079.69
489.09	1080.63
489.45	1070.09
489.81	1058.86
490.17	1055.58
490.53	1072.67
490.89	1071.50
491.25	1080.39
491.61	1097.95
491.97	1104.97
492.33	1086.24
492.69	1092.80
493.05	1089.75
493.41	1073.37
493.77	1072.90
494.13	1090.22
494.49	1082.50
494.85	1082.03
495.21	1098.18
495.57	1097.71
495.93	1086.94
496.29	1081.56
496.64	1077.82
497.00	1065.65
497.36	1068.22
497.72	1067.05
498.08	1076.18
498.44	1078.05
498.80	1077.82
499.16	1072.67
499.52	1079.92
499.88	1084.14
500.24	1088.12
500.60	1090.22
500.96	1097.95
501.32	1104.26
501.68	1097.01
502.03	1093.03
502.39	1092.09
502.75	1090.22
503.11	1085.77
503.47	1086.71
503.83	1086.24
504.19	1089.99
504.55	1085.31
504.91	1077.35
505.26	1081.80
505.62	1079.69
505.98	1082.73
506.34	1081.09
506.70	1079.22
507.06	1069.39
507.42	1063.54
507.78	1061.20
508.13	1070.33
508.49	1089.29
508.85	1091.86
509.21	1100.99
509.57	1108.01
509.93	1100.99
510.28	1097.71
510.64	1107.31
511.00	1107.78
511.36	1091.16
511.72	1093.26
512.07	1089.52
512.43	1090.22
512.79	1092.80
513.15	1108.95
513.51	1102.86
513.86	1103.56
514.22	1098.41
514.58	1105.20
514.94	1101.69
515.30	1110.82
515.65	1108.95
516.01	1105.90
516.37	1099.82
516.73	1098.65
517.08	1094.43
517.44	1097.24
517.80	1101.22
518.16	1100.99
518.51	1093.97
518.87	1090.22
519.23	1081.56
519.59	1082.73
519.94	1092.33
520.30	1092.56
520.66	1089.52
521.01	1095.84
521.37	1093.73
521.73	1079.92
522.09	1083.43
522.44	1083.43
522.80	1088.35
523.16	1092.09
523.51	1104.26
523.87	1105.67
524.23	1120.18
524.58	1112.92
524.94	1119.48
525.30	1114.56
525.65	1113.86
526.01	1113.86
526.37	1123.22
526.72	1112.69
527.08	1098.65
527.44	1100.99
527.79	1087.88
528.15	1075.71
528.51	1082.50
528.86	1094.43
529.22	1098.65
529.58	1104.73
529.93	1111.05
530.29	1110.58
530.65	1109.88
531.00	1102.16
531.36	1107.07
531.71	1099.82
532.07	1091.86
532.43	1081.80
532.78	1076.41
533.14	1077.11
533.49	1089.99
533.85	1089.99
534.21	1095.60
534.56	1104.03
534.92	1100.29
535.27	1090.69
535.63	1084.84
535.98	1082.73
536.34	1072.90
536.69	1073.84
537.05	1079.69
537.41	1084.60
537.76	1084.14
538.12	1100.05
538.47	1102.16
538.83	1099.12
539.18	1108.48
539.54	1108.71
539.89	1097.95
540.25	1086.01
540.60	1082.03
540.96	1075.71
541.31	1079.46
541.67	1082.26
542.02	1091.39
542.38	1093.73
542.73	1101.46
543.09	1102.63
543.44	1103.80
543.80	1101.22
544.15	1100.75
544.51	1098.41
544.86	1096.78
545.22	1100.29
545.57	1102.16
545.93	1105.44
546.28	1097.71
546.64	1104.26
546.99	1095.60
547.35	1102.39
547.70	1092.09
548.05	1092.80
548.41	1092.56
548.76	1093.97
549.12	1083.90
549.47	1096.78
549.83	1096.78
550.18	1077.82
550.53	1084.84
550.89	1082.26
551.24	1081.56
551.60	1085.54
551.95	1104.03
552.30	1101.69
552.66	1109.65
553.01	1105.67
553.37	1093.03
553.72	1083.43
554.07	1087.18
554.43	1084.14
554.78	1089.29
555.13	1097.48
555.49	1101.22
555.84	1089.52
556.19	1093.26
556.55	1085.77
556.90	1089.52
557.26	1089.99
557.61	1097.24
557.96	1090.22
558.32	1091.63
558.67	1087.41
559.02	1086.71
559.37	1083.20
559.73	1083.43
560.08	1095.60
560.43	1101.92
560.79	1103.09
561.14	1105.20
561.49	1116.44
561.85	1107.07
562.20	1095.14
562.55	1097.95
562.90	1096.54
563.26	1090.92
563.61	1089.99
563.96	1090.46
564.32	1086.48
564.67	1083.90
565.02	1075.24
565.37	1071.03
565.73	1079.22
566.08	1075.94
566.43	1079.92
566.78	1077.82
567.14	1074.31
567.49	1063.54
567.84	1064.71
568.19	1055.58
568.54	1062.84
568.90	1055.35
569.25	1070.56
569.60	1071.03
569.95	1081.09
570.31	1072.67
570.66	1085.77
571.01	1083.43
571.36	1090.22
571.71	1086.24
572.06	1099.35
572.42	1094.67
572.77	1083.20
573.12	1065.88
573.47	1069.39
573.82	1069.16
574.18	1078.05
574.53	1087.41
574.88	1102.63
575.23	1105.90
575.58	1097.48
575.93	1094.20
576.28	1099.82
576.64	1087.41
576.99	1081.33
577.34	1086.48
577.69	1090.22
578.04	1085.31
578.39	1099.35
578.74	1099.35
579.09	1092.56
579.44	1094.90
579.80	1099.12
580.15	1104.50
580.50	1106.61
580.85	1102.63
581.20	1093.73
581.55	1092.09
581.90	1085.77
582.25	1084.60
582.60	1094.20
582.95	1091.86
583.30	1081.09
583.65	1070.80
584.00	1073.60
584.35	1070.80
584.71	1071.73
585.06	1075.48
585.41	1085.07
585.76	1083.67
586.11	1088.35
586.46	1101.46
586.81	1094.20
587.16	1088.35
587.51	1080.86
587.86	1078.05
588.21	1064.94
588.56	1080.39
588.91	1086.71
589.26	1099.12
589.61	1105.90
589.96	1105.67
590.31	1099.12
590.66	1091.86
591.01	1084.14
591.36	1081.09
591.71	1082.73
592.06	1083.67
592.41	1087.18
592.76	1087.88
593.10	1086.48
593.45	1091.63
593.80	1089.99
594.15	1088.82
594.50	1081.09
594.85	1079.46
595.20	1076.65
595.55	1071.97
595.90	1074.77
596.25	1088.58
596.60	1087.18
596.95	1087.88
597.30	1099.58
597.64	1143.82
597.99	1149.91
598.34	1156.93
598.69	1157.63
599.04	1150.84
599.39	1111.52
599.74	1093.03
600.09	1089.05
600.44	1077.82
600.78	1078.99
601.13	1078.52
601.48	1089.05
601.83	1087.18
602.18	1085.07
602.53	1083.43
602.88	1080.63
603.22	1076.88
603.57	1081.09
603.92	1089.99
604.27	1095.37
604.62	1098.65
604.97	1102.16
605.31	1099.12
605.66	1097.95
606.01	1099.82
606.36	1100.05
606.71	1096.54
607.05	1096.78
607.40	1094.43
607.75	1077.35
608.10	1059.09
608.44	1060.26
608.79	1057.22
609.14	1064.71
609.49	1077.82
609.84	1075.94
610.18	1071.26
610.53	1074.07
610.88	1077.35
611.23	1071.50
611.57	1085.07
611.92	1093.73
612.27	1095.14
612.62	1097.48
612.96	1109.41
613.31	1104.26
613.66	1092.80
614.00	1086.48
614.35	1081.80
614.70	1077.82
615.05	1076.41
615.39	1077.58
615.74	1074.54
616.09	1076.41
616.43	1065.41
616.78	1076.18
617.13	1073.37
617.47	1080.63
617.82	1067.99
618.17	1072.67
618.51	1064.01
618.86	1071.50
619.21	1070.56
619.55	1075.71
619.90	1080.39
620.25	1086.01
620.59	1089.29
620.94	1092.80
621.29	1100.75
621.63	1088.82
621.98	1080.86
622.32	1069.62
622.67	1059.79
623.02	1051.60
623.36	1066.82
623.71	1066.58
624.05	1070.80
624.40	1072.90
624.75	1074.54
625.09	1069.62
625.44	1073.37
625.78	1081.56
626.13	1086.24
626.48	1085.07
626.82	1081.56
627.17	1085.31
627.51	1083.67
627.86	1084.14
628.20	1083.20
628.55	1081.09
628.89	1079.69
629.24	1069.39
629.58	1071.73
629.93	1075.71
630.28	1083.43
630.62	1077.82
630.97	1087.65
631.31	1082.03
631.66	1077.35
632.00	1072.43
632.35	1079.69
632.69	1079.92
633.04	1082.03
633.38	1074.54
633.73	1079.22
634.07	1073.60
634.42	1057.69
634.76	1057.92
635.11	1062.60
635.45	1059.33
635.79	1065.65
636.14	1080.16
636.48	1092.56
636.83	1095.37
637.17	1087.41
637.52	1076.88
637.86	1076.41
638.21	1062.60
638.55	1061.43
638.89	1075.24
639.24	1082.03
639.58	1076.88
639.93	1080.86
640.27	1083.90
640.61	1084.14
640.96	1092.56
641.30	1097.01
641.65	1096.78
641.99	1091.39
642.33	1089.29
642.68	1086.01
643.02	1082.97
643.37	1084.84
643.71	1104.50
644.05	1101.22
644.40	1089.29
644.74	1100.52
645.08	1093.50
645.43	1076.65
645.77	1079.22
646.11	1074.31
646.46	1070.56
646.80	1073.84
647.14	1075.94
647.49	1064.71
647.83	1077.35
648.17	1079.69
648.52	1082.03
648.86	1082.73
649.20	1089.75
649.55	1091.86
649.89	1086.94
650.23	1080.39
650.57	1076.65
650.92	1081.56
651.26	1077.35
651.60	1075.24
651.95	1073.60
652.29	1081.56
652.63	1075.48
652.97	1075.71
653.32	1079.69
653.66	1088.35
654.00	1085.31
654.34	1085.07
654.69	1087.65
655.03	1082.97
655.37	1077.11
655.71	1078.05
656.05	1084.84
656.40	1077.58
656.74	1088.12
657.08	1095.84
657.42	1092.56
657.76	1088.12
658.11	1093.73
658.45	1079.22
658.79	1077.82
659.13	1076.65
659.47	1078.99
659.82	1079.46
660.16	1088.12
660.50	1078.52
660.84	1085.31
661.18	1079.69
661.52	1078.52
661.87	1064.71
662.21	1069.16
662.55	1072.90
662.89	1084.60
663.23	1093.50
663.57	1111.99
663.91	1114.80
664.25	1110.58
664.60	1102.16
664.94	1097.95
665.28	1084.60
665.62	1073.37
665.96	1061.20
666.30	1053.01
666.64	1049.73
666.98	1051.84
667.32	1059.09
667.66	1069.62
668.01	1084.37
668.35	1081.56
668.69	1083.67
669.03	1079.92
669.37	1076.41
669.71	1057.92
670.05	1061.67
670.39	1063.54
670.73	1068.92
671.07	1078.52
671.41	1091.86
671.75	1085.07
672.09	1084.14
672.43	1087.88
672.77	1081.09
673.11	1076.88
673.45	1078.28
673.79	1080.63
674.13	1073.14
674.47	1067.75
674.81	1072.90
675.15	1078.75
675.49	1070.56
675.83	1075.94
676.17	1077.11
676.51	1078.28
676.85	1076.18
677.19	1073.84
677.53	1071.73
677.87	1071.03
678.21	1064.24
678.55	1068.45
678.89	1070.33
679.23	1071.26
679.57	1081.80
679.90	1082.73
680.24	1079.46
680.58	1077.82
680.92	1080.86
681.26	1073.84
681.60	1077.11
681.94	1070.33
682.28	1071.50
682.62	1065.65
682.96	1071.26
683.29	1067.28
683.63	1073.60
683.97	1076.65
684.31	1079.92
684.65	1075.01
684.99	1081.09
685.33	1078.05
685.67	1074.54
686.00	1078.28
686.34	1080.16
686.68	1084.14
687.02	1087.41
687.36	1097.71
687.70	1087.18
688.03	1092.80
688.37	1077.58
688.71	1076.88
689.05	1083.20
689.39	1091.39
689.72	1090.92
690.06	1093.50
690.40	1090.92
690.74	1081.80
691.08	1078.28
691.41	1067.52
691.75	1072.20
692.09	1069.16
692.43	1063.31
692.76	1071.03
693.10	1064.71
693.44	1066.82
693.78	1078.75
694.11	1086.24
694.45	1083.43
694.79	1087.88
695.13	1090.46
695.46	1082.97
695.80	1076.88
696.14	1069.86
696.48	1072.90
696.81	1069.39
697.15	1073.14
697.49	1076.41
697.82	1069.39
698.16	1065.41
698.50	1071.26
698.83	1072.43
699.17	1069.16
699.51	1078.52
699.84	1081.09
700.18	1080.86
700.52	1080.39
700.85	1084.60
701.19	1100.29
701.53	1117.84
701.86	1107.54
702.20	1103.80
702.54	1105.67
702.87	1083.90
703.21	1068.69
703.55	1076.65
703.88	1079.46
704.22	1078.99
704.55	1078.52
704.89	1082.26
705.23	1078.28
705.56	1083.20
705.90	1077.35
706.23	1086.94
706.57	1081.80
706.91	1082.03
707.24	1078.99
707.58	1087.65
707.91	1079.46
708.25	1089.29
708.58	1077.11
708.92	1070.56
709.26	1073.60
709.59	1079.46
709.93	1063.31
710.26	1077.58
710.60	1087.88
710.93	1079.46
711.27	1086.71
711.60	1091.63
711.94	1098.65
712.27	1093.97
712.61	1096.31
712.94	1085.07
713.28	1095.14
713.61	1086.24
713.95	1085.07
714.28	1088.35
714.62	1088.82
714.95	1091.63
715.29	1087.65
715.62	1092.80
715.96	1090.46
716.29	1094.67
716.63	1078.52
716.96	1074.77
717.29	1064.24
717.63	1062.84
717.96	1065.65
718.30	1073.84
718.63	1080.86
718.97	1074.07
719.30	1070.56
719.63	1067.75
719.97	1065.88
720.30	1070.09
720.64	1083.20
720.97	1086.24
721.30	1085.31
721.64	1082.26
721.97	1080.39
722.31	1075.24
722.64	1077.11
722.97	1076.88
723.31	1080.63
723.64	1072.90
723.97	1082.73
724.31	1080.86
724.64	1099.12
724.98	1096.31
725.31	1102.16
725.64	1099.58
725.98	1094.20
726.31	1080.86
726.64	1078.99
726.97	1075.48
727.31	1074.31
727.64	1079.92
727.97	1075.94
728.31	1086.01
728.64	1092.33
728.97	1091.63
729.31	1086.01
729.64	1079.69
729.97	1071.03
730.30	1067.28
730.64	1061.90
730.97	1067.52
731.30	1069.16
731.63	1070.33
731.97	1064.71
732.30	1066.11
732.63	1073.37
732.96	1082.73
733.30	1085.31
733.63	1091.63
733.96	1096.54
734.29	1088.12
734.63	1079.69
734.96	1083.43
735.29	1087.18
735.62	1084.60
735.95	1084.14
736.29	1088.12
736.62	1089.75
736.95	1087.88
737.28	1086.94
737.61	1092.33
737.94	1095.37
738.28	1092.09
738.61	1090.22
738.94	1088.12
739.27	1088.35
739.60	1084.84
739.93	1076.41
740.27	1075.24
740.60	1067.99
740.93	1053.94
741.26	1047.16
741.59	1047.16
741.92	1048.09
742.25	1059.79
742.58	1076.88
742.91	1082.50
743.25	1082.97
743.58	1081.80
743.91	1082.50
744.24	1078.05
744.57	1076.18
744.90	1080.16
745.23	1078.52
745.56	1073.37
745.89	1063.07
746.22	1057.92
746.55	1058.39
746.88	1059.56
747.21	1062.14
747.54	1066.35
747.87	1067.05
748.20	1073.14
748.53	1075.01
748.87	1078.28
749.20	1086.24
749.53	1092.56
749.86	1092.33
750.19	1090.22
750.52	1092.33
750.85	1081.33
751.18	1080.16
751.51	1084.14
751.84	1080.39
752.16	1075.48
752.49	1081.80
752.82	1080.16
753.15	1078.75
753.48	1083.20
753.81	1089.29
754.14	1089.99
754.47	1102.16
754.80	1093.50
755.13	1089.75
755.46	1080.16
755.79	1080.63
756.12	1077.82
756.45	1081.56
756.78	1079.69
757.11	1080.63
757.43	1068.45
757.76	1058.16
758.09	1052.30
758.42	1052.07
758.75	1057.22
759.08	1062.60
759.41	1071.50
759.74	1071.03
760.07	1085.54
760.39	1081.56
760.72	1094.20
761.05	1089.99
761.38	1100.99
761.71	1095.37
762.04	1088.35
762.36	1081.56
762.69	1080.39
763.02	1075.24
763.35	1073.14
763.68	1073.84
764.01	1075.71
764.33	1075.01
764.66	1070.09
764.99	1068.92
765.32	1086.48
765.65	1085.54
765.97	1097.24
766.30	1105.44
