SpectraSuite Data File
++++++++++++++++++++++++++++++++++++
Date: Mon Aug 26 10:26:14 PDT 2019
User: corrico
Dark Spectrum Present: No
Reference Spectrum Present: No
Number of Sampled Component Spectra: 1
Spectrometers: USB2+H06089
Integration Time (usec): 10000 (USB2+H06089)
Spectra Averaged: 20 (USB2+H06089)
Boxcar Smoothing: 2 (USB2+H06089)
Correct for Electrical Dark: No (USB2+H06089)
Strobe/Lamp Enabled: No (USB2+H06089)
Correct for Detector Non-linearity: No (USB2+H06089)
Correct for Stray Light: No (USB2+H06089)
Number of Pixels in Processed Spectrum: 2048
>>>>>Begin Processed Spectral Data<<<<<
339.70	1029.48
340.07	1029.48
340.45	1000.93
340.82	980.26
341.19	958.80
341.57	936.24
341.94	925.85
342.31	917.82
342.69	910.98
343.06	907.45
343.43	904.41
343.81	903.17
344.18	902.70
344.55	909.02
344.93	915.27
345.30	921.94
345.67	927.27
346.04	935.51
346.42	942.35
346.79	948.85
347.16	955.87
347.54	962.83
347.91	975.00
348.28	987.40
348.65	995.78
349.03	1007.23
349.40	1020.10
349.77	1026.44
350.14	1032.83
350.52	1041.21
350.89	1046.69
351.26	1052.63
351.63	1056.85
352.01	1063.77
352.38	1068.62
352.75	1072.36
353.12	1073.02
353.50	1079.34
353.87	1078.05
354.24	1082.03
354.61	1083.81
354.98	1087.90
355.36	1087.86
355.73	1092.89
356.10	1093.80
356.47	1096.96
356.84	1097.76
357.22	1097.66
357.59	1095.60
357.96	1093.12
358.33	1091.04
358.70	1090.29
359.08	1091.09
359.45	1089.99
359.82	1092.12
360.19	1093.15
360.56	1091.72
360.94	1092.07
361.31	1091.81
361.68	1090.36
362.05	1087.79
362.42	1086.80
362.79	1085.89
363.16	1085.40
363.54	1084.60
363.91	1085.91
364.28	1085.68
364.65	1084.65
365.02	1085.03
365.39	1082.64
365.76	1081.12
366.14	1079.15
366.51	1078.57
366.88	1078.07
367.25	1079.76
367.62	1080.72
367.99	1080.79
368.36	1082.90
368.73	1085.07
369.10	1084.98
369.48	1087.65
369.85	1088.35
370.22	1088.63
370.59	1087.23
370.96	1088.37
371.33	1085.70
371.70	1087.44
372.07	1086.13
372.44	1084.07
372.81	1083.90
373.18	1082.87
373.55	1080.39
373.93	1079.50
374.30	1079.97
374.67	1078.52
375.04	1080.11
375.41	1080.95
375.78	1082.94
376.15	1084.16
376.52	1085.28
376.89	1086.29
377.26	1088.30
377.63	1084.42
378.00	1082.52
378.37	1081.73
378.74	1078.66
379.11	1078.78
379.48	1082.47
379.85	1085.94
380.22	1088.98
380.59	1091.02
380.96	1092.66
381.33	1090.95
381.70	1089.05
382.07	1086.03
382.44	1085.00
382.81	1083.08
383.18	1083.88
383.55	1086.31
383.92	1088.54
384.29	1089.80
384.66	1093.62
385.03	1092.56
385.40	1088.54
385.77	1086.92
386.14	1086.52
386.51	1084.86
386.88	1085.89
387.25	1088.07
387.62	1089.40
387.99	1087.44
388.36	1085.89
388.73	1087.81
389.10	1087.11
389.46	1084.67
389.83	1088.56
390.20	1087.06
390.57	1087.53
390.94	1091.42
391.31	1094.83
391.68	1089.68
392.05	1092.77
392.42	1091.13
392.79	1087.06
393.16	1083.83
393.53	1087.69
393.89	1088.56
394.26	1088.77
394.63	1091.60
395.00	1091.44
395.37	1089.82
395.74	1090.15
396.11	1090.48
396.48	1089.85
396.84	1089.75
397.21	1093.45
397.58	1088.61
397.95	1089.78
398.32	1088.51
398.69	1092.87
399.06	1091.95
399.42	1095.14
399.79	1095.21
400.16	1095.18
400.53	1094.65
400.90	1095.42
401.27	1095.46
401.64	1093.94
402.00	1096.19
402.37	1096.19
402.74	1096.59
403.11	1094.25
403.48	1094.01
403.84	1092.37
404.21	1090.74
404.58	1092.52
404.95	1094.48
405.32	1097.76
405.68	1099.47
406.05	1099.91
406.42	1097.27
406.79	1098.76
407.16	1095.79
407.52	1096.94
407.89	1096.87
408.26	1099.05
408.63	1099.86
408.99	1101.83
409.36	1101.88
409.73	1105.48
410.10	1106.86
410.47	1108.36
410.83	1111.57
411.20	1111.87
411.57	1111.17
411.94	1109.46
412.30	1108.99
412.67	1107.03
413.04	1110.19
413.40	1108.27
413.77	1110.00
414.14	1110.89
414.51	1110.05
414.87	1104.45
415.24	1106.28
415.61	1102.67
415.97	1103.23
416.34	1105.83
416.71	1107.54
417.08	1109.39
417.44	1113.56
417.81	1112.78
418.18	1110.68
418.54	1111.31
418.91	1109.16
419.28	1111.08
419.64	1112.53
420.01	1115.27
420.38	1116.90
420.74	1118.35
421.11	1117.32
421.48	1115.43
421.84	1113.18
422.21	1112.55
422.58	1114.31
422.94	1115.17
423.31	1116.90
423.68	1119.17
424.04	1118.94
424.41	1118.54
424.77	1116.51
425.14	1116.88
425.51	1119.71
425.87	1121.28
426.24	1122.71
426.61	1125.49
426.97	1126.80
427.34	1123.69
427.70	1122.75
428.07	1122.38
428.44	1121.63
428.80	1122.71
429.17	1122.47
429.53	1124.09
429.90	1124.49
430.27	1120.53
430.63	1117.18
431.00	1120.77
431.36	1121.07
431.73	1117.47
432.09	1121.09
432.46	1123.93
432.83	1120.06
433.19	1122.47
433.56	1126.03
433.92	1123.34
434.29	1123.78
434.65	1126.24
435.02	1123.29
435.38	1120.95
435.75	1123.15
436.11	1121.42
436.48	1120.27
436.84	1122.97
437.21	1124.00
437.57	1126.17
437.94	1125.63
438.30	1123.83
438.67	1122.22
439.03	1123.76
439.40	1119.48
439.76	1119.13
440.13	1120.67
440.49	1120.91
440.86	1119.64
441.22	1121.33
441.59	1120.55
441.95	1119.55
442.32	1117.32
442.68	1115.36
443.05	1117.30
443.41	1115.48
443.78	1116.72
444.14	1121.16
444.51	1124.86
444.87	1127.65
445.24	1131.02
445.60	1133.22
445.96	1127.53
446.33	1127.23
446.69	1124.46
447.06	1122.90
447.42	1122.05
447.79	1124.09
448.15	1120.79
448.51	1119.53
448.88	1121.16
449.24	1117.70
449.61	1115.41
449.97	1118.61
450.33	1118.66
450.70	1117.98
451.06	1120.44
451.43	1122.45
451.79	1121.49
452.15	1120.23
452.52	1119.17
452.88	1118.99
453.24	1116.27
453.61	1117.86
453.97	1117.70
454.34	1119.06
454.70	1119.53
455.06	1121.80
455.43	1122.05
455.79	1122.80
456.15	1122.38
456.52	1122.47
456.88	1122.92
457.24	1120.77
457.61	1123.50
457.97	1124.39
458.33	1123.69
458.70	1125.10
459.06	1126.27
459.42	1127.86
459.79	1131.16
460.15	1132.49
460.51	1132.70
460.88	1131.72
461.24	1129.73
461.60	1126.64
461.96	1126.69
462.33	1126.85
462.69	1124.81
463.05	1120.88
463.42	1118.96
463.78	1122.99
464.14	1122.83
464.50	1127.01
464.87	1135.02
465.23	1139.72
465.59	1139.91
465.95	1142.32
466.32	1144.26
466.68	1141.15
467.04	1142.77
467.40	1140.68
467.77	1143.38
468.13	1143.75
468.49	1145.43
468.85	1146.84
469.22	1151.03
469.58	1151.17
469.94	1156.55
470.30	1160.77
470.66	1164.42
471.03	1165.45
471.39	1167.86
471.75	1166.55
472.11	1169.33
472.47	1170.13
472.84	1177.71
473.20	1182.04
473.56	1188.36
473.92	1190.61
474.28	1197.82
474.65	1202.24
475.01	1205.54
475.37	1211.55
475.73	1217.83
476.09	1222.65
476.45	1226.63
476.81	1232.57
477.18	1238.54
477.54	1249.07
477.90	1255.49
478.26	1259.93
478.62	1271.96
478.98	1281.09
479.34	1288.91
479.71	1301.13
480.07	1313.81
480.43	1326.29
480.79	1341.55
481.15	1355.15
481.51	1369.28
481.87	1390.37
482.23	1405.96
482.59	1420.35
482.96	1440.13
483.32	1457.43
483.68	1476.39
484.04	1501.92
484.40	1525.05
484.76	1550.39
485.12	1582.23
485.48	1608.49
485.84	1628.71
486.20	1658.50
486.56	1686.15
486.92	1719.59
487.28	1755.99
487.64	1795.00
488.00	1834.18
488.37	1878.26
488.73	1915.96
489.09	1959.36
489.45	2013.31
489.81	2063.70
490.17	2118.84
490.53	2181.29
490.89	2239.42
491.25	2294.85
491.61	2360.62
491.97	2427.18
492.33	2490.19
492.69	2557.76
493.05	2639.35
493.41	2725.76
493.77	2814.21
494.13	2911.98
494.49	3013.23
494.85	3119.11
495.21	3221.00
495.57	3330.09
495.93	3443.72
496.29	3569.90
496.64	3705.19
497.00	3840.63
497.36	3976.83
497.72	4122.55
498.08	4287.39
498.44	4456.03
498.80	4646.97
499.16	4848.21
499.52	5059.98
499.88	5263.63
500.24	5474.75
500.60	5681.23
500.96	5902.32
501.32	6122.02
501.68	6358.46
502.03	6612.01
502.39	6893.86
502.75	7203.05
503.11	7530.81
503.47	7876.07
503.83	8239.46
504.19	8601.16
504.55	8977.80
504.91	9356.10
505.26	9723.40
505.62	10135.20
505.98	10598.79
506.34	11042.60
506.70	11544.55
507.06	12128.73
507.42	12699.47
507.78	13286.52
508.13	13966.73
508.49	14655.83
508.85	15349.79
509.21	16068.36
509.57	16811.46
509.93	17529.61
510.28	18237.64
510.64	19009.20
511.00	19790.59
511.36	20599.76
511.72	21478.53
512.07	22479.25
512.43	23444.42
512.79	24489.59
513.15	25589.05
513.51	26609.50
513.86	27574.09
514.22	28688.09
514.58	29849.11
514.94	30904.08
515.30	32121.04
515.65	33463.69
516.01	34668.09
516.37	35832.06
516.73	37063.74
517.08	38165.27
517.44	39140.97
517.80	40177.12
518.16	41190.39
518.51	42216.08
518.87	43321.09
519.23	44497.38
519.59	45630.52
519.94	46765.31
520.30	47887.45
520.66	48743.15
521.01	49550.69
521.37	50381.25
521.73	51048.65
522.09	51609.49
522.44	52376.79
522.80	52944.77
523.16	53288.17
523.51	53585.86
523.87	53918.59
524.23	54214.02
524.58	54430.56
524.94	54715.03
525.30	54999.08
525.65	55147.21
526.01	55158.73
526.37	55365.54
526.72	55545.76
527.08	55651.78
527.44	55625.78
527.79	55582.32
528.15	55376.70
528.51	55166.36
528.86	54964.56
529.22	54689.05
529.58	54282.57
529.93	53885.03
530.29	53281.90
530.65	52682.30
531.00	52226.95
531.36	51628.38
531.71	50945.90
532.07	50345.84
532.43	49519.30
532.78	48577.19
533.14	47875.00
533.49	47150.00
533.85	46468.53
534.21	45988.20
534.56	45549.89
534.92	44854.80
535.27	44134.66
535.63	43265.36
535.98	42303.73
536.34	41298.89
536.69	40443.10
537.05	39625.29
537.41	38888.59
537.76	38210.09
538.12	37424.70
538.47	36640.88
538.83	35968.18
539.18	35290.01
539.54	34523.67
539.89	33988.77
540.25	33528.69
540.60	32942.48
540.96	32224.40
541.31	31648.82
541.67	31137.76
542.02	30562.04
542.38	30020.79
542.73	29509.10
543.09	28916.31
543.44	28214.36
543.80	27598.24
544.15	26992.13
544.51	26552.96
544.86	26117.90
545.22	25748.94
545.57	25261.40
545.93	24720.41
546.28	24166.64
546.64	23714.64
546.99	23223.15
547.35	22793.89
547.70	22375.24
548.05	21914.30
548.41	21449.28
548.76	20920.88
549.12	20411.09
549.47	19982.46
549.83	19630.45
550.18	19210.93
550.53	18820.18
550.89	18413.23
551.24	17973.61
551.60	17546.25
551.95	17138.64
552.30	16816.26
552.66	16531.55
553.01	16246.24
553.37	15910.21
553.72	15580.97
554.07	15217.55
554.43	14855.64
554.78	14512.28
555.13	14197.57
555.49	13812.98
555.84	13466.08
556.19	13109.32
556.55	12741.15
556.90	12381.64
557.26	12166.85
557.61	11929.24
557.96	11680.84
558.32	11449.95
558.67	11191.08
559.02	10881.55
559.37	10608.36
559.73	10367.15
560.08	10132.34
560.43	9907.89
560.79	9697.96
561.14	9457.17
561.49	9220.63
561.85	9000.83
562.20	8812.80
562.55	8646.03
562.90	8470.47
563.26	8312.69
563.61	8153.35
563.96	7958.15
564.32	7730.53
564.67	7524.61
565.02	7351.18
565.37	7204.71
565.73	7043.56
566.08	6908.00
566.43	6763.31
566.78	6584.84
567.14	6403.85
567.49	6273.15
567.84	6133.28
568.19	6006.33
568.54	5904.75
568.90	5797.25
569.25	5694.73
569.60	5591.87
569.95	5509.01
570.31	5405.23
570.66	5305.50
571.01	5199.38
571.36	5098.11
571.71	4992.99
572.06	4891.32
572.42	4794.87
572.77	4689.33
573.12	4603.48
573.47	4508.32
573.82	4437.02
574.18	4364.12
574.53	4298.91
574.88	4226.75
575.23	4156.49
575.58	4069.77
575.93	3985.91
576.28	3905.89
576.64	3830.22
576.99	3752.65
577.34	3675.86
577.69	3602.15
578.04	3526.58
578.39	3448.29
578.74	3381.30
579.09	3319.25
579.44	3252.60
579.80	3192.19
580.15	3137.82
580.50	3078.58
580.85	3024.72
581.20	2976.83
581.55	2929.46
581.90	2881.34
582.25	2837.90
582.60	2787.95
582.95	2741.70
583.30	2696.48
583.65	2653.68
584.00	2607.22
584.35	2572.51
584.71	2537.09
585.06	2502.71
585.41	2468.14
585.76	2435.51
586.11	2406.47
586.46	2371.36
586.81	2331.34
587.16	2297.70
587.51	2272.29
587.86	2244.83
588.21	2222.34
588.56	2195.28
588.91	2173.07
589.26	2142.34
589.61	2109.15
589.96	2078.63
590.31	2054.43
590.66	2024.54
591.01	2005.02
591.36	1985.38
591.71	1960.46
592.06	1941.43
592.41	1922.05
592.76	1899.16
593.10	1875.96
593.45	1856.58
593.80	1839.75
594.15	1824.66
594.50	1812.32
594.85	1798.42
595.20	1783.00
595.55	1765.14
595.90	1746.95
596.25	1723.73
596.60	1702.74
596.95	1687.08
597.30	1673.39
597.64	1710.23
597.99	1703.35
598.34	1695.23
598.69	1680.13
599.04	1668.76
599.39	1605.44
599.74	1586.95
600.09	1570.66
600.44	1559.50
600.78	1544.26
601.13	1536.63
601.48	1532.09
601.83	1526.17
602.18	1516.41
602.53	1505.43
602.88	1492.93
603.22	1482.10
603.57	1471.24
603.92	1463.98
604.27	1456.49
604.62	1444.34
604.97	1434.87
605.31	1427.12
605.66	1418.32
606.01	1411.20
606.36	1405.96
606.71	1399.50
607.05	1391.87
607.40	1381.31
607.75	1374.97
608.10	1367.41
608.44	1359.27
608.79	1350.75
609.14	1347.89
609.49	1337.97
609.84	1333.38
610.18	1324.46
610.53	1319.78
610.88	1314.37
611.23	1312.31
611.57	1307.49
611.92	1306.63
612.27	1303.37
612.62	1299.07
612.96	1296.17
613.31	1291.02
613.66	1283.62
614.00	1279.22
614.35	1271.87
614.70	1263.91
615.05	1258.83
615.39	1254.04
615.74	1249.92
616.09	1246.17
616.43	1245.02
616.78	1243.67
617.13	1241.00
617.47	1237.46
617.82	1233.18
618.17	1227.19
618.51	1222.58
618.86	1219.56
619.21	1213.47
619.55	1211.51
619.90	1210.90
620.25	1205.68
620.59	1197.86
620.94	1195.38
621.29	1194.75
621.63	1189.51
621.98	1184.76
622.32	1188.57
622.67	1188.92
623.02	1184.40
623.36	1182.11
623.71	1181.88
624.05	1178.32
624.40	1177.73
624.75	1176.82
625.09	1177.76
625.44	1174.60
625.78	1174.46
626.13	1171.32
626.48	1169.00
626.82	1164.42
627.17	1164.98
627.51	1163.62
627.86	1163.18
628.20	1161.61
628.55	1160.53
628.89	1157.91
629.24	1152.90
629.58	1148.57
629.93	1148.81
630.28	1148.62
630.62	1150.49
630.97	1153.81
631.31	1153.86
631.66	1151.52
632.00	1151.99
632.35	1151.03
632.69	1146.82
633.04	1145.69
633.38	1143.96
633.73	1140.40
634.07	1135.63
634.42	1134.27
634.76	1128.96
635.11	1129.85
635.45	1129.03
635.79	1126.38
636.14	1124.72
636.48	1125.19
636.83	1125.17
637.17	1123.48
637.52	1124.70
637.86	1124.14
638.21	1122.05
638.55	1119.60
638.89	1119.01
639.24	1121.26
639.58	1119.97
639.93	1121.23
640.27	1120.95
640.61	1123.15
640.96	1118.92
641.30	1118.21
641.65	1117.14
641.99	1115.90
642.33	1114.47
642.68	1116.97
643.02	1118.17
643.37	1118.89
643.71	1117.79
644.05	1117.07
644.40	1114.68
644.74	1115.85
645.08	1114.00
645.43	1114.26
645.77	1112.18
646.11	1113.77
646.46	1112.41
646.80	1112.83
647.14	1113.07
647.49	1112.08
647.83	1112.15
648.17	1112.90
648.52	1112.95
648.86	1113.72
649.20	1113.98
649.55	1110.70
649.89	1106.70
650.23	1106.61
650.57	1105.18
650.92	1105.13
651.26	1105.76
651.60	1106.49
651.95	1106.86
652.29	1105.53
652.63	1104.12
652.97	1105.13
653.32	1106.98
653.66	1104.55
654.00	1105.44
654.34	1105.18
654.69	1102.65
655.03	1100.50
655.37	1100.29
655.71	1099.70
656.05	1099.56
656.40	1099.30
656.74	1099.21
657.08	1100.71
657.42	1101.99
657.76	1104.80
658.11	1106.91
658.45	1105.65
658.79	1104.62
659.13	1105.25
659.47	1102.72
659.82	1102.18
660.16	1102.04
660.50	1102.23
660.84	1100.31
661.18	1099.05
661.52	1099.19
661.87	1097.73
662.21	1097.24
662.55	1096.99
662.89	1097.76
663.23	1097.43
663.57	1098.39
663.91	1098.74
664.25	1101.03
664.60	1098.95
664.94	1099.61
665.28	1099.49
665.62	1101.22
665.96	1096.24
666.30	1098.41
666.64	1096.61
666.98	1096.31
667.32	1093.76
667.66	1096.52
668.01	1095.96
668.35	1094.34
668.69	1092.84
669.03	1092.16
669.37	1094.43
669.71	1093.26
670.05	1093.92
670.39	1097.88
670.73	1103.73
671.07	1096.07
671.41	1097.10
671.75	1097.66
672.09	1098.25
672.43	1094.69
672.77	1100.29
673.11	1101.13
673.45	1099.42
673.79	1096.54
674.13	1095.70
674.47	1097.27
674.81	1094.53
675.15	1098.79
675.49	1100.73
675.83	1100.03
676.17	1093.36
676.51	1093.45
676.85	1091.91
677.19	1088.42
677.53	1084.81
677.87	1088.09
678.21	1092.80
678.55	1090.17
678.89	1090.83
679.23	1092.35
679.57	1091.46
679.90	1084.16
680.24	1085.56
680.58	1085.80
680.92	1089.17
681.26	1089.31
681.60	1093.05
681.94	1092.77
682.28	1093.17
682.62	1090.10
682.96	1089.40
683.29	1090.32
683.63	1091.06
683.97	1091.09
684.31	1093.52
684.65	1094.41
684.99	1095.51
685.33	1093.24
685.67	1092.70
686.00	1089.52
686.34	1088.26
686.68	1087.11
687.02	1089.47
687.36	1089.94
687.70	1090.29
688.03	1093.97
688.37	1095.79
688.71	1093.78
689.05	1095.07
689.39	1096.96
689.72	1093.97
690.06	1089.78
690.40	1089.61
690.74	1088.16
691.08	1087.23
691.41	1085.31
691.75	1085.70
692.09	1089.89
692.43	1091.95
692.76	1091.95
693.10	1092.56
693.44	1089.43
693.78	1086.34
694.11	1085.35
694.45	1085.59
694.79	1088.16
695.13	1091.32
695.46	1092.84
695.80	1093.55
696.14	1094.25
696.48	1094.36
696.81	1094.86
697.15	1094.79
697.49	1089.26
697.82	1087.20
698.16	1085.56
698.50	1087.76
698.83	1084.28
699.17	1086.99
699.51	1089.14
699.84	1090.90
700.18	1086.90
700.52	1091.34
700.85	1093.29
701.19	1096.24
701.53	1094.65
701.86	1094.39
702.20	1095.28
702.54	1092.66
702.87	1090.06
703.21	1089.33
703.55	1090.03
703.88	1089.03
704.22	1090.27
704.55	1090.34
704.89	1093.17
705.23	1096.89
705.56	1092.21
705.90	1094.57
706.23	1096.07
706.57	1094.46
706.91	1095.28
707.24	1096.03
707.58	1092.94
707.91	1091.74
708.25	1092.70
708.58	1086.41
708.92	1086.17
709.26	1084.89
709.59	1085.26
709.93	1084.58
710.26	1087.23
710.60	1088.30
710.93	1091.13
711.27	1093.45
711.60	1092.70
711.94	1093.85
712.27	1093.87
712.61	1094.18
712.94	1092.23
713.28	1091.11
713.61	1091.16
713.95	1092.91
714.28	1092.26
714.62	1087.06
714.95	1089.00
715.29	1088.02
715.62	1085.38
715.96	1084.56
716.29	1086.13
716.63	1087.23
716.96	1087.46
717.29	1088.72
717.63	1090.53
717.96	1092.26
718.30	1089.94
718.63	1092.87
718.97	1094.06
719.30	1093.78
719.63	1092.75
719.97	1091.49
720.30	1087.58
720.64	1088.56
720.97	1088.86
721.30	1089.33
721.64	1091.56
721.97	1094.43
722.31	1091.32
722.64	1091.11
722.97	1090.83
723.31	1090.29
723.64	1088.42
723.97	1087.20
724.31	1085.03
724.64	1084.84
724.98	1084.04
725.31	1087.90
725.64	1091.42
725.98	1093.05
726.31	1093.92
726.64	1097.90
726.97	1093.26
727.31	1089.29
727.64	1091.11
727.97	1089.19
728.31	1086.99
728.64	1089.96
728.97	1090.69
729.31	1087.69
729.64	1088.58
729.97	1087.65
730.30	1087.55
730.64	1091.39
730.97	1093.69
731.30	1095.04
731.63	1093.38
731.97	1090.24
732.30	1090.06
732.63	1085.70
732.96	1084.72
733.30	1088.35
733.63	1091.06
733.96	1089.31
734.29	1094.43
734.63	1094.88
734.96	1091.13
735.29	1090.69
735.62	1090.20
735.95	1087.81
736.29	1087.27
736.62	1086.52
736.95	1085.10
737.28	1085.66
737.61	1086.85
737.94	1089.36
738.28	1089.66
738.61	1091.34
738.94	1090.48
739.27	1087.81
739.60	1087.88
739.93	1090.71
740.27	1090.92
740.60	1090.46
740.93	1092.82
741.26	1094.67
741.59	1094.86
741.92	1090.29
742.25	1092.16
742.58	1092.09
742.91	1088.33
743.25	1088.12
743.58	1090.97
743.91	1092.63
744.24	1092.63
744.57	1091.81
744.90	1093.50
745.23	1091.18
745.56	1088.37
745.89	1085.91
746.22	1087.65
746.55	1088.16
746.88	1093.17
747.21	1093.71
747.54	1095.18
747.87	1091.63
748.20	1091.02
748.53	1090.50
748.87	1089.14
749.20	1091.70
749.53	1093.38
749.86	1089.33
750.19	1086.17
750.52	1089.05
750.85	1086.76
751.18	1085.03
751.51	1085.17
751.84	1086.59
752.16	1082.40
752.49	1081.82
752.82	1081.54
753.15	1082.52
753.48	1083.22
753.81	1086.29
754.14	1084.56
754.47	1087.13
754.80	1086.17
755.13	1082.66
755.46	1082.85
755.79	1084.70
756.12	1087.69
756.45	1090.95
756.78	1093.57
757.11	1093.76
757.43	1091.88
757.76	1089.71
758.09	1086.20
758.42	1081.94
758.75	1080.39
759.08	1083.93
759.41	1084.72
759.74	1085.91
760.07	1088.04
760.39	1087.58
760.72	1085.17
761.05	1084.46
761.38	1083.67
761.71	1084.84
762.04	1086.64
762.36	1088.56
762.69	1088.86
763.02	1089.00
