SpectraSuite Data File
++++++++++++++++++++++++++++++++++++
Date: Mon Aug 26 10:26:14 PDT 2019
User: corrico
Dark Spectrum Present: No
Reference Spectrum Present: No
Number of Sampled Component Spectra: 1
Spectrometers: USB2+H06089
Integration Time (usec): 10000 (USB2+H06089)
Spectra Averaged: 20 (USB2+H06089)
Boxcar Smoothing: 2 (USB2+H06089)
Correct for Electrical Dark: No (USB2+H06089)
Strobe/Lamp Enabled: No (USB2+H06089)
Correct for Detector Non-linearity: No (USB2+H06089)
Correct for Stray Light: No (USB2+H06089)
Number of Pixels in Processed Spectrum: 2048
>>>>>Begin Processed Spectral Data<<<<<
339.70	1022.70
340.07	1022.70
340.45	990.49
340.82	970.76
341.19	950.66
341.57	924.35
341.94	916.55
342.31	908.55
342.69	906.33
343.06	900.71
343.43	901.34
343.81	901.41
344.18	903.80
344.55	906.89
344.93	914.40
345.30	924.23
345.67	930.39
346.04	942.23
346.42	950.37
346.79	957.26
347.16	964.28
347.54	975.32
347.91	983.96
348.28	992.83
348.65	1002.59
349.03	1011.49
349.40	1019.35
349.77	1024.50
350.14	1031.66
350.52	1039.48
350.89	1047.81
351.26	1056.87
351.63	1066.35
352.01	1070.96
352.38	1074.98
352.75	1076.67
353.12	1076.15
353.50	1074.82
353.87	1077.70
354.24	1079.36
354.61	1083.20
354.98	1084.77
355.36	1087.69
355.73	1088.02
356.10	1091.88
356.47	1089.78
356.84	1089.45
357.22	1088.91
357.59	1089.92
357.96	1087.76
358.33	1090.95
358.70	1090.41
359.08	1090.36
359.45	1091.65
359.82	1089.85
360.19	1088.02
360.56	1088.54
360.94	1088.42
361.31	1084.77
361.68	1086.78
362.05	1087.48
362.42	1086.06
362.79	1088.12
363.16	1089.75
363.54	1088.70
363.91	1085.70
364.28	1086.48
364.65	1085.24
365.02	1085.49
365.39	1086.22
365.76	1087.25
366.14	1087.69
366.51	1084.42
366.88	1087.69
367.25	1087.32
367.62	1086.08
367.99	1080.88
368.36	1083.86
368.73	1077.61
369.10	1076.93
369.48	1078.36
369.85	1082.50
370.22	1080.32
370.59	1081.91
370.96	1081.77
371.33	1082.69
371.70	1084.93
372.07	1089.31
372.44	1091.06
372.81	1089.14
373.18	1088.09
373.55	1088.65
373.93	1087.97
374.30	1082.29
374.67	1083.06
375.04	1081.49
375.41	1079.62
375.78	1076.39
376.15	1081.16
376.52	1080.86
376.89	1082.24
377.26	1082.57
377.63	1082.66
378.00	1082.52
378.37	1082.26
378.74	1086.01
379.11	1086.57
379.48	1089.59
379.85	1089.38
380.22	1092.56
380.59	1089.61
380.96	1089.57
381.33	1086.83
381.70	1083.95
382.07	1082.73
382.44	1083.22
382.81	1082.31
383.18	1081.94
383.55	1087.88
383.92	1087.02
384.29	1088.35
384.66	1089.07
385.03	1090.97
385.40	1088.26
385.77	1090.34
386.14	1091.84
386.51	1091.06
386.88	1089.73
387.25	1088.37
387.62	1087.39
387.99	1081.19
388.36	1084.42
388.73	1085.63
389.10	1085.52
389.46	1087.13
389.83	1089.45
390.20	1087.48
390.57	1089.59
390.94	1092.26
391.31	1091.32
391.68	1091.34
392.05	1089.85
392.42	1087.41
392.79	1086.87
393.16	1087.53
393.53	1086.80
393.89	1089.96
394.26	1090.95
394.63	1092.16
395.00	1094.01
395.37	1094.67
395.74	1093.12
396.11	1092.52
396.48	1089.50
396.84	1088.00
397.21	1090.50
397.58	1090.95
397.95	1091.49
398.32	1097.38
398.69	1096.54
399.06	1096.68
399.42	1098.30
399.79	1099.44
400.16	1095.98
400.53	1095.72
400.90	1097.10
401.27	1093.69
401.64	1093.33
402.00	1089.92
402.37	1091.60
402.74	1091.23
403.11	1093.15
403.48	1092.91
403.84	1097.08
404.21	1096.82
404.58	1097.71
404.95	1096.66
405.32	1096.38
405.68	1097.76
406.05	1096.78
406.42	1097.64
406.79	1100.29
407.16	1099.54
407.52	1097.71
407.89	1100.33
408.26	1100.47
408.63	1101.34
408.99	1101.41
409.36	1102.72
409.73	1103.75
410.10	1100.50
410.47	1101.64
410.83	1102.72
411.20	1105.34
411.57	1104.87
411.94	1108.36
412.30	1106.93
412.67	1107.85
413.04	1105.76
413.40	1105.01
413.77	1103.38
414.14	1103.21
414.51	1103.98
414.87	1103.91
415.24	1105.36
415.61	1107.00
415.97	1110.12
416.34	1110.98
416.71	1112.76
417.08	1112.85
417.44	1111.61
417.81	1112.06
418.18	1112.78
418.54	1111.24
418.91	1111.66
419.28	1112.41
419.64	1107.38
420.01	1106.63
420.38	1108.24
420.74	1109.25
421.11	1113.49
421.48	1116.86
421.84	1116.34
422.21	1116.93
422.58	1117.04
422.94	1115.59
423.31	1116.08
423.68	1121.07
424.04	1120.51
424.41	1119.76
424.77	1118.10
425.14	1121.96
425.51	1122.64
425.87	1126.20
426.24	1124.84
426.61	1127.51
426.97	1128.61
427.34	1127.97
427.70	1126.52
428.07	1128.09
428.44	1127.18
428.80	1124.11
429.17	1118.38
429.53	1117.86
429.90	1117.77
430.27	1118.99
430.63	1117.84
431.00	1121.00
431.36	1119.83
431.73	1123.78
432.09	1123.20
432.46	1126.83
432.83	1127.30
433.19	1129.17
433.56	1123.36
433.92	1124.65
434.29	1121.87
434.65	1122.01
435.02	1125.70
435.38	1128.44
435.75	1130.74
436.11	1129.71
436.48	1129.96
436.84	1125.24
437.21	1125.10
437.57	1119.57
437.94	1124.02
438.30	1122.71
438.67	1126.94
439.03	1126.38
439.40	1125.91
439.76	1124.93
440.13	1125.80
440.49	1121.70
440.86	1122.50
441.22	1121.98
441.59	1121.19
441.95	1123.39
442.32	1123.57
442.68	1124.35
443.05	1129.14
443.41	1127.65
443.78	1123.34
444.14	1120.39
444.51	1121.26
444.87	1119.62
445.24	1120.63
445.60	1123.71
445.96	1123.90
446.33	1122.97
446.69	1121.75
447.06	1120.04
447.42	1116.53
447.79	1119.90
448.15	1117.11
448.51	1117.37
448.88	1116.27
449.24	1121.40
449.61	1119.67
449.97	1121.75
450.33	1122.10
450.70	1123.71
451.06	1117.23
451.43	1115.66
451.79	1114.96
452.15	1113.86
452.52	1111.38
452.88	1116.51
453.24	1119.60
453.61	1121.54
453.97	1122.85
454.34	1123.69
454.70	1124.39
455.06	1120.39
455.43	1120.13
455.79	1119.88
456.15	1120.48
456.52	1121.30
456.88	1125.94
457.24	1127.65
457.61	1127.20
457.97	1126.29
458.33	1124.84
458.70	1123.50
459.06	1122.29
459.42	1122.43
459.79	1123.93
460.15	1122.50
460.51	1123.34
460.88	1125.12
461.24	1128.16
461.60	1128.37
461.96	1129.59
462.33	1130.15
462.69	1125.91
463.05	1123.81
463.42	1124.51
463.78	1124.88
464.14	1125.40
464.50	1128.86
464.87	1132.00
465.23	1134.88
465.59	1135.72
465.95	1139.30
466.32	1137.90
466.68	1136.10
467.04	1135.89
467.40	1137.43
467.77	1133.40
468.13	1136.31
468.49	1140.24
468.85	1143.28
469.22	1145.11
469.58	1150.09
469.94	1154.70
470.30	1156.67
470.66	1157.86
471.03	1163.50
471.39	1168.37
471.75	1171.44
472.11	1172.16
472.47	1175.00
472.84	1177.17
473.20	1177.29
473.56	1180.75
473.92	1186.93
474.28	1190.86
474.65	1195.57
475.01	1200.06
475.37	1204.30
475.73	1211.91
476.09	1220.36
476.45	1226.11
476.81	1235.29
477.18	1241.44
477.54	1245.98
477.90	1253.73
478.26	1259.54
478.62	1265.83
478.98	1274.21
479.34	1282.85
479.71	1294.48
480.07	1306.65
480.43	1321.14
480.79	1336.91
481.15	1353.70
481.51	1367.62
481.87	1384.85
482.23	1399.92
482.59	1416.40
482.96	1435.10
483.32	1452.61
483.68	1471.07
484.04	1492.63
484.40	1513.81
484.76	1538.29
485.12	1565.26
485.48	1596.03
485.84	1623.09
486.20	1652.61
486.56	1683.31
486.92	1718.40
487.28	1752.94
487.64	1790.04
488.00	1831.05
488.37	1870.32
488.73	1910.70
489.09	1954.07
489.45	2004.06
489.81	2052.93
490.17	2111.35
490.53	2164.86
490.89	2217.99
491.25	2274.74
491.61	2337.94
491.97	2407.29
492.33	2474.39
492.69	2547.30
493.05	2625.73
493.41	2713.62
493.77	2799.12
494.13	2897.54
494.49	3001.29
494.85	3105.00
495.21	3204.26
495.57	3313.96
495.93	3432.49
496.29	3550.64
496.64	3688.73
497.00	3823.50
497.36	3956.32
497.72	4105.09
498.08	4273.47
498.44	4445.40
498.80	4627.15
499.16	4825.83
499.52	5019.89
499.88	5222.88
500.24	5427.16
500.60	5641.63
500.96	5865.90
501.32	6089.82
501.68	6319.14
502.03	6572.06
502.39	6850.70
502.75	7149.05
503.11	7473.12
503.47	7813.83
503.83	8170.23
504.19	8525.49
504.55	8901.24
504.91	9277.93
505.26	9644.83
505.62	10067.37
505.98	10523.84
506.34	10976.71
506.70	11464.01
507.06	12026.70
507.42	12584.22
507.78	13168.51
508.13	13823.48
508.49	14501.54
508.85	15181.81
509.21	15886.69
509.57	16621.31
509.93	17325.84
510.28	18032.54
510.64	18825.91
511.00	19595.60
511.36	20393.53
511.72	21283.68
512.07	22295.08
512.43	23246.58
512.79	24306.35
513.15	25376.72
513.51	26373.74
513.86	27321.64
514.22	28430.42
514.58	29549.61
514.94	30634.90
515.30	31850.88
515.65	33171.34
516.01	34358.36
516.37	35520.70
516.73	36733.26
517.08	37828.07
517.44	38790.59
517.80	39832.27
518.16	40852.55
518.51	41864.37
518.87	42954.40
519.23	44145.71
519.59	45254.56
519.94	46384.88
520.30	47502.30
520.66	48379.11
521.01	49190.03
521.37	50039.48
521.73	50689.50
522.09	51258.29
522.44	51998.79
522.80	52566.56
523.16	52911.62
523.51	53216.71
523.87	53561.64
524.23	53887.04
524.58	54103.68
524.94	54382.23
525.30	54684.60
525.65	54836.90
526.01	54843.25
526.37	55042.19
526.72	55235.52
527.08	55333.33
527.44	55307.61
527.79	55237.09
528.15	55058.29
528.51	54812.14
528.86	54597.47
529.22	54294.48
529.58	53894.25
529.93	53454.42
530.29	52866.29
530.65	52283.61
531.00	51833.18
531.36	51234.54
531.71	50593.98
532.07	49998.41
532.43	49169.90
532.78	48253.68
533.14	47562.03
533.49	46807.81
533.85	46113.49
534.21	45618.38
534.56	45148.18
534.92	44454.52
535.27	43724.34
535.63	42856.75
535.98	41932.13
536.34	40970.19
536.69	40116.41
537.05	39309.23
537.41	38599.72
537.76	37910.66
538.12	37089.37
538.47	36324.95
538.83	35680.20
539.18	35001.49
539.54	34226.57
539.89	33730.51
540.25	33287.89
540.60	32694.85
540.96	31992.22
541.31	31433.96
541.67	30917.05
542.02	30320.38
542.38	29788.04
542.73	29288.79
543.09	28706.30
543.44	28021.95
543.80	27407.35
544.15	26804.17
544.51	26365.99
544.86	25944.32
545.22	25577.26
545.57	25109.59
545.93	24593.18
546.28	24043.88
546.64	23594.38
546.99	23084.19
547.35	22646.93
547.70	22219.55
548.05	21771.36
548.41	21302.01
548.76	20786.91
549.12	20290.29
549.47	19863.64
549.83	19498.93
550.18	19081.31
550.53	18698.07
550.89	18297.72
551.24	17851.99
551.60	17410.78
551.95	17013.49
552.30	16693.19
552.66	16398.64
553.01	16129.31
553.37	15821.74
553.72	15489.13
554.07	15136.60
554.43	14777.02
554.78	14425.00
555.13	14099.60
555.49	13725.09
555.84	13380.94
556.19	13038.28
556.55	12677.61
556.90	12316.09
557.26	12092.19
557.61	11846.43
557.96	11589.00
558.32	11347.13
558.67	11099.78
559.02	10794.90
559.37	10506.29
559.73	10281.25
560.08	10066.55
560.43	9846.03
560.79	9637.65
561.14	9407.78
561.49	9157.11
561.85	8930.34
562.20	8734.88
562.55	8569.78
562.90	8401.52
563.26	8247.44
563.61	8091.68
563.96	7891.33
564.32	7651.87
564.67	7448.08
565.02	7270.36
565.37	7125.69
565.73	6970.61
566.08	6836.31
566.43	6690.14
566.78	6528.46
567.14	6355.16
567.49	6229.78
567.84	6099.67
568.19	5977.99
568.54	5863.84
568.90	5749.95
569.25	5645.77
569.60	5542.65
569.95	5461.15
570.31	5366.71
570.66	5262.41
571.01	5157.42
571.36	5065.53
571.71	4956.39
572.06	4853.52
572.42	4760.86
572.77	4658.58
573.12	4566.15
573.47	4480.96
573.82	4409.29
574.18	4341.18
574.53	4266.07
574.88	4192.41
575.23	4114.83
575.58	4037.00
575.93	3950.87
576.28	3879.41
576.64	3810.09
576.99	3737.23
577.34	3655.87
577.69	3583.34
578.04	3512.00
578.39	3434.55
578.74	3364.87
579.09	3299.48
579.44	3231.09
579.80	3172.39
580.15	3114.01
580.50	3057.35
580.85	3007.28
581.20	2961.22
581.55	2911.06
581.90	2869.57
582.25	2825.26
582.60	2777.30
582.95	2739.15
583.30	2698.90
583.65	2653.70
584.00	2608.15
584.35	2572.48
584.71	2525.32
585.06	2488.22
585.41	2456.70
585.76	2429.55
586.11	2391.79
586.46	2362.47
586.81	2320.69
587.16	2285.60
587.51	2256.35
587.86	2229.27
588.21	2201.11
588.56	2178.95
588.91	2151.47
589.26	2127.59
589.61	2099.81
589.96	2075.24
590.31	2050.38
590.66	2022.71
591.01	1995.31
591.36	1973.26
591.71	1946.34
592.06	1920.90
592.41	1903.18
592.76	1883.43
593.10	1862.72
593.45	1844.51
593.80	1828.15
594.15	1810.01
594.50	1793.39
594.85	1783.84
595.20	1770.80
595.55	1753.34
595.90	1737.31
596.25	1722.00
596.60	1699.11
596.95	1681.96
597.30	1670.11
597.64	1710.02
597.99	1696.96
598.34	1684.44
598.69	1673.58
599.04	1659.16
599.39	1594.61
599.74	1581.29
600.09	1568.79
600.44	1559.05
600.78	1549.79
601.13	1539.30
601.48	1530.03
601.83	1524.13
602.18	1507.23
602.53	1494.03
602.88	1483.06
603.22	1472.92
603.57	1464.29
603.92	1459.51
604.27	1450.73
604.62	1442.07
604.97	1433.06
605.31	1423.37
605.66	1414.60
606.01	1412.21
606.36	1404.70
606.71	1395.24
607.05	1385.53
607.40	1379.75
607.75	1370.59
608.10	1362.12
608.44	1355.78
608.79	1352.10
609.14	1348.57
609.49	1339.86
609.84	1333.64
610.18	1330.17
610.53	1322.92
610.88	1314.47
611.23	1313.67
611.57	1309.16
611.92	1303.61
612.27	1301.08
612.62	1295.37
612.96	1289.21
613.31	1286.87
613.66	1278.10
614.00	1269.81
614.35	1264.47
614.70	1260.05
615.05	1255.56
615.39	1254.90
615.74	1253.97
616.09	1252.65
616.43	1249.87
616.78	1245.77
617.13	1242.19
617.47	1238.03
617.82	1235.57
618.17	1231.89
618.51	1228.20
618.86	1226.28
619.21	1223.28
619.55	1217.27
619.90	1214.90
620.25	1212.28
620.59	1208.56
620.94	1206.27
621.29	1206.64
621.63	1201.44
621.98	1198.59
622.32	1196.95
622.67	1194.19
623.02	1190.82
623.36	1191.31
623.71	1187.14
624.05	1182.39
624.40	1180.82
624.75	1177.17
625.09	1172.16
625.44	1174.46
625.78	1175.28
626.13	1174.50
626.48	1171.84
626.82	1171.56
627.17	1167.79
627.51	1163.69
627.86	1160.91
628.20	1158.59
628.55	1153.32
628.89	1149.18
629.24	1146.79
629.58	1143.94
629.93	1146.07
630.28	1146.61
630.62	1148.73
630.97	1149.67
631.31	1147.71
631.66	1146.86
632.00	1145.55
632.35	1141.46
632.69	1139.35
633.04	1139.82
633.38	1136.21
633.73	1136.12
634.07	1139.09
634.42	1141.15
634.76	1136.61
635.11	1135.39
635.45	1135.28
635.79	1127.97
636.14	1125.31
636.48	1126.24
636.83	1124.37
637.17	1118.14
637.52	1121.42
637.86	1119.13
638.21	1120.34
638.55	1120.91
638.89	1124.32
639.24	1124.02
639.58	1124.93
639.93	1122.38
640.27	1120.74
640.61	1124.09
640.96	1126.73
641.30	1126.43
641.65	1126.17
641.99	1126.06
642.33	1120.63
642.68	1113.84
643.02	1111.08
643.37	1114.63
643.71	1113.23
644.05	1114.35
644.40	1116.58
644.74	1114.45
645.08	1108.57
645.43	1107.10
645.77	1105.22
646.11	1104.57
646.46	1106.32
646.80	1109.20
647.14	1112.64
647.49	1114.12
647.83	1112.71
648.17	1116.15
648.52	1112.43
648.86	1110.28
649.20	1109.06
649.55	1110.94
649.89	1106.68
650.23	1108.20
650.57	1107.71
650.92	1108.64
651.26	1106.65
651.60	1108.43
651.95	1106.75
652.29	1104.57
652.63	1103.07
652.97	1103.35
653.32	1101.88
653.66	1102.81
654.00	1102.49
654.34	1098.98
654.69	1097.13
655.03	1099.16
655.37	1102.65
655.71	1103.87
656.05	1106.51
656.40	1107.54
656.74	1105.39
657.08	1105.06
657.42	1104.29
657.76	1102.46
658.11	1104.83
658.45	1105.76
658.79	1103.05
659.13	1102.04
659.47	1102.93
659.82	1100.80
660.16	1098.48
660.50	1096.03
660.84	1096.96
661.18	1099.79
661.52	1097.48
661.87	1098.86
662.21	1098.65
662.55	1100.00
662.89	1095.91
663.23	1096.63
663.57	1095.11
663.91	1094.22
664.25	1095.67
664.60	1093.19
664.94	1094.20
665.28	1093.80
665.62	1095.16
665.96	1096.07
666.30	1102.81
666.64	1103.42
666.98	1101.48
667.32	1102.28
667.66	1101.01
668.01	1099.86
668.35	1098.09
668.69	1099.56
669.03	1101.11
669.37	1098.65
669.71	1096.21
670.05	1098.58
670.39	1100.71
670.73	1099.77
671.07	1098.72
671.41	1101.83
671.75	1101.71
672.09	1101.43
672.43	1100.05
672.77	1100.96
673.11	1094.48
673.45	1092.30
673.79	1091.42
674.13	1088.70
674.47	1088.00
674.81	1090.29
675.15	1089.66
675.49	1092.42
675.83	1096.00
676.17	1096.89
676.51	1100.64
676.85	1099.21
677.19	1095.75
677.53	1092.89
677.87	1092.14
678.21	1089.99
678.55	1092.73
678.89	1091.91
679.23	1094.41
679.57	1095.51
679.90	1097.55
680.24	1094.29
680.58	1094.43
680.92	1094.97
681.26	1091.32
681.60	1088.09
681.94	1091.81
682.28	1092.12
682.62	1094.27
682.96	1097.78
683.29	1097.69
683.63	1094.25
683.97	1094.72
684.31	1090.97
684.65	1089.29
684.99	1089.54
685.33	1092.02
685.67	1090.27
686.00	1089.29
686.34	1090.69
686.68	1088.72
687.02	1087.93
687.36	1089.71
687.70	1091.86
688.03	1093.38
688.37	1096.61
688.71	1096.85
689.05	1096.26
689.39	1096.85
689.72	1094.11
690.06	1092.52
690.40	1095.35
690.74	1092.54
691.08	1093.50
691.41	1097.52
691.75	1097.08
692.09	1094.39
692.43	1101.60
692.76	1098.79
693.10	1097.80
693.44	1096.40
693.78	1097.69
694.11	1094.50
694.45	1098.72
694.79	1095.46
695.13	1097.48
695.46	1094.69
695.80	1093.99
696.14	1091.98
696.48	1092.42
696.81	1092.30
697.15	1093.90
697.49	1093.55
697.82	1091.44
698.16	1092.70
698.50	1091.72
698.83	1091.77
699.17	1089.64
699.51	1090.64
699.84	1089.82
700.18	1086.92
700.52	1084.11
700.85	1086.06
701.19	1083.39
701.53	1085.87
701.86	1092.84
702.20	1094.11
702.54	1094.79
702.87	1098.11
703.21	1096.47
703.55	1092.87
703.88	1092.21
704.22	1093.52
704.55	1091.44
704.89	1090.06
705.23	1089.78
705.56	1091.09
705.90	1090.55
706.23	1090.24
706.57	1090.29
706.91	1090.50
707.24	1088.42
707.58	1087.27
707.91	1085.21
708.25	1087.55
708.58	1087.04
708.92	1089.03
709.26	1087.20
709.59	1088.68
709.93	1088.79
710.26	1089.73
710.60	1090.76
710.93	1093.26
711.27	1095.07
711.60	1093.38
711.94	1094.60
712.27	1093.59
712.61	1091.39
712.94	1091.86
713.28	1092.91
713.61	1095.04
713.95	1097.29
714.28	1096.66
714.62	1094.41
714.95	1092.94
715.29	1088.19
715.62	1086.22
715.96	1087.90
716.29	1088.33
716.63	1089.85
716.96	1091.04
717.29	1088.02
717.63	1087.81
717.96	1088.47
718.30	1085.80
718.63	1085.07
718.97	1085.82
719.30	1084.72
719.63	1087.81
719.97	1089.07
720.30	1087.23
720.64	1089.50
720.97	1091.13
721.30	1090.46
721.64	1088.30
721.97	1090.20
722.31	1089.05
722.64	1089.17
722.97	1083.86
723.31	1082.19
723.64	1081.47
723.97	1082.71
724.31	1083.48
724.64	1084.74
724.98	1086.62
725.31	1088.86
725.64	1090.62
725.98	1090.15
726.31	1089.19
726.64	1091.42
726.97	1090.13
727.31	1086.48
727.64	1083.69
727.97	1085.54
728.31	1085.54
728.64	1083.69
728.97	1085.45
729.31	1088.14
729.64	1088.44
729.97	1088.28
730.30	1087.62
730.64	1088.98
730.97	1089.68
731.30	1089.38
731.63	1088.82
731.97	1091.42
732.30	1092.19
732.63	1089.31
732.96	1088.09
733.30	1086.24
733.63	1086.94
733.96	1082.69
734.29	1084.30
734.63	1086.08
734.96	1087.30
735.29	1084.58
735.62	1085.33
735.95	1083.74
736.29	1086.29
736.62	1088.26
736.95	1091.56
737.28	1093.12
737.61	1092.84
737.94	1090.90
738.28	1090.41
738.61	1092.30
738.94	1090.69
739.27	1089.52
739.60	1087.32
739.93	1089.66
740.27	1088.61
740.60	1089.82
740.93	1094.86
741.26	1091.67
741.59	1090.34
741.92	1087.58
742.25	1084.70
742.58	1081.80
742.91	1085.54
743.25	1084.65
743.58	1087.37
743.91	1091.04
744.24	1091.32
744.57	1092.19
744.90	1090.60
745.23	1085.52
745.56	1082.01
745.89	1082.87
746.22	1082.24
746.55	1082.24
746.88	1084.58
747.21	1089.92
747.54	1086.48
747.87	1087.90
748.20	1089.89
748.53	1092.37
748.87	1087.37
749.20	1086.69
749.53	1086.34
749.86	1084.51
750.19	1083.81
750.52	1084.86
750.85	1090.13
751.18	1088.65
751.51	1087.46
751.84	1086.41
752.16	1088.61
752.49	1087.95
752.82	1088.82
753.15	1090.32
753.48	1089.45
753.81	1085.42
754.14	1084.93
754.47	1086.59
754.80	1086.10
755.13	1084.39
755.46	1089.87
755.79	1085.12
756.12	1086.38
756.45	1087.41
756.78	1088.82
757.11	1087.32
757.43	1091.98
757.76	1090.27
758.09	1086.45
758.42	1087.32
758.75	1088.68
759.08	1089.47
759.41	1092.14
759.74	1094.76
760.07	1094.90
760.39	1092.70
760.72	1089.40
761.05	1087.06
761.38	1089.82
761.71	1090.29
762.04	1091.34
762.36	1091.95
762.69	1091.27
763.02	1090.69
