SpectraSuite Data File
++++++++++++++++++++++++++++++++++++
Date: Mon Aug 26 10:26:02 PDT 2019
User: corrico
Dark Spectrum Present: No
Reference Spectrum Present: No
Number of Sampled Component Spectra: 1
Spectrometers: USB2+H06089
Integration Time (usec): 10000 (USB2+H06089)
Spectra Averaged: 2 (USB2+H06089)
Boxcar Smoothing: 2 (USB2+H06089)
Correct for Electrical Dark: No (USB2+H06089)
Strobe/Lamp Enabled: No (USB2+H06089)
Correct for Detector Non-linearity: No (USB2+H06089)
Correct for Stray Light: No (USB2+H06089)
Number of Pixels in Processed Spectrum: 2048
>>>>>Begin Processed Spectral Data<<<<<
339.70	1009.94
340.07	1009.94
340.45	1000.81
340.82	990.98
341.19	965.47
341.57	932.24
341.94	916.09
342.31	895.25
342.69	877.00
343.06	884.02
343.43	894.79
343.81	887.06
344.18	901.34
344.55	912.11
344.93	913.51
345.30	922.87
345.67	946.51
346.04	948.85
346.42	959.39
346.79	970.62
347.16	971.09
347.54	971.09
347.91	978.58
348.28	975.54
348.65	975.77
349.03	984.43
349.40	994.26
349.77	999.88
350.14	1022.58
350.52	1034.05
350.89	1037.09
351.26	1039.43
351.63	1043.64
352.01	1038.96
352.38	1042.94
352.75	1064.94
353.12	1068.45
353.50	1064.01
353.87	1063.54
354.24	1067.99
354.61	1056.52
354.98	1062.37
355.36	1063.54
355.73	1067.75
356.10	1069.16
356.47	1067.28
356.84	1072.43
357.22	1075.71
357.59	1070.56
357.96	1069.39
358.33	1071.03
358.70	1075.71
359.08	1077.82
359.45	1088.35
359.82	1091.63
360.19	1091.16
360.56	1080.63
360.94	1090.46
361.31	1079.92
361.68	1078.28
362.05	1079.92
362.42	1074.31
362.79	1069.16
363.16	1090.22
363.54	1084.84
363.91	1086.48
364.28	1089.75
364.65	1091.86
365.02	1069.39
365.39	1075.94
365.76	1073.60
366.14	1067.99
366.51	1065.18
366.88	1070.80
367.25	1062.84
367.62	1064.71
367.99	1072.20
368.36	1068.69
368.73	1066.82
369.10	1070.80
369.48	1072.43
369.85	1072.43
370.22	1076.88
370.59	1088.35
370.96	1082.73
371.33	1076.65
371.70	1060.96
372.07	1056.75
372.44	1044.35
372.81	1049.73
373.18	1056.28
373.55	1056.99
373.93	1057.22
374.30	1066.35
374.67	1072.43
375.04	1071.73
375.41	1087.18
375.78	1092.56
376.15	1085.77
376.52	1071.50
376.89	1072.43
377.26	1072.90
377.63	1063.31
378.00	1062.84
378.37	1058.39
378.74	1045.28
379.11	1029.13
379.48	1034.28
379.85	1035.22
380.22	1041.77
380.59	1043.64
380.96	1053.94
381.33	1059.09
381.70	1059.09
382.07	1069.16
382.44	1084.60
382.81	1085.07
383.18	1089.29
383.55	1091.63
383.92	1088.58
384.29	1084.14
384.66	1082.97
385.03	1078.05
385.40	1074.54
385.77	1072.67
386.14	1062.84
386.51	1066.11
386.88	1063.77
387.25	1064.71
387.62	1072.43
387.99	1074.54
388.36	1082.50
388.73	1078.99
389.10	1083.20
389.46	1080.39
389.83	1084.37
390.20	1073.84
390.57	1082.50
390.94	1074.07
391.31	1073.60
391.68	1079.46
392.05	1081.33
392.42	1067.99
392.79	1081.09
393.16	1069.39
393.53	1064.01
393.89	1058.16
394.26	1066.11
394.63	1065.18
395.00	1075.01
395.37	1077.58
395.74	1090.92
396.11	1093.03
396.48	1096.07
396.84	1091.63
397.21	1090.92
397.58	1073.37
397.95	1076.41
398.32	1074.54
398.69	1071.73
399.06	1075.01
399.42	1071.50
399.79	1068.45
400.16	1054.41
400.53	1051.84
400.90	1048.09
401.27	1048.09
401.64	1044.82
402.00	1053.48
402.37	1069.86
402.74	1064.48
403.11	1069.86
403.48	1074.54
403.84	1067.99
404.21	1056.99
404.58	1064.48
404.95	1075.01
405.32	1068.92
405.68	1071.73
406.05	1063.07
406.42	1056.75
406.79	1060.03
407.16	1052.54
407.52	1062.14
407.89	1070.80
408.26	1076.88
408.63	1068.22
408.99	1089.52
409.36	1088.35
409.73	1087.65
410.10	1098.41
410.47	1098.18
410.83	1081.33
411.20	1065.88
411.57	1060.50
411.94	1058.39
412.30	1064.24
412.67	1071.50
413.04	1089.99
413.40	1098.41
413.77	1080.86
414.14	1078.28
414.51	1080.16
414.87	1060.03
415.24	1065.88
415.61	1077.35
415.97	1070.33
416.34	1072.20
416.71	1087.18
417.08	1075.71
417.44	1067.05
417.81	1068.45
418.18	1055.58
418.54	1051.84
418.91	1056.99
419.28	1060.50
419.64	1056.28
420.01	1065.65
420.38	1063.77
420.74	1068.69
421.11	1075.48
421.48	1088.12
421.84	1079.22
422.21	1083.67
422.58	1070.80
422.94	1065.41
423.31	1068.45
423.68	1076.18
424.04	1063.77
424.41	1062.84
424.77	1063.54
425.14	1052.54
425.51	1049.50
425.87	1059.33
426.24	1065.65
426.61	1062.14
426.97	1072.43
427.34	1075.94
427.70	1071.97
428.07	1077.58
428.44	1083.43
428.80	1078.99
429.17	1074.54
429.53	1080.39
429.90	1084.60
430.27	1078.99
430.63	1075.48
431.00	1082.97
431.36	1085.07
431.73	1083.67
432.09	1083.67
432.46	1084.37
432.83	1086.01
433.19	1081.09
433.56	1081.33
433.92	1081.33
434.29	1080.16
434.65	1072.67
435.02	1069.39
435.38	1068.45
435.75	1070.33
436.11	1074.77
436.48	1080.86
436.84	1078.99
437.21	1082.97
437.57	1086.48
437.94	1091.39
438.30	1083.90
438.67	1083.20
439.03	1072.90
439.40	1064.94
439.76	1062.84
440.13	1063.54
440.49	1065.18
440.86	1071.50
441.22	1081.33
441.59	1074.31
441.95	1080.86
442.32	1095.60
442.68	1097.24
443.05	1082.50
443.41	1083.67
443.78	1089.52
444.14	1070.80
444.51	1067.99
444.87	1079.22
445.24	1077.11
445.60	1072.90
445.96	1085.07
446.33	1090.92
446.69	1084.14
447.06	1095.14
447.42	1083.67
447.79	1074.54
448.15	1063.54
448.51	1071.73
448.88	1063.54
449.24	1067.05
449.61	1074.07
449.97	1074.31
450.33	1071.03
450.70	1067.28
451.06	1071.73
451.43	1065.65
451.79	1062.60
452.15	1056.75
452.52	1065.65
452.88	1066.82
453.24	1079.92
453.61	1095.37
453.97	1111.99
454.34	1107.31
454.70	1098.88
455.06	1089.05
455.43	1071.50
455.79	1062.60
456.15	1056.99
456.52	1057.92
456.88	1060.96
457.24	1075.94
457.61	1074.54
457.97	1071.97
458.33	1075.94
458.70	1079.22
459.06	1075.24
459.42	1076.88
459.79	1084.60
460.15	1089.29
460.51	1081.56
460.88	1081.09
461.24	1086.01
461.60	1087.41
461.96	1092.80
462.33	1102.86
462.69	1100.52
463.05	1091.16
463.42	1095.84
463.78	1082.73
464.14	1067.28
464.50	1063.07
464.87	1061.20
465.23	1047.62
465.59	1050.67
465.95	1068.45
466.32	1075.94
466.68	1087.41
467.04	1087.18
467.40	1086.01
467.77	1079.69
468.13	1082.26
468.49	1072.90
468.85	1076.88
469.22	1079.22
469.58	1081.56
469.94	1076.41
470.30	1080.39
470.66	1082.50
471.03	1085.77
471.39	1083.20
471.75	1083.43
472.11	1083.90
472.47	1078.75
472.84	1080.39
473.20	1080.39
473.56	1081.33
473.92	1075.71
474.28	1086.24
474.65	1082.50
475.01	1077.82
475.37	1065.88
475.73	1065.18
476.09	1055.58
476.45	1064.48
476.81	1070.33
477.18	1075.94
477.54	1084.37
477.90	1096.31
478.26	1085.77
478.62	1079.46
478.98	1087.41
479.34	1078.75
479.71	1068.92
480.07	1060.73
480.43	1058.86
480.79	1056.28
481.15	1064.48
481.51	1069.62
481.87	1081.09
482.23	1083.20
482.59	1086.48
482.96	1083.43
483.32	1080.39
483.68	1083.67
484.04	1093.50
484.40	1088.12
484.76	1096.07
485.12	1094.90
485.48	1088.35
485.84	1079.22
486.20	1078.99
486.56	1073.14
486.92	1076.41
487.28	1079.22
487.64	1074.54
488.00	1074.54
488.37	1066.35
488.73	1071.97
489.09	1068.69
489.45	1070.33
489.81	1074.77
490.17	1078.75
490.53	1071.97
490.89	1070.09
491.25	1067.99
491.61	1061.67
491.97	1060.26
492.33	1066.11
492.69	1078.28
493.05	1079.22
493.41	1077.82
493.77	1081.56
494.13	1075.94
494.49	1062.84
494.85	1075.01
495.21	1076.65
495.57	1078.99
495.93	1075.24
496.29	1078.05
496.64	1065.41
497.00	1074.54
497.36	1080.86
497.72	1089.99
498.08	1097.95
498.44	1109.18
498.80	1094.43
499.16	1081.56
499.52	1082.73
499.88	1076.18
500.24	1080.86
500.60	1088.35
500.96	1097.48
501.32	1092.80
501.68	1092.33
502.03	1083.20
502.39	1089.05
502.75	1092.09
503.11	1089.75
503.47	1093.50
503.83	1095.37
504.19	1083.43
504.55	1074.07
504.91	1072.43
505.26	1068.45
505.62	1068.22
505.98	1075.94
506.34	1075.24
506.70	1081.56
507.06	1080.63
507.42	1085.07
507.78	1083.90
508.13	1099.82
508.49	1091.39
508.85	1096.07
509.21	1086.24
509.57	1092.56
509.93	1082.03
510.28	1091.16
510.64	1080.86
511.00	1083.20
511.36	1084.60
511.72	1090.46
512.07	1085.31
512.43	1096.07
512.79	1108.01
513.15	1104.73
513.51	1092.09
513.86	1094.67
514.22	1093.03
514.58	1089.05
514.94	1082.03
515.30	1089.52
515.65	1094.20
516.01	1102.86
516.37	1093.26
516.73	1101.92
517.08	1100.29
517.44	1097.48
517.80	1091.86
518.16	1097.48
518.51	1104.50
518.87	1099.58
519.23	1102.16
519.59	1101.46
519.94	1101.22
520.30	1086.24
520.66	1091.63
521.01	1094.20
521.37	1096.07
521.73	1097.71
522.09	1102.16
522.44	1100.52
522.80	1098.65
523.16	1101.92
523.51	1104.26
523.87	1102.86
524.23	1103.33
524.58	1093.50
524.94	1090.69
525.30	1078.52
525.65	1081.33
526.01	1079.22
526.37	1082.03
526.72	1077.11
527.08	1096.54
527.44	1095.14
527.79	1096.54
528.15	1110.58
528.51	1109.88
528.86	1099.12
529.22	1096.07
529.58	1103.56
529.93	1101.92
530.29	1115.03
530.65	1120.41
531.00	1116.67
531.36	1100.99
531.71	1093.50
532.07	1075.24
532.43	1060.96
532.78	1075.71
533.14	1091.86
533.49	1090.22
533.85	1100.99
534.21	1113.63
534.56	1104.03
534.92	1097.71
535.27	1101.22
535.63	1099.82
535.98	1101.92
536.34	1102.86
536.69	1099.12
537.05	1096.07
537.41	1097.48
537.76	1089.75
538.12	1089.52
538.47	1091.39
538.83	1089.05
539.18	1085.54
539.54	1088.58
539.89	1085.54
540.25	1089.99
540.60	1092.56
540.96	1095.60
541.31	1095.37
541.67	1101.69
542.02	1099.35
542.38	1099.82
542.73	1099.12
543.09	1107.07
543.44	1103.80
543.80	1107.78
544.15	1107.31
544.51	1102.16
544.86	1101.22
545.22	1102.86
545.57	1098.18
545.93	1093.26
546.28	1090.22
546.64	1086.01
546.99	1093.97
547.35	1101.69
547.70	1109.18
548.05	1108.48
548.41	1100.29
548.76	1092.80
549.12	1088.35
549.47	1089.29
549.83	1096.54
550.18	1101.46
550.53	1098.65
550.89	1091.39
551.24	1095.84
551.60	1086.01
551.95	1085.77
552.30	1085.54
552.66	1090.46
553.01	1086.01
553.37	1093.26
553.72	1095.37
554.07	1096.07
554.43	1098.18
554.78	1091.16
555.13	1088.82
555.49	1084.14
555.84	1089.52
556.19	1086.48
556.55	1084.84
556.90	1077.58
557.26	1069.16
557.61	1057.22
557.96	1051.13
558.32	1052.07
558.67	1058.39
559.02	1067.75
559.37	1085.31
559.73	1089.52
560.08	1098.18
560.43	1100.52
560.79	1102.86
561.14	1094.90
561.49	1097.71
561.85	1093.50
562.20	1100.29
562.55	1097.24
562.90	1089.29
563.26	1087.18
563.61	1083.67
563.96	1081.56
564.32	1078.75
564.67	1080.16
565.02	1083.43
565.37	1082.73
565.73	1074.31
566.08	1068.22
566.43	1070.80
566.78	1060.96
567.14	1061.20
567.49	1064.94
567.84	1071.03
568.19	1073.37
568.54	1076.18
568.90	1083.90
569.25	1084.37
569.60	1077.58
569.95	1072.43
570.31	1074.77
570.66	1058.39
571.01	1064.01
571.36	1071.26
571.71	1078.52
572.06	1084.14
572.42	1087.41
572.77	1078.52
573.12	1081.56
573.47	1081.80
573.82	1077.82
574.18	1085.31
574.53	1088.82
574.88	1082.26
575.23	1073.14
575.58	1072.43
575.93	1075.71
576.28	1076.65
576.64	1078.52
576.99	1076.41
577.34	1084.84
577.69	1080.16
578.04	1080.86
578.39	1076.88
578.74	1084.14
579.09	1078.05
579.44	1076.41
579.80	1071.26
580.15	1079.69
580.50	1079.46
580.85	1081.33
581.20	1081.33
581.55	1076.88
581.90	1076.41
582.25	1081.80
582.60	1080.16
582.95	1087.41
583.30	1098.65
583.65	1102.86
584.00	1095.84
584.35	1096.31
584.71	1083.43
585.06	1084.37
585.41	1088.12
585.76	1096.78
586.11	1098.65
586.46	1105.90
586.81	1102.86
587.16	1099.12
587.51	1100.29
587.86	1106.84
588.21	1107.07
588.56	1105.67
588.91	1103.09
589.26	1095.60
589.61	1083.67
589.96	1073.84
590.31	1076.65
590.66	1065.65
591.01	1065.41
591.36	1057.22
591.71	1069.39
592.06	1066.82
592.41	1070.80
592.76	1069.16
593.10	1079.22
593.45	1076.88
593.80	1081.56
594.15	1085.07
594.50	1087.41
594.85	1089.75
595.20	1086.01
595.55	1082.50
595.90	1085.31
596.25	1075.01
596.60	1082.03
596.95	1088.82
597.30	1074.31
597.64	1116.67
597.99	1135.86
598.34	1129.54
598.69	1129.54
599.04	1142.18
599.39	1101.22
599.74	1087.18
600.09	1082.73
600.44	1072.20
600.78	1067.52
601.13	1066.11
601.48	1068.92
601.83	1070.33
602.18	1075.48
602.53	1083.20
602.88	1089.99
603.22	1089.05
603.57	1091.39
603.92	1088.35
604.27	1087.65
604.62	1077.35
604.97	1075.48
605.31	1080.63
605.66	1079.22
606.01	1069.62
606.36	1072.43
606.71	1084.14
607.05	1074.77
607.40	1073.14
607.75	1082.03
608.10	1085.54
608.44	1088.12
608.79	1086.01
609.14	1091.63
609.49	1087.88
609.84	1093.97
610.18	1091.63
610.53	1096.54
610.88	1090.46
611.23	1089.75
611.57	1083.67
611.92	1078.75
612.27	1082.50
612.62	1095.84
612.96	1106.37
613.31	1094.67
613.66	1092.33
614.00	1082.73
614.35	1070.56
614.70	1064.94
615.05	1072.43
615.39	1072.43
615.74	1071.03
616.09	1077.11
616.43	1075.94
616.78	1074.54
617.13	1076.41
617.47	1083.67
617.82	1081.33
618.17	1081.56
618.51	1079.92
618.86	1072.90
619.21	1075.24
619.55	1077.82
619.90	1075.71
620.25	1083.67
620.59	1089.75
620.94	1090.92
621.29	1093.50
621.63	1093.50
621.98	1084.84
622.32	1087.18
622.67	1082.97
623.02	1083.67
623.36	1084.84
623.71	1083.20
624.05	1079.46
624.40	1082.26
624.75	1086.94
625.09	1090.69
625.44	1100.05
625.78	1101.22
626.13	1101.92
626.48	1102.39
626.82	1099.82
627.17	1091.39
627.51	1089.29
627.86	1092.56
628.20	1087.88
628.55	1085.77
628.89	1092.33
629.24	1089.99
629.58	1081.56
629.93	1088.58
630.28	1090.69
630.62	1087.88
630.97	1094.90
631.31	1092.33
631.66	1082.03
632.00	1069.62
632.35	1069.62
632.69	1062.84
633.04	1067.28
633.38	1071.26
633.73	1090.69
634.07	1095.84
634.42	1099.12
634.76	1100.29
635.11	1103.09
635.45	1085.77
635.79	1090.22
636.14	1090.92
636.48	1082.73
636.83	1083.43
637.17	1100.05
637.52	1089.29
637.86	1089.75
638.21	1087.18
638.55	1081.09
638.89	1070.33
639.24	1071.50
639.58	1070.56
639.93	1079.92
640.27	1081.80
640.61	1084.84
640.96	1079.92
641.30	1085.77
641.65	1086.48
641.99	1089.05
642.33	1083.90
642.68	1091.63
643.02	1097.71
643.37	1092.33
643.71	1082.50
644.05	1081.80
644.40	1083.67
644.74	1075.24
645.08	1080.16
645.43	1081.33
645.77	1097.01
646.11	1088.58
646.46	1089.99
646.80	1087.88
647.14	1089.75
647.49	1078.05
647.83	1082.97
648.17	1078.52
648.52	1078.99
648.86	1084.60
649.20	1090.46
649.55	1091.16
649.89	1080.86
650.23	1087.41
650.57	1080.39
650.92	1074.77
651.26	1069.62
651.60	1079.92
651.95	1072.67
652.29	1072.20
652.63	1070.09
652.97	1078.05
653.32	1072.43
653.66	1074.77
654.00	1079.22
654.34	1086.94
654.69	1089.29
655.03	1090.69
655.37	1089.75
655.71	1087.65
656.05	1077.82
656.40	1072.43
656.74	1071.73
657.08	1074.31
657.42	1076.18
657.76	1074.54
658.11	1078.05
658.45	1083.20
658.79	1071.73
659.13	1076.41
659.47	1083.90
659.82	1081.56
660.16	1077.11
660.50	1087.88
660.84	1084.84
661.18	1084.84
661.52	1082.26
661.87	1088.82
662.21	1085.77
662.55	1087.41
662.89	1094.43
663.23	1096.07
663.57	1099.12
663.91	1101.22
664.25	1100.52
664.60	1088.82
664.94	1088.35
665.28	1084.37
665.62	1086.48
665.96	1078.75
666.30	1080.63
666.64	1087.41
666.98	1080.63
667.32	1080.16
667.66	1076.65
668.01	1074.77
668.35	1061.67
668.69	1064.24
669.03	1061.43
669.37	1070.09
669.71	1073.84
670.05	1079.46
670.39	1081.80
670.73	1082.26
671.07	1067.75
671.41	1074.31
671.75	1071.03
672.09	1067.52
672.43	1058.39
672.77	1073.84
673.11	1063.54
673.45	1068.92
673.79	1072.90
674.13	1078.99
674.47	1078.28
674.81	1077.82
675.15	1078.52
675.49	1080.39
675.83	1085.54
676.17	1087.88
676.51	1097.71
676.85	1086.24
677.19	1091.86
677.53	1091.39
677.87	1086.01
678.21	1080.16
678.55	1085.54
678.89	1076.65
679.23	1074.31
679.57	1078.28
679.90	1077.58
680.24	1068.45
680.58	1064.94
680.92	1071.03
681.26	1077.11
681.60	1078.75
681.94	1097.01
682.28	1107.54
682.62	1107.31
682.96	1109.88
683.29	1106.84
683.63	1094.67
683.97	1087.18
684.31	1079.69
684.65	1067.05
684.99	1072.67
685.33	1076.65
685.67	1074.31
686.00	1084.37
686.34	1086.71
686.68	1081.09
687.02	1081.56
687.36	1080.63
687.70	1084.84
688.03	1081.33
688.37	1083.20
688.71	1075.71
689.05	1079.69
689.39	1062.60
689.72	1069.86
690.06	1075.94
690.40	1083.67
690.74	1088.12
691.08	1099.58
691.41	1096.78
691.75	1091.63
692.09	1100.05
692.43	1092.56
692.76	1085.31
693.10	1085.07
693.44	1080.63
693.78	1077.11
694.11	1078.75
694.45	1073.37
694.79	1073.14
695.13	1073.84
695.46	1069.62
695.80	1069.62
696.14	1070.09
696.48	1073.84
696.81	1082.26
697.15	1076.18
697.49	1076.18
697.82	1076.65
698.16	1074.54
698.50	1061.90
698.83	1070.80
699.17	1072.90
699.51	1077.82
699.84	1068.45
700.18	1084.37
700.52	1075.71
700.85	1068.45
701.19	1066.58
701.53	1080.63
701.86	1076.88
702.20	1084.14
702.54	1093.50
702.87	1092.56
703.21	1074.54
703.55	1061.67
703.88	1063.31
704.22	1056.52
704.55	1051.60
704.89	1058.16
705.23	1060.26
705.56	1061.20
705.90	1071.50
706.23	1083.67
706.57	1088.35
706.91	1087.88
707.24	1086.71
707.58	1079.92
707.91	1071.26
708.25	1072.90
708.58	1075.48
708.92	1074.54
709.26	1074.77
709.59	1083.43
709.93	1090.92
710.26	1092.09
710.60	1092.56
710.93	1094.90
711.27	1087.88
711.60	1075.94
711.94	1074.77
712.27	1072.67
712.61	1069.16
712.94	1075.01
713.28	1070.56
713.61	1077.11
713.95	1067.75
714.28	1069.39
714.62	1061.20
714.95	1077.58
715.29	1068.22
715.62	1074.07
715.96	1073.37
716.29	1077.11
716.63	1052.30
716.96	1056.52
717.29	1053.94
717.63	1051.13
717.96	1053.24
718.30	1063.31
718.63	1065.41
718.97	1076.65
719.30	1069.62
719.63	1069.86
719.97	1079.22
720.30	1073.14
720.64	1074.31
720.97	1091.39
721.30	1086.24
721.64	1093.97
721.97	1104.73
722.31	1106.37
722.64	1104.97
722.97	1107.07
723.31	1097.01
723.64	1103.80
723.97	1090.46
724.31	1084.14
724.64	1089.52
724.98	1076.41
725.31	1064.24
725.64	1076.18
725.98	1069.16
726.31	1069.16
726.64	1086.94
726.97	1092.09
727.31	1085.77
727.64	1093.50
727.97	1092.09
728.31	1080.39
728.64	1076.41
728.97	1074.54
729.31	1080.86
729.64	1073.14
729.97	1078.75
730.30	1079.92
730.64	1087.18
730.97	1082.26
731.30	1085.54
731.63	1082.03
731.97	1085.07
732.30	1077.58
732.63	1076.88
732.96	1078.52
733.30	1078.75
733.63	1084.37
733.96	1090.46
734.29	1087.88
734.63	1086.48
734.96	1089.99
735.29	1077.35
735.62	1080.39
735.95	1082.50
736.29	1079.92
736.62	1077.11
736.95	1083.43
737.28	1075.01
737.61	1074.54
737.94	1077.82
738.28	1080.86
738.61	1080.39
738.94	1093.03
739.27	1094.67
739.60	1096.31
739.93	1092.09
740.27	1083.43
740.60	1075.01
740.93	1072.43
741.26	1073.14
741.59	1070.33
741.92	1074.31
742.25	1073.14
742.58	1083.20
742.91	1079.69
743.25	1077.58
743.58	1078.05
743.91	1075.48
744.24	1065.65
744.57	1068.92
744.90	1082.26
745.23	1087.65
745.56	1088.82
745.89	1087.41
746.22	1080.39
746.55	1076.41
746.88	1079.22
747.21	1077.11
747.54	1090.92
747.87	1092.33
748.20	1091.16
748.53	1082.03
748.87	1088.82
749.20	1071.50
749.53	1078.28
749.86	1091.63
750.19	1094.43
750.52	1088.82
750.85	1088.58
751.18	1082.26
751.51	1076.18
751.84	1079.46
752.16	1078.28
752.49	1090.46
752.82	1099.12
753.15	1085.07
753.48	1084.84
753.81	1091.39
754.14	1086.94
754.47	1077.82
754.80	1088.35
755.13	1082.26
755.46	1077.35
755.79	1081.09
756.12	1088.12
756.45	1082.73
756.78	1086.94
757.11	1088.58
757.43	1080.86
757.76	1082.03
758.09	1088.58
758.42	1077.35
758.75	1068.45
759.08	1067.05
759.41	1058.39
759.74	1056.75
760.07	1072.67
760.39	1082.73
760.72	1082.73
761.05	1097.24
761.38	1100.75
761.71	1093.73
762.04	1106.37
762.36	1109.41
762.69	1106.14
763.02	1107.78
763.35	1104.03
763.68	1094.43
764.01	1093.50
764.33	1088.58
764.66	1080.16
764.99	1085.07
765.32	1080.39
765.65	1082.26
765.97	1077.35
766.30	1074.31
