SpectraSuite Data File
++++++++++++++++++++++++++++++++++++
Date: Mon Aug 26 10:25:59 PDT 2019
User: corrico
Dark Spectrum Present: No
Reference Spectrum Present: No
Number of Sampled Component Spectra: 1
Spectrometers: USB2+H06089
Integration Time (usec): 10000 (USB2+H06089)
Spectra Averaged: 2 (USB2+H06089)
Boxcar Smoothing: 2 (USB2+H06089)
Correct for Electrical Dark: No (USB2+H06089)
Strobe/Lamp Enabled: No (USB2+H06089)
Correct for Detector Non-linearity: No (USB2+H06089)
Correct for Stray Light: No (USB2+H06089)
Number of Pixels in Processed Spectrum: 2048
>>>>>Begin Processed Spectral Data<<<<<
339.70	1019.30
340.07	1019.30
340.45	989.11
340.82	970.62
341.19	953.77
341.57	931.53
341.94	916.09
342.31	897.36
342.69	890.34
343.06	886.59
343.43	890.81
343.81	909.06
344.18	921.00
344.55	928.26
344.93	933.87
345.30	936.21
345.67	935.51
346.04	949.32
346.42	955.64
346.79	964.07
347.16	970.62
347.54	979.05
347.91	986.07
348.28	994.49
348.65	1007.83
349.03	1026.32
349.40	1033.35
349.77	1042.01
350.14	1049.96
350.52	1051.60
350.89	1053.01
351.26	1058.39
351.63	1061.43
352.01	1064.71
352.38	1067.75
352.75	1075.48
353.12	1078.28
353.50	1076.65
353.87	1077.58
354.24	1078.05
354.61	1073.60
354.98	1077.35
355.36	1080.39
355.73	1082.97
356.10	1082.73
356.47	1070.56
356.84	1076.41
357.22	1072.20
357.59	1069.16
357.96	1069.16
358.33	1080.39
358.70	1077.35
359.08	1089.99
359.45	1097.48
359.82	1097.01
360.19	1097.95
360.56	1095.14
360.94	1089.52
361.31	1070.09
361.68	1069.39
362.05	1070.80
362.42	1064.71
362.79	1052.77
363.16	1067.52
363.54	1065.88
363.91	1061.20
364.28	1068.45
364.65	1068.92
365.02	1074.31
365.39	1077.58
365.76	1088.58
366.14	1092.56
366.51	1094.90
366.88	1091.39
367.25	1091.86
367.62	1071.26
367.99	1059.09
368.36	1061.67
368.73	1054.18
369.10	1042.71
369.48	1050.43
369.85	1060.26
370.22	1065.65
370.59	1066.82
370.96	1078.52
371.33	1083.90
371.70	1076.41
372.07	1069.86
372.44	1067.99
372.81	1063.31
373.18	1075.24
373.55	1082.03
373.93	1082.73
374.30	1086.94
374.67	1090.46
375.04	1071.03
375.41	1065.65
375.78	1058.39
376.15	1057.69
376.52	1058.86
376.89	1057.92
377.26	1068.45
377.63	1076.18
378.00	1087.41
378.37	1084.37
378.74	1090.92
379.11	1082.50
379.48	1093.97
379.85	1087.88
380.22	1091.39
380.59	1088.58
380.96	1089.29
381.33	1077.11
381.70	1079.22
382.07	1076.41
382.44	1082.50
382.81	1080.39
383.18	1072.67
383.55	1059.33
383.92	1056.28
384.29	1058.86
384.66	1067.05
385.03	1081.09
385.40	1092.09
385.77	1094.90
386.14	1100.52
386.51	1092.33
386.88	1093.03
387.25	1082.50
387.62	1080.39
387.99	1060.73
388.36	1056.52
388.73	1053.94
389.10	1061.20
389.46	1055.58
389.83	1063.07
390.20	1062.37
390.57	1061.67
390.94	1062.60
391.31	1070.56
391.68	1069.62
392.05	1077.35
392.42	1069.86
392.79	1062.84
393.16	1065.18
393.53	1063.31
393.89	1057.22
394.26	1070.33
394.63	1075.48
395.00	1076.18
395.37	1077.35
395.74	1090.92
396.11	1089.99
396.48	1095.84
396.84	1089.75
397.21	1093.73
397.58	1086.48
397.95	1074.07
398.32	1072.90
398.69	1073.84
399.06	1059.33
399.42	1065.41
399.79	1064.71
400.16	1065.65
400.53	1065.41
400.90	1073.37
401.27	1074.54
401.64	1076.88
402.00	1077.58
402.37	1079.92
402.74	1080.16
403.11	1070.09
403.48	1066.35
403.84	1060.03
404.21	1062.60
404.58	1071.73
404.95	1071.50
405.32	1071.50
405.68	1064.94
406.05	1060.73
406.42	1056.05
406.79	1055.58
407.16	1064.01
407.52	1073.84
407.89	1072.67
408.26	1072.67
408.63	1077.58
408.99	1078.28
409.36	1075.48
409.73	1078.52
410.10	1077.11
410.47	1076.65
410.83	1077.58
411.20	1081.09
411.57	1083.90
411.94	1084.37
412.30	1071.73
412.67	1077.58
413.04	1077.11
413.40	1080.86
413.77	1093.03
414.14	1096.78
414.51	1082.26
414.87	1079.92
415.24	1073.37
415.61	1060.26
415.97	1059.56
416.34	1062.14
416.71	1063.77
417.08	1060.96
417.44	1067.75
417.81	1078.75
418.18	1091.86
418.54	1086.71
418.91	1087.41
419.28	1078.05
419.64	1072.67
420.01	1059.56
420.38	1064.48
420.74	1070.56
421.11	1077.58
421.48	1082.26
421.84	1073.60
422.21	1077.82
422.58	1082.73
422.94	1071.50
423.31	1065.88
423.68	1084.14
424.04	1081.09
424.41	1079.69
424.77	1087.88
425.14	1084.14
425.51	1083.20
425.87	1097.48
426.24	1094.67
426.61	1089.75
426.97	1091.39
427.34	1092.56
427.70	1075.48
428.07	1068.22
428.44	1076.18
428.80	1078.28
429.17	1083.20
429.53	1078.52
429.90	1075.48
430.27	1071.50
430.63	1072.67
431.00	1060.50
431.36	1069.16
431.73	1073.84
432.09	1069.86
432.46	1074.54
432.83	1079.69
433.19	1080.63
433.56	1071.50
433.92	1077.82
434.29	1067.05
434.65	1061.90
435.02	1065.65
435.38	1084.14
435.75	1081.56
436.11	1097.95
436.48	1104.03
436.84	1088.35
437.21	1087.88
437.57	1098.18
437.94	1095.37
438.30	1088.35
438.67	1106.84
439.03	1095.14
439.40	1086.71
439.76	1081.09
440.13	1084.37
440.49	1074.54
440.86	1082.03
441.22	1075.01
441.59	1074.07
441.95	1079.69
442.32	1079.92
442.68	1081.09
443.05	1079.69
443.41	1075.71
443.78	1066.35
444.14	1064.01
444.51	1064.48
444.87	1077.35
445.24	1084.14
445.60	1092.56
445.96	1098.18
446.33	1086.94
446.69	1089.29
447.06	1082.03
447.42	1080.86
447.79	1084.60
448.15	1088.35
448.51	1085.31
448.88	1087.88
449.24	1086.48
449.61	1089.99
449.97	1089.29
450.33	1075.01
450.70	1076.88
451.06	1075.24
451.43	1062.60
451.79	1076.65
452.15	1087.18
452.52	1086.24
452.88	1083.67
453.24	1082.97
453.61	1079.69
453.97	1079.69
454.34	1075.24
454.70	1073.60
455.06	1082.73
455.43	1077.58
455.79	1081.80
456.15	1099.12
456.52	1100.52
456.88	1087.65
457.24	1094.43
457.61	1093.03
457.97	1084.37
458.33	1084.14
458.70	1090.69
459.06	1087.18
459.42	1091.86
459.79	1095.14
460.15	1093.50
460.51	1104.50
460.88	1097.48
461.24	1086.01
461.60	1080.63
461.96	1088.82
462.33	1078.99
462.69	1085.54
463.05	1082.03
463.42	1073.37
463.78	1071.03
464.14	1072.67
464.50	1064.94
464.87	1079.46
465.23	1088.12
465.59	1078.52
465.95	1081.33
466.32	1089.52
466.68	1090.69
467.04	1095.14
467.40	1108.01
467.77	1102.86
468.13	1094.90
468.49	1088.35
468.85	1078.28
469.22	1082.73
469.58	1081.56
469.94	1083.90
470.30	1076.18
470.66	1079.46
471.03	1066.11
471.39	1076.65
471.75	1082.03
472.11	1088.35
472.47	1097.24
472.84	1099.35
473.20	1088.82
473.56	1077.35
473.92	1082.97
474.28	1067.52
474.65	1070.80
475.01	1069.62
475.37	1083.20
475.73	1085.77
476.09	1098.88
476.45	1093.50
476.81	1102.16
477.18	1093.50
477.54	1082.26
477.90	1074.07
478.26	1070.56
478.62	1069.39
478.98	1086.01
479.34	1086.94
479.71	1089.05
480.07	1095.84
480.43	1091.39
480.79	1080.16
481.15	1080.86
481.51	1086.24
481.87	1082.73
482.23	1087.18
482.59	1084.84
482.96	1085.77
483.32	1078.28
483.68	1076.41
484.04	1064.48
484.40	1068.22
484.76	1063.77
485.12	1064.48
485.48	1072.67
485.84	1066.82
486.20	1060.03
486.56	1057.45
486.92	1054.41
487.28	1046.92
487.64	1062.84
488.00	1065.65
488.37	1071.50
488.73	1081.80
489.09	1100.52
489.45	1092.56
489.81	1097.48
490.17	1096.54
490.53	1088.82
490.89	1077.58
491.25	1083.90
491.61	1078.75
491.97	1078.75
492.33	1075.71
492.69	1081.33
493.05	1073.14
493.41	1075.48
493.77	1081.56
494.13	1086.71
494.49	1085.07
494.85	1091.16
495.21	1094.43
495.57	1087.41
495.93	1085.54
496.29	1070.09
496.64	1070.80
497.00	1065.18
497.36	1062.37
497.72	1069.62
498.08	1080.63
498.44	1078.52
498.80	1080.63
499.16	1083.67
499.52	1078.52
499.88	1082.50
500.24	1086.48
500.60	1083.90
500.96	1093.73
501.32	1097.71
501.68	1081.33
502.03	1076.18
502.39	1076.88
502.75	1064.48
503.11	1061.67
503.47	1072.43
503.83	1081.09
504.19	1086.71
504.55	1095.14
504.91	1102.86
505.26	1107.07
505.62	1109.18
505.98	1104.50
506.34	1105.44
506.70	1093.97
507.06	1089.52
507.42	1089.52
507.78	1096.31
508.13	1100.99
508.49	1101.22
508.85	1103.33
509.21	1095.37
509.57	1086.24
509.93	1073.84
510.28	1074.77
510.64	1078.05
511.00	1076.41
511.36	1086.94
511.72	1094.20
512.07	1096.54
512.43	1088.82
512.79	1078.52
513.15	1069.39
513.51	1066.11
513.86	1074.31
514.22	1088.35
514.58	1104.73
514.94	1112.22
515.30	1112.69
515.65	1105.90
516.01	1096.54
516.37	1092.56
516.73	1093.73
517.08	1100.75
517.44	1096.78
517.80	1098.88
518.16	1100.75
518.51	1093.73
518.87	1088.82
519.23	1093.97
519.59	1090.92
519.94	1093.97
520.30	1099.58
520.66	1107.78
521.01	1104.97
521.37	1104.26
521.73	1113.86
522.09	1111.52
522.44	1102.16
522.80	1105.20
523.16	1107.31
523.51	1091.63
523.87	1084.60
524.23	1094.67
524.58	1089.52
524.94	1093.50
525.30	1102.86
525.65	1103.09
526.01	1094.67
526.37	1103.56
526.72	1106.84
527.08	1093.73
527.44	1098.88
527.79	1104.73
528.15	1109.18
528.51	1100.29
528.86	1107.07
529.22	1098.18
529.58	1090.92
529.93	1082.03
530.29	1083.67
530.65	1072.67
531.00	1071.97
531.36	1073.14
531.71	1073.84
532.07	1071.50
532.43	1087.18
532.78	1093.03
533.14	1090.92
533.49	1084.37
533.85	1094.67
534.21	1095.14
534.56	1101.22
534.92	1100.99
535.27	1099.82
535.63	1096.78
535.98	1099.12
536.34	1087.88
536.69	1091.63
537.05	1096.31
537.41	1091.16
537.76	1080.63
538.12	1088.82
538.47	1097.24
538.83	1101.22
539.18	1094.20
539.54	1099.35
539.89	1104.26
540.25	1090.22
540.60	1088.58
540.96	1104.26
541.31	1097.48
541.67	1089.29
542.02	1097.01
542.38	1093.97
542.73	1087.88
543.09	1099.58
543.44	1101.46
543.80	1090.69
544.15	1088.12
544.51	1084.37
544.86	1076.88
545.22	1067.52
545.57	1067.75
545.93	1076.18
546.28	1071.26
546.64	1063.54
546.99	1069.16
547.35	1074.07
547.70	1065.18
548.05	1076.18
548.41	1087.18
548.76	1097.95
549.12	1098.65
549.47	1104.97
549.83	1098.41
550.18	1097.48
550.53	1086.48
550.89	1092.80
551.24	1090.69
551.60	1092.09
551.95	1086.71
552.30	1083.90
552.66	1073.37
553.01	1073.37
553.37	1080.39
553.72	1078.52
554.07	1080.39
554.43	1083.90
554.78	1087.88
555.13	1082.03
555.49	1081.80
555.84	1087.18
556.19	1091.86
556.55	1087.18
556.90	1088.12
557.26	1086.24
557.61	1077.82
557.96	1061.67
558.32	1063.31
558.67	1056.75
559.02	1066.35
559.37	1075.48
559.73	1097.95
560.08	1097.24
560.43	1109.88
560.79	1110.12
561.14	1102.63
561.49	1097.71
561.85	1096.07
562.20	1090.22
562.55	1084.60
562.90	1095.37
563.26	1098.18
563.61	1092.56
563.96	1082.73
564.32	1078.52
564.67	1075.01
565.02	1072.90
565.37	1083.20
565.73	1088.82
566.08	1103.56
566.43	1094.43
566.78	1083.20
567.14	1081.80
567.49	1077.82
567.84	1057.45
568.19	1058.86
568.54	1067.28
568.90	1058.16
569.25	1058.62
569.60	1076.18
569.95	1075.48
570.31	1075.01
570.66	1087.41
571.01	1091.16
571.36	1076.65
571.71	1074.07
572.06	1077.58
572.42	1078.05
572.77	1091.16
573.12	1103.80
573.47	1111.29
573.82	1105.44
574.18	1099.12
574.53	1083.90
574.88	1074.54
575.23	1077.11
575.58	1075.71
575.93	1078.52
576.28	1079.22
576.64	1086.71
576.99	1077.82
577.34	1078.28
577.69	1085.77
578.04	1085.07
578.39	1085.77
578.74	1091.86
579.09	1083.67
579.44	1080.86
579.80	1084.14
580.15	1085.77
580.50	1096.07
580.85	1103.09
581.20	1096.54
581.55	1092.80
581.90	1086.01
582.25	1081.09
582.60	1088.58
582.95	1093.03
583.30	1096.31
583.65	1095.84
584.00	1086.71
584.35	1071.03
584.71	1077.58
585.06	1074.77
585.41	1072.90
585.76	1074.31
586.11	1088.58
586.46	1077.11
586.81	1081.56
587.16	1077.11
587.51	1082.26
587.86	1076.88
588.21	1085.54
588.56	1076.41
588.91	1081.33
589.26	1074.31
589.61	1069.16
589.96	1059.79
590.31	1064.24
590.66	1068.92
591.01	1073.84
591.36	1069.86
591.71	1070.80
592.06	1073.37
592.41	1073.60
592.76	1082.26
593.10	1089.52
593.45	1093.73
593.80	1088.35
594.15	1094.43
594.50	1086.24
594.85	1090.92
595.20	1081.09
595.55	1079.22
595.90	1065.18
596.25	1062.14
596.60	1061.67
596.95	1068.69
597.30	1076.41
597.64	1128.14
597.99	1133.29
598.34	1132.35
598.69	1135.86
599.04	1137.27
599.39	1085.54
599.74	1085.77
600.09	1091.16
600.44	1085.77
600.78	1077.35
601.13	1088.12
601.48	1080.63
601.83	1074.54
602.18	1071.26
602.53	1078.05
602.88	1060.50
603.22	1064.24
603.57	1065.41
603.92	1065.88
604.27	1071.97
604.62	1076.41
604.97	1075.48
605.31	1071.03
605.66	1072.67
606.01	1066.11
606.36	1074.07
606.71	1059.56
607.05	1064.01
607.40	1077.11
607.75	1080.63
608.10	1077.35
608.44	1095.60
608.79	1086.24
609.14	1069.86
609.49	1070.09
609.84	1070.33
610.18	1072.20
610.53	1089.75
610.88	1092.56
611.23	1088.58
611.57	1101.22
611.92	1104.03
612.27	1091.86
612.62	1090.69
612.96	1088.82
613.31	1087.65
613.66	1087.18
614.00	1092.80
614.35	1100.29
614.70	1106.14
615.05	1101.22
615.39	1102.16
615.74	1090.22
616.09	1087.18
616.43	1081.56
616.78	1083.67
617.13	1069.86
617.47	1082.50
617.82	1089.75
618.17	1088.12
618.51	1086.48
618.86	1096.54
619.21	1103.80
619.55	1096.31
619.90	1094.90
620.25	1089.29
620.59	1084.14
620.94	1073.14
621.29	1070.80
621.63	1076.65
621.98	1075.71
622.32	1078.05
622.67	1080.39
623.02	1073.14
623.36	1077.58
623.71	1078.05
624.05	1073.14
624.40	1065.18
624.75	1069.16
625.09	1061.20
625.44	1064.24
625.78	1069.16
626.13	1081.09
626.48	1090.69
626.82	1086.01
627.17	1088.82
627.51	1091.86
627.86	1095.37
628.20	1097.95
628.55	1113.16
628.89	1105.44
629.24	1094.90
629.58	1093.03
629.93	1084.14
630.28	1076.18
630.62	1082.97
630.97	1082.50
631.31	1072.90
631.66	1070.33
632.00	1076.65
632.35	1075.24
632.69	1078.99
633.04	1077.11
633.38	1083.90
633.73	1086.94
634.07	1085.54
634.42	1090.46
634.76	1094.20
635.11	1088.58
635.45	1086.71
635.79	1084.84
636.14	1089.52
636.48	1103.09
636.83	1103.80
637.17	1095.14
637.52	1092.80
637.86	1091.86
638.21	1086.48
638.55	1091.63
638.89	1090.92
639.24	1097.01
639.58	1097.48
639.93	1090.92
640.27	1088.12
640.61	1098.65
640.96	1094.67
641.30	1088.58
641.65	1089.52
641.99	1090.69
642.33	1088.35
642.68	1099.35
643.02	1099.12
643.37	1083.67
643.71	1077.11
644.05	1068.69
644.40	1072.67
644.74	1071.73
645.08	1079.22
645.43	1080.63
645.77	1078.52
646.11	1067.52
646.46	1067.05
646.80	1077.58
647.14	1081.09
647.49	1080.86
647.83	1078.28
648.17	1073.60
648.52	1068.45
648.86	1068.92
649.20	1067.75
649.55	1066.35
649.89	1077.35
650.23	1069.16
650.57	1062.60
650.92	1069.39
651.26	1080.39
651.60	1078.05
651.95	1090.92
652.29	1094.43
652.63	1089.29
652.97	1083.90
653.32	1083.43
653.66	1071.73
654.00	1073.37
654.34	1072.20
654.69	1075.01
655.03	1070.09
655.37	1080.39
655.71	1085.77
656.05	1096.31
656.40	1082.73
656.74	1084.60
657.08	1078.28
657.42	1071.26
657.76	1060.73
658.11	1061.43
658.45	1067.28
658.79	1080.39
659.13	1082.97
659.47	1086.71
659.82	1103.09
660.16	1095.84
660.50	1085.54
660.84	1080.16
661.18	1076.88
661.52	1067.99
661.87	1067.99
662.21	1075.48
662.55	1076.41
662.89	1077.35
663.23	1076.65
663.57	1077.35
663.91	1068.22
664.25	1075.48
664.60	1069.62
664.94	1071.97
665.28	1080.16
665.62	1082.26
665.96	1083.90
666.30	1096.54
666.64	1095.14
666.98	1086.48
667.32	1078.28
667.66	1071.97
668.01	1066.82
668.35	1071.03
668.69	1076.18
669.03	1083.20
669.37	1089.99
669.71	1085.54
670.05	1084.14
670.39	1081.09
670.73	1077.82
671.07	1071.50
671.41	1076.65
671.75	1074.07
672.09	1073.37
672.43	1063.77
672.77	1060.03
673.11	1060.50
673.45	1064.24
673.79	1059.79
674.13	1067.28
674.47	1067.75
674.81	1059.79
675.15	1048.56
675.49	1056.28
675.83	1059.33
676.17	1060.96
676.51	1065.88
676.85	1073.37
677.19	1081.56
677.53	1076.65
677.87	1080.63
678.21	1081.09
678.55	1076.88
678.89	1066.35
679.23	1078.28
679.57	1080.16
679.90	1087.41
680.24	1087.65
680.58	1085.54
680.92	1080.86
681.26	1076.18
681.60	1081.56
681.94	1068.92
682.28	1065.41
682.62	1062.60
682.96	1072.90
683.29	1062.84
683.63	1077.58
683.97	1075.94
684.31	1075.01
684.65	1066.11
684.99	1068.22
685.33	1070.33
685.67	1080.86
686.00	1078.75
686.34	1084.14
686.68	1078.75
687.02	1080.63
687.36	1080.39
687.70	1079.69
688.03	1080.39
688.37	1080.16
688.71	1074.07
689.05	1066.82
689.39	1081.80
689.72	1071.26
690.06	1076.65
690.40	1085.54
690.74	1099.35
691.08	1092.09
691.41	1097.95
691.75	1108.24
692.09	1110.12
692.43	1099.58
692.76	1098.41
693.10	1086.94
693.44	1069.86
693.78	1058.62
694.11	1058.39
694.45	1055.35
694.79	1063.07
695.13	1066.58
695.46	1063.77
695.80	1063.31
696.14	1052.77
696.48	1056.52
696.81	1058.16
697.15	1069.39
697.49	1078.52
697.82	1085.07
698.16	1079.22
698.50	1078.28
698.83	1067.99
699.17	1060.96
699.51	1055.82
699.84	1062.37
700.18	1053.24
700.52	1054.18
700.85	1052.77
701.19	1061.43
701.53	1060.03
701.86	1071.73
702.20	1072.67
702.54	1074.31
702.87	1084.37
703.21	1082.97
703.55	1084.14
703.88	1094.67
704.22	1096.78
704.55	1092.56
704.89	1092.80
705.23	1093.26
705.56	1092.80
705.90	1096.54
706.23	1093.97
706.57	1096.78
706.91	1088.35
707.24	1088.58
707.58	1080.16
707.91	1079.46
708.25	1072.43
708.58	1081.33
708.92	1073.14
709.26	1071.97
709.59	1072.67
709.93	1076.41
710.26	1067.99
710.60	1069.39
710.93	1070.09
711.27	1069.86
711.60	1066.11
711.94	1073.84
712.27	1071.50
712.61	1078.99
712.94	1083.67
713.28	1086.71
713.61	1085.31
713.95	1088.82
714.28	1084.37
714.62	1082.50
714.95	1097.71
715.29	1104.73
715.62	1103.33
715.96	1104.97
716.29	1099.35
716.63	1089.52
716.96	1075.24
717.29	1084.84
717.63	1088.12
717.96	1090.69
718.30	1078.05
718.63	1074.31
718.97	1062.60
719.30	1055.35
719.63	1056.75
719.97	1066.82
720.30	1085.31
720.64	1091.39
720.97	1094.43
721.30	1089.29
721.64	1093.03
721.97	1082.50
722.31	1074.77
722.64	1068.69
722.97	1078.05
723.31	1077.11
723.64	1077.11
723.97	1089.52
724.31	1092.33
724.64	1086.94
724.98	1088.82
725.31	1083.43
725.64	1079.69
725.98	1086.24
726.31	1089.05
726.64	1078.05
726.97	1078.05
727.31	1077.58
727.64	1076.41
727.97	1070.56
728.31	1079.92
728.64	1091.16
728.97	1091.39
729.31	1084.14
729.64	1084.84
729.97	1080.63
730.30	1071.26
730.64	1072.43
730.97	1076.88
731.30	1078.75
731.63	1078.99
731.97	1091.39
732.30	1089.99
732.63	1086.71
732.96	1091.63
733.30	1087.65
733.63	1088.12
733.96	1079.22
734.29	1078.75
734.63	1075.48
734.96	1078.99
735.29	1062.14
735.62	1067.28
735.95	1072.67
736.29	1070.09
736.62	1071.73
736.95	1077.35
737.28	1087.18
737.61	1097.48
737.94	1097.01
738.28	1097.95
738.61	1103.56
738.94	1097.24
739.27	1077.35
739.60	1082.97
739.93	1072.20
740.27	1072.90
740.60	1069.62
740.93	1077.35
741.26	1075.48
741.59	1086.48
741.92	1081.56
742.25	1089.75
742.58	1078.28
742.91	1079.22
743.25	1077.82
743.58	1075.94
743.91	1067.75
744.24	1083.90
744.57	1080.16
744.90	1074.31
745.23	1071.03
745.56	1069.39
745.89	1066.82
746.22	1076.18
746.55	1073.14
746.88	1074.31
747.21	1078.99
747.54	1086.71
747.87	1076.18
748.20	1082.03
748.53	1087.88
748.87	1085.54
749.20	1067.52
749.53	1070.56
749.86	1070.56
750.19	1071.26
750.52	1065.88
750.85	1064.94
751.18	1065.65
751.51	1069.39
751.84	1066.11
752.16	1075.24
752.49	1085.07
752.82	1076.41
753.15	1073.84
753.48	1076.18
753.81	1069.62
754.14	1062.60
754.47	1071.50
754.80	1072.20
755.13	1067.75
755.46	1063.31
755.79	1076.65
756.12	1079.92
756.45	1085.31
756.78	1092.56
757.11	1091.63
757.43	1087.88
757.76	1079.22
758.09	1067.05
758.42	1069.39
758.75	1072.90
759.08	1078.52
759.41	1082.97
759.74	1099.35
760.07	1100.29
760.39	1097.48
760.72	1095.84
761.05	1096.31
761.38	1087.41
761.71	1085.54
762.04	1084.37
762.36	1086.24
762.69	1091.16
763.02	1088.82
763.35	1082.97
763.68	1085.77
764.01	1072.67
764.33	1074.07
764.66	1068.69
764.99	1068.45
765.32	1069.86
765.65	1065.41
765.97	1064.71
766.30	1068.45
