SpectraSuite Data File
++++++++++++++++++++++++++++++++++++
Date: Mon Aug 26 10:26:05 PDT 2019
User: corrico
Dark Spectrum Present: No
Reference Spectrum Present: No
Number of Sampled Component Spectra: 1
Spectrometers: USB2+H06089
Integration Time (usec): 10000 (USB2+H06089)
Spectra Averaged: 20 (USB2+H06089)
Boxcar Smoothing: 2 (USB2+H06089)
Correct for Electrical Dark: No (USB2+H06089)
Strobe/Lamp Enabled: No (USB2+H06089)
Correct for Detector Non-linearity: No (USB2+H06089)
Correct for Stray Light: No (USB2+H06089)
Number of Pixels in Processed Spectrum: 2048
>>>>>Begin Processed Spectral Data<<<<<
339.70	1032.88
340.07	1032.88
340.45	997.47
340.82	978.39
341.19	952.93
341.57	922.78
341.94	914.45
342.31	905.51
342.69	898.88
343.06	898.91
343.43	902.72
343.81	904.90
344.18	910.42
344.55	913.75
344.93	916.62
345.30	922.87
345.67	925.05
346.04	930.74
346.42	937.10
346.79	949.34
347.16	958.96
347.54	971.67
347.91	977.24
348.28	988.71
348.65	995.22
349.03	1002.66
349.40	1008.65
349.77	1016.85
350.14	1025.51
350.52	1031.85
350.89	1037.07
351.26	1044.28
351.63	1051.13
352.01	1050.99
352.38	1054.97
352.75	1058.20
353.12	1060.75
353.50	1064.66
353.87	1071.94
354.24	1072.62
354.61	1078.31
354.98	1079.71
355.36	1079.36
355.73	1078.38
356.10	1080.70
356.47	1078.28
356.84	1079.60
357.22	1079.48
357.59	1077.09
357.96	1077.33
358.33	1077.33
358.70	1076.34
359.08	1075.57
359.45	1079.03
359.82	1076.32
360.19	1078.64
360.56	1079.22
360.94	1080.56
361.31	1076.25
361.68	1075.34
362.05	1072.27
362.42	1072.81
362.79	1074.87
363.16	1075.34
363.54	1075.94
363.91	1074.98
364.28	1070.42
364.65	1068.48
365.02	1066.91
365.39	1068.85
365.76	1068.10
366.14	1068.29
366.51	1069.18
366.88	1066.86
367.25	1064.10
367.62	1065.62
367.99	1066.75
368.36	1066.16
368.73	1070.00
369.10	1069.06
369.48	1067.24
369.85	1068.97
370.22	1066.35
370.59	1067.12
370.96	1070.82
371.33	1068.92
371.70	1067.42
372.07	1067.85
372.44	1069.62
372.81	1067.68
373.18	1072.34
373.55	1070.77
373.93	1072.74
374.30	1071.38
374.67	1069.51
375.04	1066.28
375.41	1067.59
375.78	1064.43
376.15	1063.87
376.52	1066.32
376.89	1068.95
377.26	1069.62
377.63	1072.32
378.00	1071.29
378.37	1072.36
378.74	1071.24
379.11	1072.74
379.48	1070.75
379.85	1071.40
380.22	1072.81
380.59	1073.58
380.96	1070.84
381.33	1071.78
381.70	1072.34
382.07	1067.19
382.44	1066.58
382.81	1069.11
383.18	1072.32
383.55	1071.10
383.92	1073.37
384.29	1074.52
384.66	1074.98
385.03	1073.37
385.40	1073.42
385.77	1076.15
386.14	1077.54
386.51	1077.11
386.88	1074.98
387.25	1077.42
387.62	1076.83
387.99	1071.90
388.36	1070.35
388.73	1071.90
389.10	1069.58
389.46	1067.75
389.83	1070.75
390.20	1073.04
390.57	1070.02
390.94	1071.36
391.31	1072.34
391.68	1072.43
392.05	1070.37
392.42	1073.77
392.79	1072.08
393.16	1072.55
393.53	1073.11
393.89	1073.84
394.26	1075.99
394.63	1075.78
395.00	1075.85
395.37	1077.42
395.74	1076.41
396.11	1074.77
396.48	1076.67
396.84	1078.31
397.21	1074.70
397.58	1073.02
397.95	1071.94
398.32	1072.90
398.69	1071.31
399.06	1074.12
399.42	1077.14
399.79	1079.36
400.16	1076.25
400.53	1077.68
400.90	1079.53
401.27	1081.47
401.64	1080.30
402.00	1080.16
402.37	1076.30
402.74	1073.35
403.11	1069.16
403.48	1069.23
403.84	1072.15
404.21	1074.77
404.58	1075.29
404.95	1076.55
405.32	1076.04
405.68	1076.04
406.05	1073.74
406.42	1072.34
406.79	1074.54
407.16	1073.53
407.52	1076.62
407.89	1077.75
408.26	1080.20
408.63	1078.59
408.99	1078.54
409.36	1074.35
409.73	1075.01
410.10	1073.49
410.47	1073.39
410.83	1074.10
411.20	1075.80
411.57	1074.56
411.94	1075.29
412.30	1072.39
412.67	1068.95
413.04	1065.62
413.40	1067.52
413.77	1068.52
414.14	1070.23
414.51	1073.72
414.87	1078.05
415.24	1078.38
415.61	1076.11
415.97	1074.68
416.34	1075.15
416.71	1073.09
417.08	1072.29
417.44	1073.02
417.81	1077.68
418.18	1075.92
418.54	1077.30
418.91	1075.36
419.28	1075.48
419.64	1074.38
420.01	1076.72
420.38	1076.88
420.74	1080.67
421.11	1080.44
421.48	1081.42
421.84	1082.69
422.21	1081.47
422.58	1080.41
422.94	1079.24
423.31	1079.27
423.68	1079.38
424.04	1078.59
424.41	1078.47
424.77	1081.77
425.14	1079.46
425.51	1079.27
425.87	1081.51
426.24	1080.70
426.61	1081.21
426.97	1082.40
427.34	1083.83
427.70	1083.95
428.07	1084.79
428.44	1082.15
428.80	1079.01
429.17	1074.96
429.53	1074.05
429.90	1075.78
430.27	1078.66
430.63	1078.50
431.00	1079.50
431.36	1074.54
431.73	1071.03
432.09	1068.71
432.46	1073.28
432.83	1072.18
433.19	1077.28
433.56	1079.29
433.92	1079.06
434.29	1076.41
434.65	1077.35
435.02	1077.33
435.38	1075.64
435.75	1076.83
436.11	1079.64
436.48	1080.32
436.84	1079.62
437.21	1080.79
437.57	1082.24
437.94	1082.26
438.30	1081.73
438.67	1081.14
439.03	1083.04
439.40	1080.46
439.76	1076.11
440.13	1076.86
440.49	1077.33
440.86	1076.39
441.22	1074.35
441.59	1074.26
441.95	1077.21
442.32	1080.72
442.68	1081.37
443.05	1083.11
443.41	1086.97
443.78	1084.00
444.14	1080.98
444.51	1079.95
444.87	1080.58
445.24	1080.65
445.60	1080.60
445.96	1080.79
446.33	1080.06
446.69	1079.99
447.06	1080.13
447.42	1079.81
447.79	1081.21
448.15	1080.84
448.51	1079.71
448.88	1080.81
449.24	1081.00
449.61	1080.32
449.97	1079.88
450.33	1079.20
450.70	1073.77
451.06	1073.72
451.43	1071.64
451.79	1071.64
452.15	1073.25
452.52	1077.96
452.88	1078.38
453.24	1077.63
453.61	1078.17
453.97	1077.61
454.34	1075.69
454.70	1074.35
455.06	1075.64
455.43	1077.56
455.79	1076.72
456.15	1074.45
456.52	1075.83
456.88	1073.74
457.24	1070.77
457.61	1070.89
457.97	1074.49
458.33	1071.61
458.70	1073.65
459.06	1074.28
459.42	1075.43
459.79	1074.84
460.15	1074.59
460.51	1077.98
460.88	1079.01
461.24	1080.65
461.60	1077.00
461.96	1080.30
462.33	1077.58
462.69	1077.07
463.05	1075.50
463.42	1075.22
463.78	1072.81
464.14	1070.14
464.50	1069.98
464.87	1074.00
465.23	1076.25
465.59	1078.03
465.95	1083.62
466.32	1081.84
466.68	1074.54
467.04	1074.42
467.40	1072.57
467.77	1068.92
468.13	1070.09
468.49	1073.74
468.85	1074.45
469.22	1076.25
469.58	1076.69
469.94	1075.48
470.30	1075.05
470.66	1075.85
471.03	1077.44
471.39	1078.89
471.75	1080.93
472.11	1084.39
472.47	1082.76
472.84	1083.83
473.20	1081.75
473.56	1079.41
473.92	1079.08
474.28	1079.69
474.65	1076.34
475.01	1077.84
475.37	1082.40
475.73	1080.06
476.09	1080.48
476.45	1082.05
476.81	1080.74
477.18	1078.54
477.54	1080.25
477.90	1085.26
478.26	1083.83
478.62	1081.91
478.98	1082.03
479.34	1080.98
479.71	1073.23
480.07	1072.22
480.43	1077.00
480.79	1076.95
481.15	1075.34
481.51	1078.40
481.87	1079.29
482.23	1075.52
482.59	1076.30
482.96	1078.05
483.32	1080.04
483.68	1082.52
484.04	1085.10
484.40	1086.01
484.76	1085.14
485.12	1084.67
485.48	1085.07
485.84	1082.61
486.20	1082.61
486.56	1084.44
486.92	1085.07
487.28	1084.74
487.64	1083.74
488.00	1078.71
488.37	1078.28
488.73	1076.69
489.09	1073.58
489.45	1077.70
489.81	1084.65
490.17	1081.96
490.53	1081.28
490.89	1082.12
491.25	1080.37
491.61	1078.26
491.97	1080.79
492.33	1080.60
492.69	1082.45
493.05	1082.29
493.41	1082.08
493.77	1082.38
494.13	1084.11
494.49	1084.35
494.85	1085.42
495.21	1085.21
495.57	1086.48
495.93	1084.37
496.29	1085.03
496.64	1084.21
497.00	1082.73
497.36	1077.84
497.72	1081.51
498.08	1078.31
498.44	1079.03
498.80	1082.12
499.16	1084.93
499.52	1084.44
499.88	1086.36
500.24	1088.09
500.60	1084.02
500.96	1081.21
501.32	1081.94
501.68	1082.03
502.03	1081.44
502.39	1082.57
502.75	1084.96
503.11	1082.10
503.47	1080.53
503.83	1081.21
504.19	1082.78
504.55	1082.19
504.91	1083.86
505.26	1085.00
505.62	1085.70
505.98	1089.12
506.34	1090.08
506.70	1087.51
507.06	1088.61
507.42	1086.38
507.78	1082.92
508.13	1086.43
508.49	1091.46
508.85	1092.12
509.21	1091.56
509.57	1092.94
509.93	1089.92
510.28	1083.74
510.64	1082.71
511.00	1084.67
511.36	1085.59
511.72	1086.73
512.07	1090.06
512.43	1090.60
512.79	1092.47
513.15	1093.73
513.51	1094.15
513.86	1094.76
514.22	1095.70
514.58	1094.06
514.94	1093.29
515.30	1091.23
515.65	1089.99
516.01	1089.36
516.37	1087.34
516.73	1084.65
517.08	1087.13
517.44	1090.39
517.80	1089.73
518.16	1093.29
518.51	1095.65
518.87	1096.31
519.23	1097.80
519.59	1099.28
519.94	1097.50
520.30	1098.09
520.66	1096.89
521.01	1093.71
521.37	1093.85
521.73	1095.32
522.09	1099.65
522.44	1099.68
522.80	1100.96
523.16	1104.71
523.51	1107.00
523.87	1102.95
524.23	1104.08
524.58	1103.47
524.94	1101.95
525.30	1099.54
525.65	1098.02
526.01	1099.86
526.37	1102.44
526.72	1103.49
527.08	1103.23
527.44	1105.86
527.79	1103.35
528.15	1100.45
528.51	1096.59
528.86	1095.30
529.22	1093.24
529.58	1092.35
529.93	1094.90
530.29	1099.09
530.65	1099.70
531.00	1101.60
531.36	1105.79
531.71	1104.83
532.07	1101.99
532.43	1101.90
532.78	1101.48
533.14	1100.36
533.49	1101.32
533.85	1107.05
534.21	1108.06
534.56	1107.56
534.92	1106.39
535.27	1101.83
535.63	1098.39
535.98	1097.83
536.34	1093.92
536.69	1090.36
537.05	1094.53
537.41	1092.19
537.76	1092.05
538.12	1093.90
538.47	1095.60
538.83	1091.25
539.18	1089.40
539.54	1089.17
539.89	1091.04
540.25	1092.96
540.60	1095.51
540.96	1094.39
541.31	1092.52
541.67	1090.22
542.02	1091.18
542.38	1090.92
542.73	1089.89
543.09	1090.78
543.44	1093.85
543.80	1090.48
544.15	1091.51
544.51	1093.64
544.86	1095.93
545.22	1093.24
545.57	1095.51
545.93	1093.87
546.28	1094.50
546.64	1091.60
546.99	1092.98
547.35	1091.58
547.70	1091.77
548.05	1095.00
548.41	1096.96
548.76	1096.59
549.12	1096.00
549.47	1093.59
549.83	1090.08
550.18	1086.71
550.53	1084.74
550.89	1083.55
551.24	1086.41
551.60	1085.19
551.95	1086.06
552.30	1085.82
552.66	1087.30
553.01	1086.94
553.37	1087.27
553.72	1086.34
554.07	1088.44
554.43	1087.25
554.78	1086.06
555.13	1084.30
555.49	1085.52
555.84	1084.63
556.19	1084.72
556.55	1082.59
556.90	1086.92
557.26	1088.89
557.61	1088.19
557.96	1087.88
558.32	1091.39
558.67	1088.12
559.02	1086.29
559.37	1084.84
559.73	1085.05
560.08	1083.18
560.43	1083.74
560.79	1083.69
561.14	1084.96
561.49	1086.62
561.85	1086.03
562.20	1086.22
562.55	1085.00
562.90	1085.40
563.26	1086.03
563.61	1085.31
563.96	1084.04
564.32	1085.77
564.67	1085.56
565.02	1082.66
565.37	1084.16
565.73	1087.04
566.08	1084.09
566.43	1082.17
566.78	1082.38
567.14	1083.27
567.49	1081.80
567.84	1084.79
568.19	1086.73
568.54	1086.94
568.90	1084.86
569.25	1082.64
569.60	1081.16
569.95	1081.63
570.31	1082.36
570.66	1085.35
571.01	1085.66
571.36	1088.07
571.71	1087.95
572.06	1088.12
572.42	1084.84
572.77	1087.51
573.12	1086.45
573.47	1084.25
573.82	1083.08
574.18	1083.20
574.53	1080.60
574.88	1079.24
575.23	1081.16
575.58	1082.80
575.93	1083.18
576.28	1084.77
576.64	1083.88
576.99	1082.40
577.34	1081.23
577.69	1081.80
578.04	1083.83
578.39	1085.77
578.74	1085.82
579.09	1083.90
579.44	1085.31
579.80	1085.07
580.15	1085.73
580.50	1087.81
580.85	1090.62
581.20	1089.78
581.55	1086.66
581.90	1086.03
582.25	1084.74
582.60	1086.48
582.95	1084.98
583.30	1085.96
583.65	1083.74
584.00	1081.42
584.35	1078.68
584.71	1080.41
585.06	1081.51
585.41	1086.27
585.76	1091.42
586.11	1089.92
586.46	1086.13
586.81	1085.52
587.16	1082.10
587.51	1077.25
587.86	1076.44
588.21	1079.10
588.56	1076.72
588.91	1079.38
589.26	1075.13
589.61	1077.49
589.96	1077.37
590.31	1079.06
590.66	1077.75
591.01	1085.96
591.36	1084.14
591.71	1082.01
592.06	1081.12
592.41	1076.76
592.76	1073.35
593.10	1071.71
593.45	1072.97
593.80	1071.38
594.15	1073.23
594.50	1072.81
594.85	1076.18
595.20	1077.14
595.55	1081.56
595.90	1084.58
596.25	1085.24
596.60	1084.09
596.95	1085.14
597.30	1081.73
597.64	1129.57
597.99	1135.86
598.34	1135.84
598.69	1135.63
599.04	1136.07
599.39	1084.46
599.74	1076.46
600.09	1076.76
600.44	1080.74
600.78	1081.89
601.13	1086.01
601.48	1089.61
601.83	1088.02
602.18	1082.50
602.53	1081.89
602.88	1077.58
603.22	1075.34
603.57	1078.28
603.92	1079.95
604.27	1081.49
604.62	1081.70
604.97	1084.37
605.31	1083.06
605.66	1081.16
606.01	1078.61
606.36	1082.12
606.71	1080.37
607.05	1080.70
607.40	1082.61
607.75	1084.23
608.10	1083.57
608.44	1082.54
608.79	1082.31
609.14	1079.01
609.49	1081.82
609.84	1081.87
610.18	1085.91
610.53	1088.26
610.88	1091.67
611.23	1091.11
611.57	1091.13
611.92	1088.02
612.27	1089.99
612.62	1089.33
612.96	1089.31
613.31	1088.79
613.66	1089.68
614.00	1084.84
614.35	1085.63
614.70	1082.64
615.05	1081.89
615.39	1080.13
615.74	1080.11
616.09	1078.10
616.43	1076.67
616.78	1079.06
617.13	1079.74
617.47	1074.61
617.82	1074.38
618.17	1078.19
618.51	1079.41
618.86	1078.54
619.21	1083.39
619.55	1082.45
619.90	1082.05
620.25	1077.14
620.59	1079.08
620.94	1082.76
621.29	1086.99
621.63	1086.73
621.98	1088.26
622.32	1087.67
622.67	1085.45
623.02	1083.67
623.36	1082.38
623.71	1081.14
624.05	1083.25
624.40	1082.52
624.75	1081.33
625.09	1081.58
625.44	1083.13
625.78	1080.13
626.13	1081.68
626.48	1082.87
626.82	1083.25
627.17	1083.60
627.51	1081.82
627.86	1079.76
628.20	1080.81
628.55	1079.31
628.89	1077.77
629.24	1077.04
629.58	1078.78
629.93	1079.67
630.28	1080.58
630.62	1081.61
630.97	1085.54
631.31	1081.05
631.66	1077.42
632.00	1075.76
632.35	1072.95
632.69	1072.97
633.04	1076.04
633.38	1079.20
633.73	1080.37
634.07	1082.85
634.42	1083.01
634.76	1082.92
635.11	1083.67
635.45	1087.55
635.79	1084.60
636.14	1084.89
636.48	1084.93
636.83	1082.43
637.17	1078.85
637.52	1082.61
637.86	1082.66
638.21	1085.54
638.55	1087.74
638.89	1086.66
639.24	1085.87
639.58	1088.35
639.93	1086.52
640.27	1084.84
640.61	1085.54
640.96	1086.92
641.30	1084.46
641.65	1083.20
641.99	1081.56
642.33	1080.23
642.68	1079.01
643.02	1075.92
643.37	1077.93
643.71	1078.00
644.05	1080.44
644.40	1079.03
644.74	1080.20
645.08	1080.84
645.43	1080.09
645.77	1081.23
646.11	1084.51
646.46	1086.20
646.80	1083.83
647.14	1085.26
647.49	1083.32
647.83	1081.00
648.17	1080.98
648.52	1083.57
648.86	1084.23
649.20	1088.12
649.55	1089.68
649.89	1088.26
650.23	1086.24
650.57	1087.65
650.92	1082.29
651.26	1084.04
651.60	1084.72
651.95	1085.24
652.29	1081.96
652.63	1083.27
652.97	1079.46
653.32	1081.09
653.66	1079.53
654.00	1079.92
654.34	1082.36
654.69	1083.86
655.03	1084.09
655.37	1085.63
655.71	1086.80
656.05	1083.81
656.40	1084.07
656.74	1081.77
657.08	1082.10
657.42	1080.30
657.76	1080.88
658.11	1081.91
658.45	1085.70
658.79	1083.79
659.13	1085.68
659.47	1085.40
659.82	1085.17
660.16	1078.80
660.50	1080.74
660.84	1082.26
661.18	1083.79
661.52	1082.40
661.87	1085.61
662.21	1088.56
662.55	1086.10
662.89	1085.91
663.23	1081.19
663.57	1079.01
663.91	1075.20
664.25	1076.97
664.60	1076.01
664.94	1081.16
665.28	1082.76
665.62	1082.66
665.96	1084.09
666.30	1082.83
666.64	1082.45
666.98	1083.60
667.32	1081.58
667.66	1080.79
668.01	1083.95
668.35	1081.44
668.69	1080.60
669.03	1082.26
669.37	1082.47
669.71	1077.35
670.05	1079.20
670.39	1080.84
670.73	1081.70
671.07	1080.79
671.41	1082.76
671.75	1084.35
672.09	1082.57
672.43	1082.59
672.77	1081.35
673.11	1081.09
673.45	1081.61
673.79	1082.85
674.13	1082.47
674.47	1080.86
674.81	1082.12
675.15	1075.13
675.49	1070.84
675.83	1070.23
676.17	1075.50
676.51	1076.95
676.85	1083.13
677.19	1085.45
677.53	1087.20
677.87	1079.60
678.21	1078.92
678.55	1078.73
678.89	1079.27
679.23	1078.94
679.57	1081.75
679.90	1082.43
680.24	1081.16
680.58	1081.51
680.92	1082.92
681.26	1084.93
681.60	1082.80
681.94	1082.15
682.28	1081.19
682.62	1080.56
682.96	1078.66
683.29	1079.41
683.63	1079.76
683.97	1079.34
684.31	1076.76
684.65	1074.38
684.99	1073.18
685.33	1071.94
685.67	1071.36
686.00	1071.24
686.34	1074.45
686.68	1074.10
687.02	1077.14
687.36	1082.57
687.70	1083.27
688.03	1081.47
688.37	1082.15
688.71	1082.05
689.05	1079.81
689.39	1081.47
689.72	1084.00
690.06	1083.95
690.40	1082.76
690.74	1080.46
691.08	1076.97
691.41	1076.62
691.75	1076.51
692.09	1076.06
692.43	1075.03
692.76	1076.55
693.10	1077.91
693.44	1078.33
693.78	1077.25
694.11	1077.51
694.45	1076.13
694.79	1075.03
695.13	1077.30
695.46	1077.56
695.80	1078.00
696.14	1082.43
696.48	1084.63
696.81	1084.65
697.15	1086.48
697.49	1086.69
697.82	1084.35
698.16	1080.20
698.50	1077.77
698.83	1075.80
699.17	1079.17
699.51	1076.60
699.84	1077.00
700.18	1077.82
700.52	1079.41
700.85	1075.55
701.19	1080.30
701.53	1080.86
701.86	1081.35
702.20	1081.89
702.54	1082.29
702.87	1079.31
703.21	1080.11
703.55	1079.53
703.88	1080.95
704.22	1084.37
704.55	1083.25
704.89	1083.01
705.23	1082.19
705.56	1081.02
705.90	1080.18
706.23	1083.36
706.57	1084.58
706.91	1085.31
707.24	1083.11
707.58	1084.74
707.91	1086.27
708.25	1087.95
708.58	1090.22
708.92	1088.16
709.26	1083.36
709.59	1080.51
709.93	1076.20
710.26	1076.79
710.60	1079.17
710.93	1079.69
711.27	1078.89
711.60	1082.03
711.94	1077.30
712.27	1080.34
712.61	1084.28
712.94	1085.63
713.28	1083.46
713.61	1086.03
713.95	1089.24
714.28	1086.10
714.62	1086.01
714.95	1086.85
715.29	1084.58
715.62	1078.31
715.96	1076.83
716.29	1076.15
716.63	1074.70
716.96	1075.55
717.29	1075.31
717.63	1074.49
717.96	1074.42
718.30	1071.54
718.63	1072.48
718.97	1073.09
719.30	1076.34
719.63	1076.34
719.97	1081.07
720.30	1079.24
720.64	1077.89
720.97	1077.04
721.30	1077.65
721.64	1079.38
721.97	1083.22
722.31	1084.74
722.64	1088.68
722.97	1090.69
723.31	1088.02
723.64	1084.32
723.97	1080.37
724.31	1074.54
724.64	1071.78
724.98	1073.28
725.31	1073.42
725.64	1078.05
725.98	1081.89
726.31	1081.33
726.64	1079.34
726.97	1081.05
727.31	1080.11
727.64	1078.33
727.97	1081.02
728.31	1083.36
728.64	1083.71
728.97	1083.01
729.31	1080.65
729.64	1080.37
729.97	1080.98
730.30	1081.30
730.64	1084.56
730.97	1087.60
731.30	1084.11
731.63	1082.01
731.97	1082.10
732.30	1081.14
732.63	1077.72
732.96	1084.07
733.30	1085.21
733.63	1084.32
733.96	1083.57
734.29	1087.86
734.63	1081.49
734.96	1081.68
735.29	1081.26
735.62	1081.61
735.95	1079.76
736.29	1081.35
736.62	1079.64
736.95	1081.05
737.28	1078.47
737.61	1082.19
737.94	1082.57
738.28	1081.42
738.61	1081.77
738.94	1080.65
739.27	1078.28
739.60	1079.34
739.93	1080.53
740.27	1077.96
740.60	1082.73
740.93	1081.51
741.26	1081.05
741.59	1079.22
741.92	1082.47
742.25	1082.78
742.58	1082.43
742.91	1083.15
743.25	1085.91
743.58	1082.50
743.91	1080.02
744.24	1079.99
744.57	1077.54
744.90	1075.10
745.23	1075.05
745.56	1074.56
745.89	1075.29
746.22	1076.97
746.55	1076.67
746.88	1077.70
747.21	1080.18
747.54	1082.03
747.87	1082.73
748.20	1087.62
748.53	1086.87
748.87	1084.60
749.20	1084.44
749.53	1083.67
749.86	1081.07
750.19	1081.63
750.52	1081.63
750.85	1079.99
751.18	1079.62
751.51	1079.81
751.84	1081.70
752.16	1080.81
752.49	1082.15
752.82	1082.59
753.15	1085.24
753.48	1084.16
753.81	1087.62
754.14	1084.63
754.47	1080.25
754.80	1076.83
755.13	1076.72
755.46	1073.98
755.79	1076.79
756.12	1082.29
756.45	1081.23
756.78	1080.27
757.11	1079.03
757.43	1078.85
757.76	1077.37
758.09	1078.99
758.42	1077.82
758.75	1078.66
759.08	1076.11
759.41	1077.44
759.74	1076.88
760.07	1078.21
760.39	1081.82
760.72	1083.97
761.05	1079.15
761.38	1080.48
761.71	1079.95
762.04	1077.11
762.36	1077.72
762.69	1081.28
763.02	1079.22
763.35	1079.41
763.68	1079.43
764.01	1074.26
764.33	1071.36
764.66	1072.39
764.99	1072.53
765.32	1075.97
765.65	1079.83
765.97	1083.06
766.30	1083.93
