SpectraSuite Data File
++++++++++++++++++++++++++++++++++++
Date: Mon Aug 26 10:26:00 PDT 2019
User: corrico
Dark Spectrum Present: No
Reference Spectrum Present: No
Number of Sampled Component Spectra: 1
Spectrometers: USB2+H06089
Integration Time (usec): 10000 (USB2+H06089)
Spectra Averaged: 2 (USB2+H06089)
Boxcar Smoothing: 2 (USB2+H06089)
Correct for Electrical Dark: No (USB2+H06089)
Strobe/Lamp Enabled: No (USB2+H06089)
Correct for Detector Non-linearity: No (USB2+H06089)
Correct for Stray Light: No (USB2+H06089)
Number of Pixels in Processed Spectrum: 2048
>>>>>Begin Processed Spectral Data<<<<<
339.70	1061.43
340.07	1061.43
340.45	1019.54
340.82	992.15
341.19	956.58
341.57	921.94
341.94	916.79
342.31	909.30
342.69	908.36
343.06	909.77
343.43	911.40
343.81	903.21
344.18	895.96
344.55	893.15
344.93	899.47
345.30	909.53
345.67	918.19
346.04	929.19
346.42	933.64
346.79	940.43
347.16	949.79
347.54	950.73
347.91	965.71
348.28	982.32
348.65	987.00
349.03	984.90
349.40	998.94
349.77	994.96
350.14	1007.83
350.52	1032.64
350.89	1050.90
351.26	1059.79
351.63	1076.41
352.01	1070.80
352.38	1059.09
352.75	1061.90
353.12	1057.69
353.50	1060.03
353.87	1077.35
354.24	1078.75
354.61	1078.75
354.98	1089.29
355.36	1089.75
355.73	1075.01
356.10	1071.73
356.47	1070.33
356.84	1065.41
357.22	1063.07
357.59	1064.01
357.96	1073.60
358.33	1078.52
358.70	1077.11
359.08	1085.07
359.45	1084.84
359.82	1084.84
360.19	1073.37
360.56	1077.58
360.94	1077.58
361.31	1093.50
361.68	1085.77
362.05	1087.41
362.42	1090.22
362.79	1089.05
363.16	1077.35
363.54	1087.88
363.91	1095.84
364.28	1096.54
364.65	1095.14
365.02	1098.88
365.39	1087.65
365.76	1078.75
366.14	1071.03
366.51	1064.71
366.88	1049.26
367.25	1050.20
367.62	1049.73
367.99	1052.54
368.36	1045.52
368.73	1052.07
369.10	1048.79
369.48	1046.45
369.85	1048.79
370.22	1057.92
370.59	1059.09
370.96	1072.90
371.33	1079.46
371.70	1069.16
372.07	1061.67
372.44	1054.65
372.81	1043.18
373.18	1047.16
373.55	1062.14
373.93	1066.35
374.30	1083.43
374.67	1089.05
375.04	1081.80
375.41	1073.60
375.78	1071.50
376.15	1068.69
376.52	1068.45
376.89	1067.99
377.26	1067.99
377.63	1061.67
378.00	1052.07
378.37	1056.52
378.74	1061.43
379.11	1053.71
379.48	1056.52
379.85	1066.58
380.22	1065.65
380.59	1063.77
380.96	1070.56
381.33	1070.56
381.70	1065.41
382.07	1061.43
382.44	1066.11
382.81	1067.52
383.18	1071.26
383.55	1068.69
383.92	1069.16
384.29	1067.75
384.66	1068.45
385.03	1070.33
385.40	1066.82
385.77	1070.56
386.14	1068.45
386.51	1068.69
386.88	1073.14
387.25	1083.67
387.62	1071.73
387.99	1078.52
388.36	1080.86
388.73	1082.97
389.10	1076.41
389.46	1082.26
389.83	1078.75
390.20	1068.45
390.57	1054.65
390.94	1057.69
391.31	1068.22
391.68	1068.69
392.05	1086.24
392.42	1099.12
392.79	1091.86
393.16	1082.26
393.53	1084.37
393.89	1069.62
394.26	1064.24
394.63	1064.01
395.00	1067.28
395.37	1060.26
395.74	1064.48
396.11	1062.60
396.48	1062.60
396.84	1064.94
397.21	1065.88
397.58	1068.92
397.95	1072.20
398.32	1092.80
398.69	1098.88
399.06	1092.33
399.42	1076.65
399.79	1071.26
400.16	1059.56
400.53	1055.11
400.90	1059.56
401.27	1068.92
401.64	1075.48
402.00	1067.52
402.37	1060.50
402.74	1062.14
403.11	1064.01
403.48	1059.09
403.84	1072.67
404.21	1071.50
404.58	1073.37
404.95	1066.58
405.32	1065.18
405.68	1052.54
406.05	1057.22
406.42	1063.54
406.79	1086.01
407.16	1096.31
407.52	1090.22
407.89	1090.69
408.26	1080.16
408.63	1065.88
408.99	1067.99
409.36	1087.65
409.73	1093.50
410.10	1091.86
410.47	1091.86
410.83	1086.24
411.20	1083.20
411.57	1082.26
411.94	1085.54
412.30	1088.12
412.67	1089.99
413.04	1085.31
413.40	1075.24
413.77	1082.03
414.14	1085.31
414.51	1086.01
414.87	1082.73
415.24	1091.39
415.61	1079.22
415.97	1072.43
416.34	1072.43
416.71	1078.99
417.08	1077.35
417.44	1080.39
417.81	1084.37
418.18	1077.82
418.54	1082.50
418.91	1084.37
419.28	1091.16
419.64	1091.16
420.01	1094.67
420.38	1080.86
420.74	1087.88
421.11	1094.67
421.48	1091.39
421.84	1093.50
422.21	1099.35
422.58	1086.94
422.94	1077.35
423.31	1076.18
423.68	1080.63
424.04	1079.92
424.41	1070.80
424.77	1072.90
425.14	1071.97
425.51	1062.84
425.87	1061.90
426.24	1072.43
426.61	1071.26
426.97	1077.35
427.34	1075.94
427.70	1075.48
428.07	1067.52
428.44	1062.14
428.80	1059.56
429.17	1058.86
429.53	1055.35
429.90	1060.50
430.27	1069.39
430.63	1078.05
431.00	1085.31
431.36	1092.09
431.73	1090.46
432.09	1089.52
432.46	1081.33
432.83	1077.58
433.19	1069.86
433.56	1082.97
433.92	1086.01
434.29	1082.03
434.65	1083.20
435.02	1087.18
435.38	1080.63
435.75	1079.46
436.11	1080.63
436.48	1085.77
436.84	1094.67
437.21	1086.94
437.57	1089.29
437.94	1094.20
438.30	1086.24
438.67	1075.24
439.03	1085.54
439.40	1077.58
439.76	1066.35
440.13	1068.69
440.49	1078.75
440.86	1075.71
441.22	1079.46
441.59	1085.31
441.95	1082.73
442.32	1080.63
442.68	1075.01
443.05	1071.97
443.41	1083.20
443.78	1092.56
444.14	1083.67
444.51	1084.14
444.87	1086.71
445.24	1086.71
445.60	1081.80
445.96	1092.56
446.33	1099.58
446.69	1097.24
447.06	1084.14
447.42	1093.26
447.79	1082.50
448.15	1081.09
448.51	1088.82
448.88	1093.73
449.24	1084.60
449.61	1091.63
449.97	1093.26
450.33	1085.77
450.70	1092.09
451.06	1087.65
451.43	1083.90
451.79	1068.92
452.15	1065.65
452.52	1068.92
452.88	1075.71
453.24	1074.07
453.61	1090.69
453.97	1100.52
454.34	1086.94
454.70	1080.39
455.06	1089.29
455.43	1075.01
455.79	1068.45
456.15	1069.62
456.52	1073.84
456.88	1075.71
457.24	1082.97
457.61	1084.60
457.97	1093.97
458.33	1094.20
458.70	1092.09
459.06	1090.22
459.42	1083.90
459.79	1075.94
460.15	1073.84
460.51	1075.24
460.88	1084.37
461.24	1084.14
461.60	1086.48
461.96	1086.24
462.33	1081.56
462.69	1075.94
463.05	1076.41
463.42	1077.11
463.78	1077.35
464.14	1068.92
464.50	1073.37
464.87	1082.73
465.23	1078.99
465.59	1078.52
465.95	1082.03
466.32	1083.43
466.68	1080.63
467.04	1086.48
467.40	1086.48
467.77	1092.80
468.13	1085.77
468.49	1080.86
468.85	1080.16
469.22	1088.82
469.58	1085.54
469.94	1086.01
470.30	1088.58
470.66	1092.80
471.03	1089.99
471.39	1093.03
471.75	1098.88
472.11	1095.84
472.47	1093.50
472.84	1087.18
473.20	1087.18
473.56	1092.80
473.92	1101.46
474.28	1093.97
474.65	1096.54
475.01	1087.18
475.37	1079.69
475.73	1070.80
476.09	1077.35
476.45	1071.03
476.81	1083.43
477.18	1079.46
477.54	1090.92
477.90	1088.12
478.26	1094.20
478.62	1091.86
478.98	1100.29
479.34	1096.78
479.71	1089.52
480.07	1092.80
480.43	1093.26
480.79	1083.20
481.15	1077.82
481.51	1072.67
481.87	1071.03
482.23	1069.39
482.59	1071.26
482.96	1078.75
483.32	1079.22
483.68	1081.56
484.04	1079.22
484.40	1076.65
484.76	1074.31
485.12	1093.26
485.48	1100.05
485.84	1099.58
486.20	1104.03
486.56	1101.46
486.92	1098.41
487.28	1087.41
487.64	1089.75
488.00	1090.22
488.37	1095.60
488.73	1091.86
489.09	1086.71
489.45	1080.16
489.81	1072.90
490.17	1063.77
490.53	1064.94
490.89	1073.37
491.25	1076.18
491.61	1087.88
491.97	1092.33
492.33	1095.60
492.69	1087.88
493.05	1082.26
493.41	1083.90
493.77	1081.80
494.13	1083.20
494.49	1089.52
494.85	1092.56
495.21	1080.86
495.57	1072.67
495.93	1068.69
496.29	1068.69
496.64	1072.67
497.00	1076.41
497.36	1088.58
497.72	1087.41
498.08	1092.80
498.44	1087.65
498.80	1082.50
499.16	1075.01
499.52	1074.54
499.88	1071.26
500.24	1075.01
500.60	1083.90
500.96	1088.12
501.32	1090.46
501.68	1087.88
502.03	1084.60
502.39	1082.03
502.75	1076.88
503.11	1075.94
503.47	1072.43
503.83	1073.60
504.19	1082.03
504.55	1078.75
504.91	1077.82
505.26	1077.58
505.62	1088.12
505.98	1082.26
506.34	1096.07
506.70	1104.97
507.06	1112.92
507.42	1107.54
507.78	1099.82
508.13	1095.60
508.49	1081.33
508.85	1065.41
509.21	1069.62
509.57	1071.26
509.93	1064.94
510.28	1077.58
510.64	1086.71
511.00	1085.07
511.36	1086.71
511.72	1100.29
512.07	1089.52
512.43	1092.56
512.79	1092.80
513.15	1087.88
513.51	1078.75
513.86	1082.73
514.22	1081.80
514.58	1079.22
514.94	1083.90
515.30	1082.73
515.65	1085.31
516.01	1090.22
516.37	1092.56
516.73	1086.94
517.08	1091.16
517.44	1088.35
517.80	1086.48
518.16	1096.31
518.51	1107.07
518.87	1108.95
519.23	1110.12
519.59	1108.01
519.94	1100.29
520.30	1093.50
520.66	1085.77
521.01	1092.80
521.37	1092.80
521.73	1088.35
522.09	1104.26
522.44	1111.05
522.80	1102.16
523.16	1103.33
523.51	1093.97
523.87	1078.75
524.23	1081.33
524.58	1072.90
524.94	1065.88
525.30	1075.24
525.65	1073.60
526.01	1064.24
526.37	1076.41
526.72	1081.56
527.08	1085.07
527.44	1093.26
527.79	1093.97
528.15	1102.86
528.51	1103.56
528.86	1088.12
529.22	1080.86
529.58	1093.97
529.93	1080.86
530.29	1079.46
530.65	1082.97
531.00	1086.71
531.36	1079.69
531.71	1073.37
532.07	1076.18
532.43	1089.75
532.78	1086.94
533.14	1086.01
533.49	1088.35
533.85	1093.50
534.21	1082.97
534.56	1087.18
534.92	1089.99
535.27	1097.01
535.63	1093.50
535.98	1102.63
536.34	1101.69
536.69	1101.69
537.05	1108.24
537.41	1106.84
537.76	1100.75
538.12	1098.88
538.47	1099.12
538.83	1091.63
539.18	1079.69
539.54	1072.67
539.89	1071.97
540.25	1063.07
540.60	1060.73
540.96	1070.56
541.31	1093.03
541.67	1097.24
542.02	1101.92
542.38	1103.56
542.73	1094.90
543.09	1079.22
543.44	1077.58
543.80	1081.56
544.15	1086.48
544.51	1102.63
544.86	1110.35
545.22	1104.50
545.57	1088.58
545.93	1083.43
546.28	1080.63
546.64	1082.03
546.99	1095.14
547.35	1112.92
547.70	1115.73
548.05	1106.84
548.41	1102.63
548.76	1099.58
549.12	1094.90
549.47	1084.60
549.83	1089.29
550.18	1097.48
550.53	1091.63
550.89	1093.73
551.24	1102.16
551.60	1097.48
551.95	1087.88
552.30	1093.50
552.66	1088.82
553.01	1086.71
553.37	1086.94
553.72	1089.05
554.07	1087.41
554.43	1092.56
554.78	1091.63
555.13	1093.73
555.49	1100.29
555.84	1093.26
556.19	1092.33
556.55	1099.58
556.90	1097.48
557.26	1083.43
557.61	1084.84
557.96	1081.80
558.32	1079.46
558.67	1082.50
559.02	1088.58
559.37	1095.84
559.73	1086.71
560.08	1084.60
560.43	1087.88
560.79	1084.14
561.14	1088.35
561.49	1100.52
561.85	1097.24
562.20	1094.90
562.55	1106.61
562.90	1092.56
563.26	1086.48
563.61	1087.41
563.96	1087.88
564.32	1071.03
564.67	1066.58
565.02	1064.24
565.37	1070.56
565.73	1064.71
566.08	1069.16
566.43	1076.18
566.78	1074.54
567.14	1068.69
567.49	1080.63
567.84	1084.37
568.19	1082.50
568.54	1084.37
568.90	1084.14
569.25	1077.11
569.60	1078.75
569.95	1083.20
570.31	1085.31
570.66	1079.22
571.01	1085.77
571.36	1081.33
571.71	1084.14
572.06	1089.99
572.42	1098.18
572.77	1095.84
573.12	1091.39
573.47	1085.07
573.82	1070.80
574.18	1070.56
574.53	1071.03
574.88	1071.50
575.23	1078.52
575.58	1083.20
575.93	1085.54
576.28	1075.71
576.64	1073.60
576.99	1069.39
577.34	1083.43
577.69	1078.52
578.04	1078.05
578.39	1088.82
578.74	1089.52
579.09	1084.14
579.44	1086.94
579.80	1093.97
580.15	1086.48
580.50	1083.43
580.85	1084.37
581.20	1082.03
581.55	1081.09
581.90	1078.05
582.25	1074.07
582.60	1070.80
582.95	1077.82
583.30	1072.67
583.65	1071.50
584.00	1079.22
584.35	1078.99
584.71	1074.54
585.06	1077.58
585.41	1075.71
585.76	1070.09
586.11	1077.35
586.46	1066.35
586.81	1067.52
587.16	1079.22
587.51	1086.94
587.86	1079.22
588.21	1093.03
588.56	1094.90
588.91	1099.12
589.26	1094.67
589.61	1091.86
589.96	1088.12
590.31	1082.03
590.66	1075.01
591.01	1077.35
591.36	1080.16
591.71	1087.18
592.06	1094.43
592.41	1090.69
592.76	1092.33
593.10	1089.05
593.45	1073.14
593.80	1073.37
594.15	1072.43
594.50	1069.39
594.85	1074.31
595.20	1079.22
595.55	1071.50
595.90	1080.39
596.25	1078.52
596.60	1080.39
596.95	1080.63
597.30	1082.03
597.64	1120.65
597.99	1121.35
598.34	1119.24
598.69	1127.44
599.04	1131.41
599.39	1085.77
599.74	1091.16
600.09	1094.43
600.44	1086.94
600.78	1086.71
601.13	1080.86
601.48	1080.39
601.83	1081.56
602.18	1077.11
602.53	1079.22
602.88	1091.63
603.22	1091.16
603.57	1083.43
603.92	1101.46
604.27	1095.84
604.62	1096.54
604.97	1096.54
605.31	1100.29
605.66	1094.20
606.01	1097.24
606.36	1095.37
606.71	1091.86
607.05	1084.14
607.40	1082.03
607.75	1090.69
608.10	1086.01
608.44	1089.75
608.79	1099.12
609.14	1104.26
609.49	1102.63
609.84	1100.29
610.18	1092.80
610.53	1096.78
610.88	1096.78
611.23	1088.82
611.57	1101.46
611.92	1108.95
612.27	1110.35
612.62	1102.16
612.96	1100.05
613.31	1088.35
613.66	1083.20
614.00	1076.41
614.35	1074.07
614.70	1070.80
615.05	1077.82
615.39	1073.60
615.74	1063.77
616.09	1070.80
616.43	1066.58
616.78	1065.18
617.13	1071.26
617.47	1082.50
617.82	1072.90
618.17	1076.65
618.51	1081.80
618.86	1090.69
619.21	1089.05
619.55	1090.69
619.90	1102.39
620.25	1089.75
620.59	1089.99
620.94	1097.95
621.29	1096.54
621.63	1085.77
621.98	1100.52
622.32	1090.46
622.67	1089.75
623.02	1085.54
623.36	1085.77
623.71	1077.35
624.05	1080.86
624.40	1081.56
624.75	1087.88
625.09	1098.18
625.44	1096.07
625.78	1096.31
626.13	1088.35
626.48	1084.84
626.82	1079.69
627.17	1088.35
627.51	1084.84
627.86	1075.48
628.20	1087.18
628.55	1083.20
628.89	1076.65
629.24	1071.73
629.58	1086.01
629.93	1071.03
630.28	1074.54
630.62	1082.26
630.97	1092.09
631.31	1088.35
631.66	1097.01
632.00	1092.56
632.35	1083.90
632.69	1080.63
633.04	1073.84
633.38	1073.14
633.73	1075.48
634.07	1074.77
634.42	1073.60
634.76	1074.54
635.11	1075.48
635.45	1073.37
635.79	1066.35
636.14	1069.62
636.48	1071.26
636.83	1073.60
637.17	1066.11
637.52	1075.48
637.86	1069.86
638.21	1073.84
638.55	1060.96
638.89	1063.54
639.24	1070.09
639.58	1077.35
639.93	1072.43
640.27	1086.24
640.61	1094.20
640.96	1091.63
641.30	1084.14
641.65	1089.52
641.99	1085.31
642.33	1093.97
642.68	1086.24
643.02	1086.24
643.37	1081.09
643.71	1077.82
644.05	1072.43
644.40	1073.84
644.74	1069.86
645.08	1070.80
645.43	1077.35
645.77	1073.84
646.11	1076.18
646.46	1078.99
646.80	1077.35
647.14	1075.24
647.49	1082.73
647.83	1092.56
648.17	1088.58
648.52	1078.05
648.86	1061.20
649.20	1058.16
649.55	1052.77
649.89	1058.16
650.23	1069.86
650.57	1082.50
650.92	1080.39
651.26	1079.92
651.60	1082.73
651.95	1083.90
652.29	1083.20
652.63	1081.33
652.97	1086.48
653.32	1091.39
653.66	1091.86
654.00	1097.71
654.34	1093.73
654.69	1077.58
655.03	1072.43
655.37	1074.07
655.71	1073.37
656.05	1074.31
656.40	1079.92
656.74	1082.50
657.08	1081.33
657.42	1080.86
657.76	1081.33
658.11	1072.43
658.45	1079.22
658.79	1075.48
659.13	1068.69
659.47	1073.60
659.82	1085.07
660.16	1074.07
660.50	1072.43
660.84	1079.46
661.18	1081.56
661.52	1070.09
661.87	1070.33
662.21	1081.80
662.55	1089.05
662.89	1081.09
663.23	1087.65
663.57	1085.77
663.91	1072.90
664.25	1063.31
664.60	1064.71
664.94	1064.48
665.28	1059.79
665.62	1066.11
665.96	1066.35
666.30	1060.96
666.64	1071.97
666.98	1076.65
667.32	1075.94
667.66	1082.97
668.01	1103.80
668.35	1086.24
668.69	1084.14
669.03	1084.14
669.37	1079.46
669.71	1059.09
670.05	1061.20
670.39	1063.54
670.73	1061.20
671.07	1063.07
671.41	1068.92
671.75	1076.65
672.09	1082.03
672.43	1073.84
672.77	1066.35
673.11	1060.73
673.45	1069.62
673.79	1068.69
674.13	1067.75
674.47	1068.92
674.81	1076.41
675.15	1067.52
675.49	1062.14
675.83	1072.67
676.17	1091.16
676.51	1098.65
676.85	1097.24
677.19	1104.26
677.53	1108.01
677.87	1093.50
678.21	1087.18
678.55	1088.82
678.89	1091.63
679.23	1086.24
679.57	1087.88
679.90	1090.69
680.24	1101.69
680.58	1094.43
680.92	1101.46
681.26	1102.39
681.60	1096.31
681.94	1093.03
682.28	1089.52
682.62	1081.33
682.96	1086.24
683.29	1093.26
683.63	1085.31
683.97	1090.69
684.31	1097.48
684.65	1087.41
684.99	1087.65
685.33	1085.07
685.67	1088.12
686.00	1082.97
686.34	1086.71
686.68	1080.86
687.02	1080.63
687.36	1074.07
687.70	1079.22
688.03	1087.18
688.37	1085.77
688.71	1089.29
689.05	1101.92
689.39	1100.05
689.72	1100.29
690.06	1104.26
690.40	1101.46
690.74	1082.97
691.08	1081.33
691.41	1073.60
691.75	1072.67
692.09	1072.90
692.43	1075.71
692.76	1078.05
693.10	1073.60
693.44	1080.63
693.78	1077.58
694.11	1079.46
694.45	1080.63
694.79	1087.18
695.13	1076.88
695.46	1077.82
695.80	1078.52
696.14	1073.60
696.48	1075.94
696.81	1072.20
697.15	1082.50
697.49	1091.39
697.82	1086.94
698.16	1081.80
698.50	1087.88
698.83	1081.33
699.17	1076.88
699.51	1086.71
699.84	1080.86
700.18	1089.52
700.52	1090.69
700.85	1083.67
701.19	1081.33
701.53	1090.92
701.86	1089.05
702.20	1086.71
702.54	1088.12
702.87	1085.31
703.21	1078.05
703.55	1067.05
703.88	1065.88
704.22	1068.22
704.55	1073.37
704.89	1064.01
705.23	1068.92
705.56	1073.84
705.90	1078.99
706.23	1080.86
706.57	1104.97
706.91	1107.78
707.24	1103.09
707.58	1100.52
707.91	1090.69
708.25	1074.31
708.58	1074.77
708.92	1078.99
709.26	1080.86
709.59	1086.24
709.93	1085.31
710.26	1079.46
710.60	1082.03
710.93	1084.37
711.27	1081.09
711.60	1079.92
711.94	1076.18
712.27	1064.48
712.61	1061.90
712.94	1059.79
713.28	1069.16
713.61	1079.92
713.95	1089.75
714.28	1095.37
714.62	1100.99
714.95	1094.67
715.29	1082.26
715.62	1081.80
715.96	1074.31
716.29	1066.35
716.63	1071.73
716.96	1072.20
717.29	1084.60
717.63	1090.46
717.96	1093.50
718.30	1092.56
718.63	1097.48
718.97	1081.80
719.30	1077.58
719.63	1083.43
719.97	1079.69
720.30	1080.86
720.64	1084.84
720.97	1076.18
721.30	1076.88
721.64	1079.69
721.97	1081.09
722.31	1075.94
722.64	1089.52
722.97	1083.90
723.31	1092.33
723.64	1098.41
723.97	1093.26
724.31	1080.63
724.64	1079.92
724.98	1071.73
725.31	1066.58
725.64	1064.94
725.98	1068.45
726.31	1069.16
726.64	1065.88
726.97	1067.28
727.31	1084.84
727.64	1079.46
727.97	1077.11
728.31	1081.80
728.64	1078.28
728.97	1067.75
729.31	1078.75
729.64	1084.60
729.97	1085.07
730.30	1084.60
730.64	1083.67
730.97	1079.22
731.30	1069.86
731.63	1062.84
731.97	1062.37
732.30	1063.07
732.63	1057.45
732.96	1072.43
733.30	1078.52
733.63	1083.20
733.96	1092.33
734.29	1078.52
734.63	1067.75
734.96	1068.45
735.29	1062.84
735.62	1058.39
735.95	1075.01
736.29	1082.26
736.62	1077.35
736.95	1079.22
737.28	1082.73
737.61	1082.50
737.94	1085.07
738.28	1095.37
738.61	1097.01
738.94	1090.22
739.27	1085.54
739.60	1067.28
739.93	1060.73
740.27	1063.07
740.60	1059.79
740.93	1060.96
741.26	1080.16
741.59	1082.26
741.92	1086.94
742.25	1092.09
742.58	1103.80
742.91	1091.86
743.25	1083.43
743.58	1070.33
743.91	1074.31
744.24	1070.09
744.57	1067.99
744.90	1069.16
745.23	1073.37
745.56	1068.69
745.89	1060.50
746.22	1071.03
746.55	1069.16
746.88	1067.75
747.21	1062.84
747.54	1075.01
747.87	1076.65
748.20	1082.73
748.53	1084.14
748.87	1086.48
749.20	1083.20
749.53	1083.90
749.86	1077.58
750.19	1078.75
750.52	1075.48
750.85	1067.75
751.18	1066.11
751.51	1067.99
751.84	1061.43
752.16	1066.11
752.49	1073.84
752.82	1067.05
753.15	1060.50
753.48	1071.73
753.81	1075.24
754.14	1077.82
754.47	1075.48
754.80	1089.29
755.13	1088.12
755.46	1078.05
755.79	1078.75
756.12	1090.46
756.45	1090.46
756.78	1083.67
757.11	1077.11
757.43	1075.71
757.76	1075.01
758.09	1077.35
758.42	1084.84
758.75	1099.82
759.08	1097.71
759.41	1097.24
759.74	1085.77
760.07	1085.07
760.39	1085.54
760.72	1082.50
761.05	1081.09
761.38	1086.94
761.71	1085.31
762.04	1084.14
762.36	1092.33
762.69	1097.71
763.02	1098.18
763.35	1088.82
763.68	1090.69
764.01	1078.05
764.33	1068.92
764.66	1062.60
764.99	1067.28
765.32	1064.71
765.65	1068.69
765.97	1073.84
766.30	1080.63
