SpectraSuite Data File
++++++++++++++++++++++++++++++++++++
Date: Mon Aug 26 10:26:02 PDT 2019
User: corrico
Dark Spectrum Present: No
Reference Spectrum Present: No
Number of Sampled Component Spectra: 1
Spectrometers: USB2+H06089
Integration Time (usec): 10000 (USB2+H06089)
Spectra Averaged: 2 (USB2+H06089)
Boxcar Smoothing: 2 (USB2+H06089)
Correct for Electrical Dark: No (USB2+H06089)
Strobe/Lamp Enabled: No (USB2+H06089)
Correct for Detector Non-linearity: No (USB2+H06089)
Correct for Stray Light: No (USB2+H06089)
Number of Pixels in Processed Spectrum: 2048
>>>>>Begin Processed Spectral Data<<<<<
339.70	1038.03
340.07	1038.03
340.45	1004.56
340.82	986.07
341.19	952.83
341.57	932.47
341.94	912.34
342.31	899.00
342.69	887.77
343.06	888.23
343.43	888.00
343.81	909.77
344.18	914.92
344.55	921.00
344.93	931.07
345.30	935.98
345.67	926.38
346.04	932.47
346.42	945.81
346.79	948.62
347.16	949.79
347.54	953.30
347.91	967.81
348.28	978.81
348.65	997.54
349.03	1011.81
349.40	1023.75
349.77	1031.94
350.14	1034.52
350.52	1021.64
350.89	1018.13
351.26	1031.94
351.63	1026.79
352.01	1026.09
352.38	1051.13
352.75	1059.56
353.12	1064.71
353.50	1071.03
353.87	1071.03
354.24	1073.37
354.61	1077.35
354.98	1076.18
355.36	1082.50
355.73	1079.46
356.10	1072.90
356.47	1064.71
356.84	1065.18
357.22	1067.05
357.59	1078.52
357.96	1083.43
358.33	1103.56
358.70	1101.69
359.08	1092.33
359.45	1086.24
359.82	1086.71
360.19	1074.54
360.56	1070.56
360.94	1078.28
361.31	1087.18
361.68	1087.18
362.05	1091.39
362.42	1091.63
362.79	1091.86
363.16	1086.01
363.54	1074.07
363.91	1066.58
364.28	1057.92
364.65	1061.43
365.02	1063.07
365.39	1069.16
365.76	1075.48
366.14	1083.67
366.51	1072.20
366.88	1064.94
367.25	1078.28
367.62	1072.67
367.99	1081.09
368.36	1080.63
368.73	1083.43
369.10	1059.79
369.48	1059.56
369.85	1048.09
370.22	1054.41
370.59	1060.26
370.96	1069.62
371.33	1070.33
371.70	1071.03
372.07	1060.96
372.44	1053.48
372.81	1057.45
373.18	1051.84
373.55	1042.71
373.93	1055.58
374.30	1056.28
374.67	1045.99
375.04	1050.20
375.41	1063.07
375.78	1065.65
376.15	1071.97
376.52	1082.97
376.89	1084.14
377.26	1082.73
377.63	1070.56
378.00	1064.94
378.37	1059.09
378.74	1053.48
379.11	1051.60
379.48	1056.52
379.85	1057.92
380.22	1058.86
380.59	1056.99
380.96	1059.79
381.33	1060.50
381.70	1060.03
382.07	1063.07
382.44	1071.73
382.81	1068.22
383.18	1061.90
383.55	1068.69
383.92	1070.80
384.29	1064.01
384.66	1064.94
385.03	1068.92
385.40	1057.45
385.77	1050.90
386.14	1057.92
386.51	1060.26
386.88	1060.26
387.25	1068.45
387.62	1065.65
387.99	1067.99
388.36	1071.03
388.73	1068.45
389.10	1069.16
389.46	1073.37
389.83	1070.56
390.20	1062.60
390.57	1067.28
390.94	1061.67
391.31	1069.62
391.68	1067.52
392.05	1077.35
392.42	1075.71
392.79	1075.24
393.16	1064.94
393.53	1070.33
393.89	1064.01
394.26	1070.33
394.63	1072.43
395.00	1081.09
395.37	1075.94
395.74	1078.05
396.11	1073.37
396.48	1071.50
396.84	1061.20
397.21	1065.41
397.58	1063.77
397.95	1060.26
398.32	1066.35
398.69	1074.54
399.06	1057.69
399.42	1057.45
399.79	1062.60
400.16	1055.58
400.53	1051.13
400.90	1061.90
401.27	1070.56
401.64	1058.86
402.00	1056.99
402.37	1059.79
402.74	1064.94
403.11	1067.75
403.48	1084.60
403.84	1094.90
404.21	1094.67
404.58	1099.35
404.95	1089.75
405.32	1079.92
405.68	1082.26
406.05	1086.48
406.42	1078.52
406.79	1085.31
407.16	1083.43
407.52	1082.26
407.89	1068.69
408.26	1061.67
408.63	1051.13
408.99	1052.07
409.36	1048.33
409.73	1061.20
410.10	1072.20
410.47	1075.01
410.83	1068.22
411.20	1061.90
411.57	1067.05
411.94	1068.22
412.30	1075.71
412.67	1080.39
413.04	1087.65
413.40	1080.16
413.77	1080.39
414.14	1070.56
414.51	1076.41
414.87	1080.16
415.24	1083.20
415.61	1076.65
415.97	1085.54
416.34	1099.12
416.71	1095.60
417.08	1092.09
417.44	1090.92
417.81	1090.22
418.18	1078.99
418.54	1078.75
418.91	1080.39
419.28	1077.82
419.64	1080.86
420.01	1076.65
420.38	1072.20
420.74	1067.99
421.11	1079.69
421.48	1074.54
421.84	1078.75
422.21	1086.01
422.58	1086.01
422.94	1085.77
423.31	1085.31
423.68	1085.31
424.04	1081.56
424.41	1083.43
424.77	1084.14
425.14	1089.99
425.51	1086.71
425.87	1080.39
426.24	1086.71
426.61	1070.56
426.97	1068.45
427.34	1075.94
427.70	1090.46
428.07	1086.48
428.44	1098.18
428.80	1093.97
429.17	1088.35
429.53	1085.77
429.90	1088.12
430.27	1089.29
430.63	1080.63
431.00	1083.67
431.36	1078.52
431.73	1083.20
432.09	1081.33
432.46	1086.94
432.83	1084.14
433.19	1083.20
433.56	1070.56
433.92	1069.16
434.29	1070.56
434.65	1070.09
435.02	1064.94
435.38	1071.73
435.75	1064.94
436.11	1067.99
436.48	1073.60
436.84	1078.28
437.21	1073.84
437.57	1080.16
437.94	1074.77
438.30	1074.54
438.67	1075.48
439.03	1080.63
439.40	1077.82
439.76	1072.90
440.13	1086.71
440.49	1081.09
440.86	1074.54
441.22	1076.41
441.59	1086.24
441.95	1069.62
442.32	1073.60
442.68	1076.41
443.05	1071.50
443.41	1067.28
443.78	1070.56
444.14	1076.18
444.51	1074.31
444.87	1081.33
445.24	1083.67
445.60	1080.39
445.96	1074.07
446.33	1081.09
446.69	1088.58
447.06	1086.94
447.42	1087.88
447.79	1091.39
448.15	1086.71
448.51	1083.67
448.88	1094.67
449.24	1088.58
449.61	1083.43
449.97	1076.88
450.33	1076.41
450.70	1063.31
451.06	1075.71
451.43	1076.41
451.79	1076.65
452.15	1078.99
452.52	1089.29
452.88	1088.12
453.24	1087.41
453.61	1095.84
453.97	1085.54
454.34	1082.97
454.70	1071.73
455.06	1075.48
455.43	1077.82
455.79	1078.52
456.15	1069.86
456.52	1079.92
456.88	1082.26
457.24	1079.22
457.61	1078.52
457.97	1083.20
458.33	1073.37
458.70	1071.97
459.06	1068.22
459.42	1075.24
459.79	1072.43
460.15	1071.97
460.51	1076.41
460.88	1071.50
461.24	1070.80
461.60	1079.69
461.96	1090.92
462.33	1079.22
462.69	1092.09
463.05	1093.97
463.42	1093.26
463.78	1078.99
464.14	1084.84
464.50	1072.90
464.87	1075.94
465.23	1076.65
465.59	1090.69
465.95	1086.71
466.32	1098.18
466.68	1089.99
467.04	1091.16
467.40	1097.48
467.77	1093.73
468.13	1093.73
468.49	1100.75
468.85	1097.48
469.22	1079.92
469.58	1084.60
469.94	1083.20
470.30	1076.88
470.66	1076.18
471.03	1081.33
471.39	1089.29
471.75	1095.14
472.11	1091.39
472.47	1086.24
472.84	1080.86
473.20	1075.94
473.56	1072.20
473.92	1073.14
474.28	1082.03
474.65	1085.54
475.01	1083.90
475.37	1076.88
475.73	1080.16
476.09	1069.16
476.45	1065.88
476.81	1078.52
477.18	1084.37
477.54	1089.52
477.90	1100.29
478.26	1113.39
478.62	1100.29
478.98	1097.95
479.34	1093.03
479.71	1087.18
480.07	1085.31
480.43	1088.35
480.79	1079.22
481.15	1077.35
481.51	1067.05
481.87	1059.09
482.23	1058.16
482.59	1062.60
482.96	1064.24
483.32	1074.31
483.68	1078.75
484.04	1083.43
484.40	1086.01
484.76	1082.97
485.12	1086.01
485.48	1079.22
485.84	1064.01
486.20	1062.37
486.56	1067.28
486.92	1062.60
487.28	1062.37
487.64	1073.60
488.00	1076.41
488.37	1078.05
488.73	1078.52
489.09	1079.46
489.45	1081.09
489.81	1085.07
490.17	1088.58
490.53	1092.80
490.89	1108.24
491.25	1107.07
491.61	1101.46
491.97	1082.03
492.33	1071.73
492.69	1061.20
493.05	1056.28
493.41	1057.45
493.77	1071.73
494.13	1081.09
494.49	1082.26
494.85	1085.77
495.21	1086.71
495.57	1086.24
495.93	1083.67
496.29	1074.77
496.64	1082.97
497.00	1082.03
497.36	1088.12
497.72	1086.24
498.08	1089.99
498.44	1075.94
498.80	1064.71
499.16	1056.52
499.52	1059.33
499.88	1062.84
500.24	1069.62
500.60	1082.26
500.96	1082.50
501.32	1083.90
501.68	1074.54
502.03	1069.86
502.39	1069.16
502.75	1067.99
503.11	1069.62
503.47	1075.24
503.83	1072.67
504.19	1072.20
504.55	1067.52
504.91	1067.75
505.26	1064.24
505.62	1070.56
505.98	1070.09
506.34	1071.73
506.70	1069.16
507.06	1071.03
507.42	1071.50
507.78	1068.69
508.13	1078.99
508.49	1071.97
508.85	1079.46
509.21	1079.92
509.57	1087.88
509.93	1086.24
510.28	1095.37
510.64	1090.46
511.00	1095.14
511.36	1084.84
511.72	1076.88
512.07	1074.31
512.43	1069.86
512.79	1062.37
513.15	1074.31
513.51	1087.18
513.86	1089.05
514.22	1101.92
514.58	1110.58
514.94	1103.09
515.30	1096.54
515.65	1096.54
516.01	1089.75
516.37	1078.05
516.73	1078.28
517.08	1082.03
517.44	1074.54
517.80	1083.90
518.16	1089.99
518.51	1091.39
518.87	1088.82
519.23	1093.97
519.59	1089.29
519.94	1091.63
520.30	1096.31
520.66	1101.69
521.01	1106.37
521.37	1100.75
521.73	1100.05
522.09	1095.14
522.44	1089.29
522.80	1083.90
523.16	1085.77
523.51	1084.37
523.87	1076.41
524.23	1077.11
524.58	1084.60
524.94	1089.52
525.30	1089.29
525.65	1097.48
526.01	1091.39
526.37	1098.88
526.72	1100.29
527.08	1103.80
527.44	1107.78
527.79	1109.41
528.15	1101.69
528.51	1095.60
528.86	1093.97
529.22	1086.94
529.58	1093.97
529.93	1082.50
530.29	1088.82
530.65	1091.63
531.00	1097.71
531.36	1089.29
531.71	1096.31
532.07	1096.78
532.43	1088.12
532.78	1086.24
533.14	1103.33
533.49	1108.95
533.85	1100.99
534.21	1104.03
534.56	1104.26
534.92	1092.56
535.27	1087.18
535.63	1086.01
535.98	1090.92
536.34	1080.39
536.69	1085.54
537.05	1074.07
537.41	1073.60
537.76	1071.50
538.12	1084.37
538.47	1077.35
538.83	1087.65
539.18	1085.54
539.54	1089.05
539.89	1088.58
540.25	1089.05
540.60	1083.20
540.96	1085.07
541.31	1075.01
541.67	1068.69
542.02	1070.56
542.38	1072.90
542.73	1072.20
543.09	1064.48
543.44	1056.05
543.80	1059.09
544.15	1064.71
544.51	1070.56
544.86	1081.33
545.22	1089.99
545.57	1084.60
545.93	1082.03
546.28	1083.90
546.64	1088.58
546.99	1087.41
547.35	1086.48
547.70	1083.90
548.05	1091.39
548.41	1088.35
548.76	1088.12
549.12	1075.94
549.47	1076.18
549.83	1068.22
550.18	1061.90
550.53	1062.84
550.89	1076.65
551.24	1078.99
551.60	1070.09
551.95	1076.88
552.30	1076.65
552.66	1081.80
553.01	1084.60
553.37	1090.69
553.72	1092.09
554.07	1091.16
554.43	1080.39
554.78	1073.14
555.13	1074.07
555.49	1079.46
555.84	1081.56
556.19	1089.75
556.55	1100.75
556.90	1097.71
557.26	1093.03
557.61	1100.05
557.96	1104.03
558.32	1094.20
558.67	1085.07
559.02	1080.86
559.37	1077.82
559.73	1062.84
560.08	1052.07
560.43	1051.84
560.79	1062.84
561.14	1067.52
561.49	1072.67
561.85	1079.46
562.20	1088.35
562.55	1076.65
562.90	1071.03
563.26	1081.09
563.61	1091.39
563.96	1100.29
564.32	1093.03
564.67	1094.20
565.02	1087.18
565.37	1080.39
565.73	1072.90
566.08	1081.56
566.43	1071.73
566.78	1075.24
567.14	1076.18
567.49	1085.54
567.84	1083.20
568.19	1090.46
568.54	1076.88
568.90	1084.14
569.25	1078.28
569.60	1078.05
569.95	1071.97
570.31	1080.86
570.66	1074.77
571.01	1071.03
571.36	1072.43
571.71	1083.67
572.06	1082.03
572.42	1087.41
572.77	1091.39
573.12	1090.46
573.47	1081.80
573.82	1084.60
574.18	1075.94
574.53	1067.52
574.88	1069.39
575.23	1071.03
575.58	1080.16
575.93	1084.37
576.28	1089.75
576.64	1088.58
576.99	1080.16
577.34	1066.58
577.69	1062.37
578.04	1067.28
578.39	1080.63
578.74	1083.90
579.09	1094.20
579.44	1096.78
579.80	1095.14
580.15	1078.99
580.50	1084.37
580.85	1073.84
581.20	1072.67
581.55	1067.05
581.90	1062.84
582.25	1060.73
582.60	1061.20
582.95	1060.03
583.30	1064.24
583.65	1074.77
584.00	1084.60
584.35	1084.60
584.71	1087.88
585.06	1082.26
585.41	1081.56
585.76	1072.43
586.11	1077.58
586.46	1072.67
586.81	1071.50
587.16	1070.80
587.51	1073.14
587.86	1067.75
588.21	1067.28
588.56	1077.58
588.91	1074.07
589.26	1077.35
589.61	1081.09
589.96	1088.58
590.31	1085.07
590.66	1085.07
591.01	1086.94
591.36	1090.22
591.71	1086.71
592.06	1078.28
592.41	1080.63
592.76	1081.56
593.10	1079.69
593.45	1077.58
593.80	1081.80
594.15	1084.14
594.50	1076.41
594.85	1077.11
595.20	1077.35
595.55	1068.45
595.90	1059.56
596.25	1066.82
596.60	1070.33
596.95	1078.75
597.30	1084.84
597.64	1142.18
597.99	1140.07
598.34	1130.01
598.69	1121.58
599.04	1128.37
599.39	1076.18
599.74	1086.71
600.09	1100.29
600.44	1107.78
600.78	1104.73
601.13	1106.84
601.48	1093.73
601.83	1086.94
602.18	1080.86
602.53	1072.43
602.88	1071.26
603.22	1074.54
603.57	1068.45
603.92	1071.73
604.27	1083.90
604.62	1089.52
604.97	1086.01
605.31	1093.73
605.66	1096.78
606.01	1099.35
606.36	1100.75
606.71	1103.56
607.05	1103.33
607.40	1099.58
607.75	1102.63
608.10	1090.92
608.44	1089.29
608.79	1088.82
609.14	1093.26
609.49	1086.24
609.84	1097.24
610.18	1096.31
610.53	1101.46
610.88	1101.46
611.23	1098.41
611.57	1092.09
611.92	1092.09
612.27	1091.16
612.62	1090.46
612.96	1098.88
613.31	1098.18
613.66	1104.97
614.00	1094.43
614.35	1088.82
614.70	1081.33
615.05	1087.65
615.39	1080.16
615.74	1081.56
616.09	1076.18
616.43	1071.73
616.78	1068.92
617.13	1072.43
617.47	1071.26
617.82	1070.33
618.17	1070.09
618.51	1069.16
618.86	1066.35
619.21	1070.56
619.55	1084.14
619.90	1091.63
620.25	1085.07
620.59	1092.33
620.94	1091.63
621.29	1086.48
621.63	1079.69
621.98	1086.94
622.32	1075.01
622.67	1072.67
623.02	1077.58
623.36	1081.09
623.71	1091.86
624.05	1097.48
624.40	1097.24
624.75	1096.78
625.09	1097.48
625.44	1088.35
625.78	1083.20
626.13	1088.12
626.48	1086.24
626.82	1089.99
627.17	1084.60
627.51	1086.24
627.86	1086.71
628.20	1087.18
628.55	1086.24
628.89	1086.01
629.24	1090.69
629.58	1089.29
629.93	1088.35
630.28	1079.69
630.62	1077.82
630.97	1078.75
631.31	1076.88
631.66	1073.60
632.00	1070.09
632.35	1063.77
632.69	1056.05
633.04	1059.33
633.38	1060.03
633.73	1069.16
634.07	1075.48
634.42	1066.35
634.76	1064.94
635.11	1061.43
635.45	1069.39
635.79	1081.56
636.14	1091.39
636.48	1093.73
636.83	1100.52
637.17	1095.84
637.52	1090.92
637.86	1094.20
638.21	1087.41
638.55	1082.03
638.89	1082.50
639.24	1073.37
639.58	1062.60
639.93	1062.60
640.27	1056.52
640.61	1043.41
640.96	1043.18
641.30	1057.69
641.65	1063.54
641.99	1073.14
642.33	1081.33
642.68	1089.52
643.02	1090.46
643.37	1088.12
643.71	1087.65
644.05	1085.31
644.40	1083.90
644.74	1079.46
645.08	1079.46
645.43	1080.63
645.77	1086.24
646.11	1091.86
646.46	1097.01
646.80	1100.52
647.14	1104.97
647.49	1098.18
647.83	1100.29
648.17	1104.03
648.52	1095.84
648.86	1090.46
649.20	1107.78
649.55	1100.99
649.89	1088.12
650.23	1089.52
650.57	1092.09
650.92	1086.24
651.26	1087.18
651.60	1085.07
651.95	1084.84
652.29	1085.54
652.63	1072.90
652.97	1063.77
653.32	1066.58
653.66	1073.37
654.00	1073.84
654.34	1089.75
654.69	1089.52
655.03	1082.97
655.37	1078.75
655.71	1075.48
656.05	1071.73
656.40	1067.52
656.74	1072.67
657.08	1077.11
657.42	1071.97
657.76	1063.77
658.11	1070.56
658.45	1065.88
658.79	1053.48
659.13	1065.18
659.47	1067.99
659.82	1067.75
660.16	1087.41
660.50	1095.60
660.84	1087.88
661.18	1081.56
661.52	1090.69
661.87	1079.92
662.21	1082.97
662.55	1078.05
662.89	1074.54
663.23	1067.05
663.57	1062.84
663.91	1061.43
664.25	1065.18
664.60	1076.41
664.94	1085.31
665.28	1086.94
665.62	1088.82
665.96	1092.80
666.30	1088.58
666.64	1086.24
666.98	1089.52
667.32	1084.84
667.66	1081.09
668.01	1084.60
668.35	1075.71
668.69	1077.58
669.03	1075.71
669.37	1080.39
669.71	1086.24
670.05	1092.09
670.39	1091.63
670.73	1086.01
671.07	1088.35
671.41	1082.73
671.75	1079.92
672.09	1075.48
672.43	1087.18
672.77	1089.99
673.11	1088.58
673.45	1091.63
673.79	1093.26
674.13	1092.80
674.47	1090.22
674.81	1078.99
675.15	1085.54
675.49	1085.77
675.83	1087.41
676.17	1082.73
676.51	1087.18
676.85	1079.46
677.19	1088.58
677.53	1082.26
677.87	1075.94
678.21	1084.84
678.55	1084.14
678.89	1073.37
679.23	1081.33
679.57	1080.86
679.90	1075.71
680.24	1082.26
680.58	1081.33
680.92	1074.07
681.26	1081.09
681.60	1085.31
681.94	1071.50
682.28	1075.24
682.62	1077.35
682.96	1077.35
683.29	1067.99
683.63	1079.22
683.97	1071.26
684.31	1064.71
684.65	1055.58
684.99	1069.39
685.33	1060.03
685.67	1070.09
686.00	1072.20
686.34	1075.24
686.68	1071.50
687.02	1079.69
687.36	1071.97
687.70	1076.88
688.03	1083.67
688.37	1078.99
688.71	1078.28
689.05	1089.05
689.39	1092.09
689.72	1091.63
690.06	1094.67
690.40	1087.88
690.74	1085.31
691.08	1086.24
691.41	1084.14
691.75	1079.92
692.09	1089.05
692.43	1091.39
692.76	1077.11
693.10	1079.69
693.44	1084.60
693.78	1072.43
694.11	1061.20
694.45	1073.14
694.79	1074.07
695.13	1067.05
695.46	1068.92
695.80	1067.99
696.14	1061.20
696.48	1053.48
696.81	1059.79
697.15	1071.50
697.49	1078.05
697.82	1079.22
698.16	1080.86
698.50	1079.69
698.83	1074.54
699.17	1067.52
699.51	1076.41
699.84	1084.37
700.18	1086.24
700.52	1089.05
700.85	1090.22
701.19	1080.63
701.53	1069.62
701.86	1066.35
702.20	1061.90
702.54	1061.67
702.87	1076.18
703.21	1080.63
703.55	1079.22
703.88	1074.77
704.22	1079.69
704.55	1068.22
704.89	1068.45
705.23	1062.37
705.56	1073.14
705.90	1072.67
706.23	1068.45
706.57	1068.69
706.91	1076.18
707.24	1071.03
707.58	1074.54
707.91	1079.92
708.25	1072.43
708.58	1076.88
708.92	1074.54
709.26	1071.26
709.59	1071.50
709.93	1077.58
710.26	1073.37
710.60	1082.03
710.93	1081.09
711.27	1080.86
711.60	1085.54
711.94	1088.35
712.27	1086.48
712.61	1093.97
712.94	1100.52
713.28	1097.24
713.61	1096.78
713.95	1094.67
714.28	1089.05
714.62	1078.99
714.95	1083.67
715.29	1075.94
715.62	1070.33
715.96	1070.80
716.29	1074.77
716.63	1064.01
716.96	1069.62
717.29	1066.35
717.63	1063.07
717.96	1073.60
718.30	1080.16
718.63	1086.24
718.97	1100.05
719.30	1111.75
719.63	1097.71
719.97	1100.52
720.30	1087.88
720.64	1084.37
720.97	1078.52
721.30	1077.82
721.64	1077.58
721.97	1091.86
722.31	1096.07
722.64	1092.33
722.97	1083.43
723.31	1079.92
723.64	1079.69
723.97	1070.56
724.31	1079.22
724.64	1086.24
724.98	1089.29
725.31	1086.71
725.64	1083.20
725.98	1076.88
726.31	1078.28
726.64	1078.52
726.97	1075.48
727.31	1084.60
727.64	1083.43
727.97	1091.63
728.31	1097.24
728.64	1095.60
728.97	1091.39
729.31	1091.63
729.64	1082.03
729.97	1073.60
730.30	1073.84
730.64	1075.71
730.97	1067.75
731.30	1069.62
731.63	1068.45
731.97	1058.86
732.30	1065.65
732.63	1076.41
732.96	1076.65
733.30	1081.80
733.63	1089.05
733.96	1071.73
734.29	1069.39
734.63	1066.82
734.96	1065.41
735.29	1063.31
735.62	1076.18
735.95	1080.39
736.29	1097.01
736.62	1100.52
736.95	1104.03
737.28	1098.65
737.61	1087.65
737.94	1069.39
738.28	1076.65
738.61	1081.80
738.94	1085.07
739.27	1085.07
739.60	1101.46
739.93	1087.18
740.27	1092.56
740.60	1083.90
740.93	1092.33
741.26	1069.62
741.59	1074.77
741.92	1065.65
742.25	1067.52
742.58	1061.20
742.91	1082.73
743.25	1083.43
743.58	1082.73
743.91	1100.05
744.24	1112.69
744.57	1103.80
744.90	1104.03
745.23	1102.39
745.56	1095.60
745.89	1086.94
746.22	1076.18
746.55	1063.31
746.88	1070.56
747.21	1067.28
747.54	1071.26
747.87	1076.18
748.20	1093.97
748.53	1080.86
748.87	1071.50
749.20	1060.50
749.53	1068.22
749.86	1067.99
750.19	1071.03
750.52	1074.07
750.85	1085.31
751.18	1087.65
751.51	1077.58
751.84	1080.16
752.16	1094.43
752.49	1089.29
752.82	1100.05
753.15	1099.82
753.48	1098.88
753.81	1081.56
754.14	1090.22
754.47	1074.07
754.80	1077.58
755.13	1087.18
755.46	1100.29
755.79	1089.75
756.12	1094.43
756.45	1101.22
756.78	1094.67
757.11	1082.73
757.43	1085.07
757.76	1084.37
758.09	1073.14
758.42	1072.90
758.75	1072.43
759.08	1064.71
759.41	1055.35
759.74	1058.86
760.07	1056.75
760.39	1067.75
760.72	1072.20
761.05	1088.35
761.38	1083.90
761.71	1086.24
762.04	1079.46
762.36	1086.24
762.69	1077.82
763.02	1080.16
763.35	1077.35
763.68	1085.77
764.01	1084.84
764.33	1086.48
764.66	1081.09
764.99	1090.46
765.32	1086.24
765.65	1077.11
765.97	1078.75
766.30	1087.18
