SpectraSuite Data File
++++++++++++++++++++++++++++++++++++
Date: Mon Aug 26 10:26:04 PDT 2019
User: corrico
Dark Spectrum Present: No
Reference Spectrum Present: No
Number of Sampled Component Spectra: 1
Spectrometers: USB2+H06089
Integration Time (usec): 10000 (USB2+H06089)
Spectra Averaged: 20 (USB2+H06089)
Boxcar Smoothing: 2 (USB2+H06089)
Correct for Electrical Dark: No (USB2+H06089)
Strobe/Lamp Enabled: No (USB2+H06089)
Correct for Detector Non-linearity: No (USB2+H06089)
Correct for Stray Light: No (USB2+H06089)
Number of Pixels in Processed Spectrum: 2048
>>>>>Begin Processed Spectral Data<<<<<
339.70	1041.19
340.07	1041.19
340.45	1004.16
340.82	979.02
341.19	953.16
341.57	925.66
341.94	918.17
342.31	906.21
342.69	901.67
343.06	901.13
343.43	899.44
343.81	896.94
344.18	902.32
344.55	905.39
344.93	907.57
345.30	915.62
345.67	921.61
346.04	925.42
346.42	935.23
346.79	942.77
347.16	951.22
347.54	963.83
347.91	974.32
348.28	981.11
348.65	992.34
349.03	1001.09
349.40	1007.65
349.77	1014.83
350.14	1023.40
350.52	1030.51
350.89	1037.61
351.26	1041.02
351.63	1049.54
352.01	1054.32
352.38	1057.41
352.75	1060.54
353.12	1065.39
353.50	1067.05
353.87	1070.00
354.24	1073.65
354.61	1073.79
354.98	1074.66
355.36	1078.05
355.73	1080.65
356.10	1079.50
356.47	1081.26
356.84	1085.14
357.22	1082.87
357.59	1083.86
357.96	1083.01
358.33	1080.86
358.70	1078.14
359.08	1078.82
359.45	1077.18
359.82	1077.63
360.19	1076.81
360.56	1076.13
360.94	1074.42
361.31	1076.30
361.68	1076.58
362.05	1077.98
362.42	1078.10
362.79	1077.84
363.16	1075.45
363.54	1075.64
363.91	1076.08
364.28	1075.38
364.65	1076.04
365.02	1072.18
365.39	1070.33
365.76	1068.20
366.14	1065.37
366.51	1063.47
366.88	1066.63
367.25	1066.02
367.62	1065.93
367.99	1065.97
368.36	1066.14
368.73	1065.53
369.10	1062.46
369.48	1061.55
369.85	1061.99
370.22	1062.16
370.59	1059.12
370.96	1063.75
371.33	1066.96
371.70	1069.34
372.07	1069.11
372.44	1072.81
372.81	1069.30
373.18	1067.85
373.55	1067.80
373.93	1068.15
374.30	1067.00
374.67	1069.62
375.04	1068.83
375.41	1070.49
375.78	1070.09
376.15	1068.15
376.52	1067.49
376.89	1069.91
377.26	1068.36
377.63	1066.75
378.00	1068.57
378.37	1072.27
378.74	1069.32
379.11	1071.90
379.48	1072.64
379.85	1071.59
380.22	1069.51
380.59	1070.33
380.96	1066.61
381.33	1067.42
381.70	1068.27
382.07	1069.37
382.44	1069.77
382.81	1069.23
383.18	1069.60
383.55	1069.34
383.92	1069.67
384.29	1071.45
384.66	1071.78
385.03	1073.00
385.40	1072.67
385.77	1071.47
386.14	1067.92
386.51	1069.70
386.88	1069.04
387.25	1070.42
387.62	1068.50
387.99	1069.60
388.36	1066.96
388.73	1070.63
389.10	1071.47
389.46	1074.00
389.83	1073.02
390.20	1075.94
390.57	1073.07
390.94	1070.98
391.31	1069.67
391.68	1071.73
392.05	1069.27
392.42	1069.09
392.79	1072.48
393.16	1070.49
393.53	1072.69
393.89	1072.85
394.26	1071.64
394.63	1068.41
395.00	1070.26
395.37	1069.25
395.74	1069.20
396.11	1072.18
396.48	1073.63
396.84	1073.79
397.21	1070.63
397.58	1071.90
397.95	1070.51
398.32	1072.97
398.69	1074.68
399.06	1076.69
399.42	1079.90
399.79	1082.26
400.16	1080.04
400.53	1077.65
400.90	1079.97
401.27	1077.65
401.64	1076.08
402.00	1077.68
402.37	1079.64
402.74	1077.33
403.11	1077.56
403.48	1076.88
403.84	1078.17
404.21	1076.88
404.58	1077.49
404.95	1077.56
405.32	1076.53
405.68	1077.28
406.05	1079.57
406.42	1079.71
406.79	1080.56
407.16	1081.49
407.52	1077.02
407.89	1074.70
408.26	1074.77
408.63	1073.14
408.99	1074.94
409.36	1077.51
409.73	1075.66
410.10	1074.47
410.47	1075.92
410.83	1072.22
411.20	1070.49
411.57	1073.91
411.94	1073.70
412.30	1072.13
412.67	1075.52
413.04	1076.27
413.40	1076.46
413.77	1074.96
414.14	1076.11
414.51	1075.64
414.87	1074.47
415.24	1074.59
415.61	1077.07
415.97	1075.24
416.34	1077.82
416.71	1077.56
417.08	1075.64
417.44	1075.52
417.81	1079.31
418.18	1076.39
418.54	1077.84
418.91	1078.10
419.28	1079.69
419.64	1079.74
420.01	1081.40
420.38	1079.57
420.74	1081.07
421.11	1079.97
421.48	1078.43
421.84	1076.83
422.21	1079.22
422.58	1080.67
422.94	1082.59
423.31	1081.77
423.68	1077.82
424.04	1076.69
424.41	1074.17
424.77	1070.80
425.14	1074.47
425.51	1078.14
425.87	1078.03
426.24	1081.73
426.61	1083.50
426.97	1080.67
427.34	1079.17
427.70	1079.64
428.07	1075.64
428.44	1076.90
428.80	1075.83
429.17	1077.89
429.53	1075.90
429.90	1076.04
430.27	1077.37
430.63	1079.01
431.00	1078.78
431.36	1082.10
431.73	1084.58
432.09	1081.82
432.46	1078.96
432.83	1079.17
433.19	1076.76
433.56	1076.13
433.92	1076.97
434.29	1079.06
434.65	1078.28
435.02	1076.13
435.38	1072.46
435.75	1071.15
436.11	1072.20
436.48	1075.38
436.84	1078.24
437.21	1081.75
437.57	1084.11
437.94	1082.66
438.30	1078.24
438.67	1079.20
439.03	1080.02
439.40	1076.95
439.76	1080.16
440.13	1082.66
440.49	1083.95
440.86	1082.50
441.22	1082.12
441.59	1081.82
441.95	1083.20
442.32	1080.32
442.68	1081.30
443.05	1084.46
443.41	1081.23
443.78	1077.16
444.14	1076.39
444.51	1072.46
444.87	1071.82
445.24	1074.17
445.60	1074.77
445.96	1076.90
446.33	1080.11
446.69	1079.50
447.06	1075.85
447.42	1075.85
447.79	1077.56
448.15	1076.48
448.51	1077.23
448.88	1083.50
449.24	1088.51
449.61	1087.16
449.97	1091.95
450.33	1093.76
450.70	1091.67
451.06	1085.84
451.43	1085.24
451.79	1079.95
452.15	1075.73
452.52	1072.13
452.88	1073.53
453.24	1074.05
453.61	1075.05
453.97	1079.15
454.34	1082.69
454.70	1081.05
455.06	1080.53
455.43	1079.71
455.79	1076.74
456.15	1076.41
456.52	1081.09
456.88	1080.58
457.24	1084.84
457.61	1087.69
457.97	1087.20
458.33	1085.45
458.70	1086.50
459.06	1084.63
459.42	1084.11
459.79	1083.83
460.15	1084.84
460.51	1084.44
460.88	1082.08
461.24	1080.20
461.60	1077.56
461.96	1076.55
462.33	1076.90
462.69	1075.99
463.05	1078.75
463.42	1078.61
463.78	1079.08
464.14	1076.41
464.50	1079.15
464.87	1077.07
465.23	1077.25
465.59	1078.10
465.95	1079.99
466.32	1078.26
466.68	1078.66
467.04	1079.48
467.40	1077.33
467.77	1077.44
468.13	1080.72
468.49	1077.02
468.85	1079.92
469.22	1081.61
469.58	1081.14
469.94	1079.29
470.30	1082.26
470.66	1078.82
471.03	1081.35
471.39	1083.48
471.75	1082.52
472.11	1081.23
472.47	1082.33
472.84	1078.36
473.20	1075.64
473.56	1073.25
473.92	1075.83
474.28	1076.88
474.65	1074.63
475.01	1074.17
475.37	1074.59
475.73	1071.99
476.09	1069.51
476.45	1070.72
476.81	1074.31
477.18	1074.68
477.54	1075.27
477.90	1076.86
478.26	1079.76
478.62	1077.65
478.98	1080.79
479.34	1080.77
479.71	1079.08
480.07	1077.98
480.43	1076.18
480.79	1074.40
481.15	1072.85
481.51	1074.40
481.87	1072.50
482.23	1073.84
482.59	1076.60
482.96	1078.52
483.32	1079.01
483.68	1077.75
484.04	1078.14
484.40	1078.00
484.76	1077.91
485.12	1076.72
485.48	1080.27
485.84	1081.19
486.20	1079.17
486.56	1078.00
486.92	1079.97
487.28	1078.94
487.64	1079.71
488.00	1083.25
488.37	1086.71
488.73	1083.46
489.09	1083.97
489.45	1081.96
489.81	1080.02
490.17	1077.86
490.53	1081.09
490.89	1083.36
491.25	1083.93
491.61	1082.83
491.97	1086.20
492.33	1085.91
492.69	1085.38
493.05	1086.36
493.41	1084.35
493.77	1081.68
494.13	1082.94
494.49	1081.80
494.85	1080.67
495.21	1083.08
495.57	1081.16
495.93	1080.02
496.29	1082.87
496.64	1084.46
497.00	1086.69
497.36	1087.51
497.72	1088.42
498.08	1083.88
498.44	1082.69
498.80	1078.89
499.16	1078.89
499.52	1080.44
499.88	1079.55
500.24	1080.53
500.60	1082.29
500.96	1084.86
501.32	1082.36
501.68	1084.63
502.03	1081.07
502.39	1080.30
502.75	1078.66
503.11	1077.42
503.47	1077.47
503.83	1079.88
504.19	1080.86
504.55	1081.37
504.91	1081.82
505.26	1082.24
505.62	1084.96
505.98	1084.44
506.34	1084.65
506.70	1085.91
507.06	1084.58
507.42	1078.68
507.78	1076.90
508.13	1078.19
508.49	1078.31
508.85	1078.92
509.21	1083.25
509.57	1085.40
509.93	1081.44
510.28	1080.04
510.64	1082.76
511.00	1079.31
511.36	1080.37
511.72	1082.05
512.07	1080.20
512.43	1075.27
512.79	1077.63
513.15	1077.58
513.51	1076.55
513.86	1080.46
514.22	1080.27
514.58	1080.72
514.94	1079.90
515.30	1081.84
515.65	1081.40
516.01	1084.77
516.37	1085.61
516.73	1087.20
517.08	1085.52
517.44	1085.91
517.80	1084.89
518.16	1086.15
518.51	1083.67
518.87	1087.34
519.23	1087.81
519.59	1091.58
519.94	1091.88
520.30	1093.97
520.66	1093.10
521.01	1089.14
521.37	1087.04
521.73	1088.54
522.09	1088.89
522.44	1088.75
522.80	1086.69
523.16	1082.76
523.51	1077.96
523.87	1076.32
524.23	1075.20
524.58	1080.16
524.94	1083.34
525.30	1084.02
525.65	1083.57
526.01	1080.95
526.37	1082.33
526.72	1083.86
527.08	1083.71
527.44	1080.88
527.79	1082.47
528.15	1079.20
528.51	1077.37
528.86	1078.36
529.22	1078.36
529.58	1080.63
529.93	1083.01
530.29	1083.62
530.65	1082.33
531.00	1085.52
531.36	1084.11
531.71	1084.77
532.07	1083.64
532.43	1084.28
532.78	1085.56
533.14	1085.26
533.49	1083.36
533.85	1089.07
534.21	1090.41
534.56	1091.51
534.92	1093.47
535.27	1092.87
535.63	1084.04
535.98	1082.61
536.34	1078.71
536.69	1077.35
537.05	1080.16
537.41	1085.91
537.76	1085.10
538.12	1085.56
538.47	1089.80
538.83	1084.49
539.18	1084.35
539.54	1085.61
539.89	1082.01
540.25	1077.09
540.60	1082.57
540.96	1081.84
541.31	1081.40
541.67	1088.07
542.02	1091.93
542.38	1089.52
542.73	1090.81
543.09	1093.26
543.44	1090.97
543.80	1088.16
544.15	1085.99
544.51	1085.96
544.86	1084.67
545.22	1085.14
545.57	1084.39
545.93	1087.20
546.28	1082.92
546.64	1082.10
546.99	1084.23
547.35	1086.13
547.70	1083.69
548.05	1085.75
548.41	1085.75
548.76	1085.19
549.12	1083.06
549.47	1085.87
549.83	1084.96
550.18	1084.56
550.53	1082.17
550.89	1083.01
551.24	1082.92
551.60	1085.40
551.95	1086.06
552.30	1087.55
552.66	1088.75
553.01	1089.71
553.37	1086.71
553.72	1084.74
554.07	1082.40
554.43	1078.80
554.78	1076.65
555.13	1078.50
555.49	1079.01
555.84	1082.73
556.19	1086.17
556.55	1084.42
556.90	1081.98
557.26	1082.66
557.61	1079.60
557.96	1079.85
558.32	1083.67
558.67	1084.58
559.02	1083.62
559.37	1083.90
559.73	1080.18
560.08	1078.99
560.43	1080.34
560.79	1079.64
561.14	1081.96
561.49	1085.21
561.85	1083.55
562.20	1084.46
562.55	1088.28
562.90	1085.35
563.26	1086.06
563.61	1086.59
563.96	1080.44
564.32	1076.06
564.67	1079.38
565.02	1077.14
565.37	1077.44
565.73	1081.82
566.08	1086.17
566.43	1084.84
566.78	1082.64
567.14	1082.31
567.49	1082.22
567.84	1080.11
568.19	1079.57
568.54	1080.74
568.90	1079.50
569.25	1076.48
569.60	1072.39
569.95	1072.29
570.31	1074.00
570.66	1074.07
571.01	1078.66
571.36	1081.82
571.71	1079.74
572.06	1077.16
572.42	1077.28
572.77	1074.80
573.12	1074.03
573.47	1073.58
573.82	1073.14
574.18	1073.25
574.53	1074.52
574.88	1076.39
575.23	1078.80
575.58	1082.92
575.93	1080.27
576.28	1081.37
576.64	1080.48
576.99	1077.77
577.34	1073.81
577.69	1077.33
578.04	1076.25
578.39	1076.76
578.74	1077.82
579.09	1082.12
579.44	1084.07
579.80	1084.21
580.15	1084.28
580.50	1087.13
580.85	1084.39
581.20	1083.41
581.55	1083.53
581.90	1085.61
582.25	1082.03
582.60	1083.60
582.95	1081.49
583.30	1079.31
583.65	1076.27
584.00	1078.92
584.35	1079.83
584.71	1081.73
585.06	1085.91
585.41	1085.45
585.76	1086.29
586.11	1085.03
586.46	1083.46
586.81	1079.95
587.16	1083.71
587.51	1083.46
587.86	1083.25
588.21	1084.79
588.56	1089.87
588.91	1090.92
589.26	1090.08
589.61	1090.48
589.96	1087.41
590.31	1081.68
590.66	1077.98
591.01	1077.33
591.36	1074.31
591.71	1078.96
592.06	1084.02
592.41	1082.24
592.76	1082.31
593.10	1085.89
593.45	1083.06
593.80	1080.09
594.15	1082.54
594.50	1083.22
594.85	1080.84
595.20	1081.54
595.55	1080.67
595.90	1085.31
596.25	1085.26
596.60	1083.88
596.95	1084.25
597.30	1084.23
597.64	1132.33
597.99	1133.71
598.34	1133.47
598.69	1134.20
599.04	1136.70
599.39	1085.87
599.74	1082.26
600.09	1084.96
600.44	1083.27
600.78	1080.46
601.13	1081.51
601.48	1082.57
601.83	1081.94
602.18	1083.11
602.53	1084.32
602.88	1083.90
603.22	1083.06
603.57	1083.01
603.92	1082.57
604.27	1081.82
604.62	1077.04
604.97	1078.17
605.31	1076.65
605.66	1076.39
606.01	1076.74
606.36	1077.21
606.71	1076.08
607.05	1077.35
607.40	1078.43
607.75	1077.21
608.10	1077.84
608.44	1079.83
608.79	1079.92
609.14	1077.63
609.49	1080.56
609.84	1082.29
610.18	1081.37
610.53	1081.84
610.88	1085.94
611.23	1083.22
611.57	1085.66
611.92	1090.92
612.27	1093.31
612.62	1089.31
612.96	1087.72
613.31	1087.13
613.66	1083.46
614.00	1085.10
614.35	1086.41
614.70	1090.69
615.05	1087.44
615.39	1086.87
615.74	1080.56
616.09	1083.64
616.43	1083.27
616.78	1085.91
617.13	1084.07
617.47	1086.76
617.82	1085.21
618.17	1084.65
618.51	1081.87
618.86	1082.87
619.21	1083.22
619.55	1082.17
619.90	1078.78
620.25	1080.25
620.59	1081.84
620.94	1082.05
621.29	1084.25
621.63	1084.28
621.98	1085.54
622.32	1083.86
622.67	1082.29
623.02	1080.18
623.36	1085.21
623.71	1083.15
624.05	1081.54
624.40	1080.48
624.75	1079.78
625.09	1079.83
625.44	1078.40
625.78	1082.12
626.13	1085.61
626.48	1087.06
626.82	1085.14
627.17	1086.50
627.51	1086.57
627.86	1085.77
628.20	1085.05
628.55	1084.37
628.89	1084.44
629.24	1081.35
629.58	1080.58
629.93	1079.41
630.28	1077.86
630.62	1078.78
630.97	1080.44
631.31	1082.99
631.66	1082.45
632.00	1084.32
632.35	1086.31
632.69	1084.58
633.04	1081.54
633.38	1084.16
633.73	1084.07
634.07	1078.75
634.42	1079.36
634.76	1079.13
635.11	1077.16
635.45	1074.91
635.79	1080.06
636.14	1081.98
636.48	1082.05
636.83	1082.80
637.17	1085.03
637.52	1083.60
637.86	1085.59
638.21	1085.66
638.55	1086.52
638.89	1085.17
639.24	1084.16
639.58	1080.77
639.93	1083.48
640.27	1084.44
640.61	1085.84
640.96	1082.40
641.30	1082.57
641.65	1080.32
641.99	1080.70
642.33	1079.29
642.68	1082.12
643.02	1082.26
643.37	1084.63
643.71	1081.00
644.05	1082.03
644.40	1082.26
644.74	1081.94
645.08	1078.85
645.43	1081.35
645.77	1080.70
646.11	1079.24
646.46	1078.85
646.80	1082.26
647.14	1078.24
647.49	1079.90
647.83	1078.38
648.17	1078.66
648.52	1078.12
648.86	1080.44
649.20	1077.35
649.55	1080.84
649.89	1080.46
650.23	1079.55
650.57	1083.01
650.92	1088.68
651.26	1087.41
651.60	1088.12
651.95	1088.56
652.29	1088.09
652.63	1083.15
652.97	1083.57
653.32	1084.18
653.66	1081.87
654.00	1079.60
654.34	1080.20
654.69	1078.71
655.03	1077.14
655.37	1076.86
655.71	1077.35
656.05	1078.92
656.40	1081.84
656.74	1084.28
657.08	1086.13
657.42	1085.49
657.76	1087.74
658.11	1087.34
658.45	1085.40
658.79	1086.50
659.13	1083.67
659.47	1081.94
659.82	1080.02
660.16	1081.07
660.50	1079.03
660.84	1079.97
661.18	1076.83
661.52	1078.94
661.87	1080.04
662.21	1081.12
662.55	1085.40
662.89	1089.47
663.23	1086.78
663.57	1084.14
663.91	1079.43
664.25	1076.44
664.60	1071.97
664.94	1074.35
665.28	1073.53
665.62	1075.66
665.96	1075.99
666.30	1079.57
666.64	1080.95
666.98	1084.09
667.32	1085.54
667.66	1086.27
668.01	1086.62
668.35	1085.82
668.69	1080.81
669.03	1082.69
669.37	1084.58
669.71	1079.97
670.05	1079.55
670.39	1080.58
670.73	1076.90
671.07	1075.92
671.41	1077.70
671.75	1075.73
672.09	1082.50
672.43	1084.00
672.77	1081.37
673.11	1082.85
673.45	1084.49
673.79	1078.12
674.13	1076.62
674.47	1078.92
674.81	1077.70
675.15	1078.38
675.49	1077.61
675.83	1082.05
676.17	1080.09
676.51	1080.63
676.85	1080.48
677.19	1082.76
677.53	1078.75
677.87	1080.09
678.21	1078.38
678.55	1079.50
678.89	1080.18
679.23	1077.49
679.57	1076.86
679.90	1078.73
680.24	1079.46
680.58	1078.59
680.92	1081.42
681.26	1081.89
681.60	1081.61
681.94	1077.58
682.28	1078.31
682.62	1081.80
682.96	1081.23
683.29	1082.05
683.63	1080.44
683.97	1081.73
684.31	1079.85
684.65	1080.53
684.99	1079.99
685.33	1083.93
685.67	1083.13
686.00	1084.72
686.34	1085.63
686.68	1085.87
687.02	1084.63
687.36	1084.23
687.70	1080.30
688.03	1077.51
688.37	1077.77
688.71	1080.60
689.05	1080.02
689.39	1082.08
689.72	1086.13
690.06	1087.65
690.40	1085.00
690.74	1083.64
691.08	1084.72
691.41	1081.73
691.75	1081.19
692.09	1082.03
692.43	1084.32
692.76	1082.17
693.10	1081.61
693.44	1079.57
693.78	1078.12
694.11	1076.79
694.45	1077.47
694.79	1079.95
695.13	1077.98
695.46	1076.25
695.80	1078.31
696.14	1076.06
696.48	1075.94
696.81	1078.59
697.15	1080.16
697.49	1080.39
697.82	1084.11
698.16	1080.41
698.50	1079.57
698.83	1079.71
699.17	1077.47
699.51	1077.84
699.84	1079.99
700.18	1081.44
700.52	1080.65
700.85	1084.32
701.19	1082.36
701.53	1080.77
701.86	1082.17
702.20	1085.99
702.54	1084.81
702.87	1085.28
703.21	1087.97
703.55	1086.78
703.88	1085.21
704.22	1085.05
704.55	1084.00
704.89	1082.76
705.23	1079.48
705.56	1078.40
705.90	1075.64
706.23	1077.68
706.57	1078.14
706.91	1081.23
707.24	1081.56
707.58	1082.12
707.91	1081.54
708.25	1082.73
708.58	1082.05
708.92	1081.89
709.26	1082.76
709.59	1080.79
709.93	1078.14
710.26	1077.58
710.60	1076.79
710.93	1077.96
711.27	1079.03
711.60	1079.83
711.94	1081.94
712.27	1083.97
712.61	1084.14
712.94	1083.88
713.28	1086.64
713.61	1083.46
713.95	1081.14
714.28	1081.98
714.62	1083.22
714.95	1080.67
715.29	1082.24
715.62	1084.30
715.96	1080.48
716.29	1081.70
716.63	1081.70
716.96	1081.96
717.29	1081.14
717.63	1079.10
717.96	1078.40
718.30	1075.50
718.63	1073.16
718.97	1073.51
719.30	1076.25
719.63	1075.73
719.97	1077.68
720.30	1078.33
720.64	1078.28
720.97	1079.55
721.30	1079.48
721.64	1082.29
721.97	1085.24
722.31	1084.21
722.64	1084.63
722.97	1088.28
723.31	1087.09
723.64	1083.57
723.97	1084.04
724.31	1082.73
724.64	1077.68
724.98	1078.24
725.31	1079.85
725.64	1077.47
725.98	1080.13
726.31	1078.61
726.64	1076.72
726.97	1076.44
727.31	1080.98
727.64	1076.15
727.97	1079.81
728.31	1079.67
728.64	1078.99
728.97	1077.70
729.31	1081.80
729.64	1079.97
729.97	1079.08
730.30	1083.81
730.64	1083.74
730.97	1082.31
731.30	1083.41
731.63	1090.32
731.97	1088.82
732.30	1086.78
732.63	1085.84
732.96	1087.09
733.30	1082.57
733.63	1080.30
733.96	1082.40
734.29	1085.21
734.63	1082.71
734.96	1083.55
735.29	1084.60
735.62	1085.73
735.95	1082.85
736.29	1083.71
736.62	1083.11
736.95	1082.38
737.28	1080.09
737.61	1082.22
737.94	1078.96
738.28	1077.23
738.61	1075.41
738.94	1075.55
739.27	1073.95
739.60	1078.87
739.93	1077.82
740.27	1080.65
740.60	1079.85
740.93	1080.09
741.26	1081.28
741.59	1082.61
741.92	1080.93
742.25	1085.73
742.58	1087.88
742.91	1085.82
743.25	1084.84
743.58	1086.08
743.91	1083.97
744.24	1080.95
744.57	1082.24
744.90	1083.53
745.23	1080.46
745.56	1078.07
745.89	1079.31
746.22	1080.46
746.55	1081.68
746.88	1082.03
747.21	1081.12
747.54	1081.16
747.87	1077.28
748.20	1075.90
748.53	1079.06
748.87	1077.30
749.20	1079.88
749.53	1081.05
749.86	1078.96
750.19	1080.25
750.52	1083.29
750.85	1081.05
751.18	1078.89
751.51	1082.29
751.84	1079.50
752.16	1077.91
752.49	1077.61
752.82	1083.53
753.15	1083.62
753.48	1084.00
753.81	1085.45
754.14	1082.64
754.47	1078.21
754.80	1077.93
755.13	1077.00
755.46	1078.57
755.79	1081.19
756.12	1083.74
756.45	1083.97
756.78	1085.94
757.11	1087.51
757.43	1089.78
757.76	1089.96
758.09	1089.22
758.42	1088.65
758.75	1085.96
759.08	1085.24
759.41	1083.25
759.74	1082.47
760.07	1081.75
760.39	1080.13
760.72	1079.81
761.05	1078.31
761.38	1080.25
761.71	1083.48
762.04	1085.31
762.36	1084.70
762.69	1085.94
763.02	1083.11
763.35	1077.35
763.68	1078.40
764.01	1077.25
764.33	1078.89
764.66	1078.31
764.99	1081.51
765.32	1081.09
765.65	1079.78
765.97	1078.64
766.30	1083.15
