SpectraSuite Data File
++++++++++++++++++++++++++++++++++++
Date: Mon Aug 26 10:26:03 PDT 2019
User: corrico
Dark Spectrum Present: No
Reference Spectrum Present: No
Number of Sampled Component Spectra: 1
Spectrometers: USB2+H06089
Integration Time (usec): 10000 (USB2+H06089)
Spectra Averaged: 20 (USB2+H06089)
Boxcar Smoothing: 2 (USB2+H06089)
Correct for Electrical Dark: No (USB2+H06089)
Strobe/Lamp Enabled: No (USB2+H06089)
Correct for Detector Non-linearity: No (USB2+H06089)
Correct for Stray Light: No (USB2+H06089)
Number of Pixels in Processed Spectrum: 2048
>>>>>Begin Processed Spectral Data<<<<<
339.70	1034.05
340.07	1034.05
340.45	998.85
340.82	976.14
341.19	949.88
341.57	924.16
341.94	911.01
342.31	904.87
342.69	900.15
343.06	896.75
343.43	897.74
343.81	899.30
344.18	900.85
344.55	904.55
344.93	911.94
345.30	915.59
345.67	921.96
346.04	931.35
346.42	936.57
346.79	945.65
347.16	955.29
347.54	967.51
347.91	975.39
348.28	984.78
348.65	993.86
349.03	1001.73
349.40	1009.52
349.77	1017.43
350.14	1026.30
350.52	1032.36
350.89	1040.60
351.26	1042.76
351.63	1046.15
352.01	1051.58
352.38	1056.28
352.75	1057.81
353.12	1061.46
353.50	1065.62
353.87	1069.32
354.24	1069.23
354.61	1067.68
354.98	1070.49
355.36	1073.35
355.73	1073.98
356.10	1074.10
356.47	1075.52
356.84	1075.05
357.22	1072.83
357.59	1070.51
357.96	1074.28
358.33	1077.82
358.70	1079.06
359.08	1078.75
359.45	1080.56
359.82	1079.62
360.19	1077.65
360.56	1075.50
360.94	1074.26
361.31	1073.53
361.68	1070.72
362.05	1071.99
362.42	1073.09
362.79	1073.39
363.16	1073.46
363.54	1073.70
363.91	1073.14
364.28	1068.78
364.65	1070.44
365.02	1064.52
365.39	1062.95
365.76	1061.71
366.14	1063.84
366.51	1062.32
366.88	1063.63
367.25	1062.04
367.62	1059.19
367.99	1059.75
368.36	1061.62
368.73	1064.71
369.10	1065.83
369.48	1067.59
369.85	1068.88
370.22	1069.67
370.59	1070.80
370.96	1073.91
371.33	1072.81
371.70	1072.43
372.07	1070.96
372.44	1072.27
372.81	1068.10
373.18	1070.82
373.55	1070.58
373.93	1069.23
374.30	1066.82
374.67	1070.07
375.04	1067.26
375.41	1065.65
375.78	1068.38
376.15	1067.21
376.52	1065.65
376.89	1065.46
377.26	1069.88
377.63	1065.93
378.00	1067.89
378.37	1067.87
378.74	1071.57
379.11	1069.88
379.48	1072.97
379.85	1075.73
380.22	1079.06
380.59	1079.17
380.96	1074.82
381.33	1073.35
381.70	1070.87
382.07	1069.13
382.44	1066.56
382.81	1070.00
383.18	1071.54
383.55	1073.11
383.92	1074.75
384.29	1076.30
384.66	1076.32
385.03	1074.63
385.40	1071.03
385.77	1070.26
386.14	1067.57
386.51	1068.36
386.88	1068.24
387.25	1069.81
387.62	1067.71
387.99	1071.85
388.36	1069.09
388.73	1068.10
389.10	1067.92
389.46	1070.07
389.83	1066.21
390.20	1070.42
390.57	1071.24
390.94	1070.23
391.31	1069.84
391.68	1071.31
392.05	1068.34
392.42	1070.40
392.79	1072.50
393.16	1071.90
393.53	1072.95
393.89	1075.87
394.26	1075.43
394.63	1075.45
395.00	1076.13
395.37	1073.98
395.74	1072.69
396.11	1073.00
396.48	1073.74
396.84	1077.09
397.21	1079.38
397.58	1079.06
397.95	1077.11
398.32	1074.28
398.69	1069.95
399.06	1068.90
399.42	1071.57
399.79	1072.32
400.16	1074.42
400.53	1076.30
400.90	1079.13
401.27	1075.64
401.64	1075.57
402.00	1076.27
402.37	1077.72
402.74	1076.48
403.11	1075.24
403.48	1076.55
403.84	1075.13
404.21	1070.61
404.58	1070.44
404.95	1074.59
405.32	1073.18
405.68	1072.71
406.05	1076.93
406.42	1078.03
406.79	1074.47
407.16	1073.93
407.52	1072.22
407.89	1071.66
408.26	1072.69
408.63	1073.67
408.99	1073.25
409.36	1072.85
409.73	1070.54
410.10	1070.28
410.47	1071.15
410.83	1070.02
411.20	1070.96
411.57	1070.94
411.94	1070.61
412.30	1071.38
412.67	1074.10
413.04	1075.03
413.40	1073.28
413.77	1071.38
414.14	1069.37
414.51	1069.32
414.87	1071.82
415.24	1073.77
415.61	1075.52
415.97	1077.14
416.34	1075.85
416.71	1074.14
417.08	1074.89
417.44	1073.32
417.81	1068.62
418.18	1066.86
418.54	1068.59
418.91	1071.57
419.28	1072.90
419.64	1075.90
420.01	1080.91
420.38	1079.13
420.74	1074.35
421.11	1072.25
421.48	1072.62
421.84	1068.99
422.21	1071.38
422.58	1072.39
422.94	1072.57
423.31	1072.64
423.68	1073.42
424.04	1070.70
424.41	1071.80
424.77	1075.15
425.14	1079.15
425.51	1079.38
425.87	1082.26
426.24	1083.11
426.61	1080.25
426.97	1076.90
427.34	1076.34
427.70	1073.30
428.07	1072.57
428.44	1074.24
428.80	1074.35
429.17	1077.14
429.53	1077.35
429.90	1078.17
430.27	1077.42
430.63	1077.16
431.00	1075.27
431.36	1074.73
431.73	1072.92
432.09	1073.30
432.46	1075.85
432.83	1078.43
433.19	1082.03
433.56	1085.05
433.92	1081.19
434.29	1081.44
434.65	1079.36
435.02	1077.14
435.38	1076.20
435.75	1077.82
436.11	1074.24
436.48	1073.91
436.84	1074.68
437.21	1077.49
437.57	1079.53
437.94	1080.95
438.30	1080.95
438.67	1082.80
439.03	1078.52
439.40	1076.62
439.76	1074.56
440.13	1075.76
440.49	1073.65
440.86	1073.93
441.22	1075.59
441.59	1075.80
441.95	1073.79
442.32	1075.45
442.68	1077.16
443.05	1075.22
443.41	1077.82
443.78	1082.85
444.14	1079.10
444.51	1077.84
444.87	1082.38
445.24	1081.54
445.60	1076.27
445.96	1077.86
446.33	1079.83
446.69	1076.44
447.06	1077.51
447.42	1078.78
447.79	1078.21
448.15	1076.55
448.51	1076.55
448.88	1076.39
449.24	1078.57
449.61	1078.40
449.97	1076.13
450.33	1079.22
450.70	1073.51
451.06	1069.23
451.43	1068.59
451.79	1071.38
452.15	1067.42
452.52	1072.53
452.88	1074.07
453.24	1077.98
453.61	1074.80
453.97	1077.63
454.34	1078.87
454.70	1082.24
455.06	1080.58
455.43	1082.57
455.79	1081.94
456.15	1083.57
456.52	1081.80
456.88	1082.22
457.24	1084.37
457.61	1083.32
457.97	1081.49
458.33	1080.77
458.70	1080.48
459.06	1079.78
459.42	1080.98
459.79	1081.19
460.15	1080.93
460.51	1076.69
460.88	1076.15
461.24	1074.56
461.60	1069.84
461.96	1068.13
462.33	1071.12
462.69	1069.13
463.05	1071.73
463.42	1075.76
463.78	1078.52
464.14	1079.81
464.50	1079.48
464.87	1077.89
465.23	1076.13
465.59	1073.53
465.95	1074.19
466.32	1073.25
466.68	1072.13
467.04	1074.61
467.40	1074.14
467.77	1072.71
468.13	1073.88
468.49	1075.80
468.85	1075.71
469.22	1074.87
469.58	1074.47
469.94	1073.77
470.30	1073.70
470.66	1071.90
471.03	1080.06
471.39	1084.44
471.75	1087.30
472.11	1087.97
472.47	1091.49
472.84	1086.90
473.20	1080.18
473.56	1079.62
473.92	1078.33
474.28	1072.22
474.65	1071.78
475.01	1076.95
475.37	1077.68
475.73	1077.82
476.09	1078.64
476.45	1077.70
476.81	1076.48
477.18	1077.16
477.54	1079.22
477.90	1081.94
478.26	1081.63
478.62	1079.22
478.98	1074.98
479.34	1074.31
479.71	1075.80
480.07	1077.75
480.43	1079.38
480.79	1082.57
481.15	1083.29
481.51	1084.28
481.87	1082.71
482.23	1081.58
482.59	1082.59
482.96	1082.38
483.32	1079.88
483.68	1081.19
484.04	1083.20
484.40	1080.53
484.76	1080.91
485.12	1082.54
485.48	1082.01
485.84	1079.67
486.20	1082.03
486.56	1079.50
486.92	1077.23
487.28	1077.09
487.64	1081.77
488.00	1082.80
488.37	1082.47
488.73	1080.44
489.09	1079.53
489.45	1076.81
489.81	1077.44
490.17	1076.83
490.53	1078.57
490.89	1077.54
491.25	1074.49
491.61	1073.65
491.97	1072.85
492.33	1075.27
492.69	1076.62
493.05	1077.25
493.41	1078.50
493.77	1082.36
494.13	1081.77
494.49	1079.71
494.85	1080.63
495.21	1078.57
495.57	1076.13
495.93	1074.40
496.29	1079.88
496.64	1083.32
497.00	1080.13
497.36	1081.61
497.72	1085.47
498.08	1082.54
498.44	1082.19
498.80	1086.87
499.16	1087.60
499.52	1085.54
499.88	1087.97
500.24	1086.52
500.60	1085.68
500.96	1085.47
501.32	1084.09
501.68	1082.22
502.03	1081.49
502.39	1079.60
502.75	1076.60
503.11	1078.43
503.47	1077.93
503.83	1076.58
504.19	1077.28
504.55	1079.48
504.91	1078.92
505.26	1079.31
505.62	1082.19
505.98	1081.05
506.34	1080.44
506.70	1075.50
507.06	1076.37
507.42	1075.05
507.78	1075.36
508.13	1077.42
508.49	1084.09
508.85	1084.79
509.21	1089.12
509.57	1091.16
509.93	1091.56
510.28	1090.69
510.64	1087.76
511.00	1082.71
511.36	1082.10
511.72	1080.30
512.07	1080.79
512.43	1083.01
512.79	1084.46
513.15	1087.65
513.51	1086.43
513.86	1088.09
514.22	1089.03
514.58	1090.34
514.94	1086.59
515.30	1093.08
515.65	1085.38
516.01	1082.50
516.37	1082.10
516.73	1085.73
517.08	1080.09
517.44	1086.38
517.80	1088.89
518.16	1086.64
518.51	1086.38
518.87	1086.99
519.23	1087.79
519.59	1087.81
519.94	1091.60
520.30	1092.21
520.66	1094.72
521.01	1093.43
521.37	1097.08
521.73	1096.10
522.09	1089.68
522.44	1088.65
522.80	1088.96
523.16	1085.89
523.51	1087.62
523.87	1095.60
524.23	1093.43
524.58	1089.80
524.94	1090.97
525.30	1088.33
525.65	1083.13
526.01	1081.70
526.37	1084.67
526.72	1080.65
527.08	1080.27
527.44	1080.91
527.79	1084.37
528.15	1083.64
528.51	1086.55
528.86	1087.25
529.22	1088.14
529.58	1088.00
529.93	1089.75
530.29	1094.69
530.65	1096.33
531.00	1096.73
531.36	1098.44
531.71	1098.81
532.07	1097.59
532.43	1096.07
532.78	1095.98
533.14	1094.53
533.49	1093.78
533.85	1094.20
534.21	1095.75
534.56	1095.04
534.92	1095.37
535.27	1091.32
535.63	1089.78
535.98	1085.75
536.34	1084.39
536.69	1084.51
537.05	1086.87
537.41	1087.27
537.76	1090.24
538.12	1091.60
538.47	1090.76
538.83	1089.57
539.18	1083.67
539.54	1084.04
539.89	1079.69
540.25	1082.15
540.60	1085.77
540.96	1092.77
541.31	1094.86
541.67	1101.64
542.02	1099.49
542.38	1101.25
542.73	1100.40
543.09	1097.99
543.44	1095.21
543.80	1096.49
544.15	1093.69
544.51	1091.56
544.86	1090.57
545.22	1092.70
545.57	1092.68
545.93	1095.42
546.28	1095.16
546.64	1096.80
546.99	1096.59
547.35	1095.91
547.70	1092.12
548.05	1090.99
548.41	1088.21
548.76	1086.08
549.12	1083.81
549.47	1083.67
549.83	1083.34
550.18	1086.22
550.53	1086.69
550.89	1088.75
551.24	1088.44
551.60	1087.34
551.95	1085.38
552.30	1084.53
552.66	1085.12
553.01	1084.81
553.37	1085.54
553.72	1086.45
554.07	1088.96
554.43	1086.41
554.78	1087.93
555.13	1089.78
555.49	1087.27
555.84	1084.00
556.19	1082.92
556.55	1082.59
556.90	1079.74
557.26	1079.62
557.61	1081.28
557.96	1082.87
558.32	1082.22
558.67	1083.86
559.02	1085.59
559.37	1083.55
559.73	1081.58
560.08	1078.47
560.43	1074.54
560.79	1071.54
561.14	1069.23
561.49	1070.47
561.85	1072.01
562.20	1075.24
562.55	1078.03
562.90	1080.34
563.26	1082.12
563.61	1081.96
563.96	1080.74
564.32	1080.60
564.67	1081.44
565.02	1080.91
565.37	1080.65
565.73	1082.92
566.08	1083.20
566.43	1084.96
566.78	1082.52
567.14	1082.97
567.49	1083.93
567.84	1085.28
568.19	1085.66
568.54	1089.64
568.90	1091.51
569.25	1091.30
569.60	1088.75
569.95	1085.70
570.31	1083.06
570.66	1082.69
571.01	1079.81
571.36	1078.47
571.71	1078.03
572.06	1076.62
572.42	1074.52
572.77	1075.76
573.12	1074.98
573.47	1078.57
573.82	1079.97
574.18	1085.40
574.53	1082.83
574.88	1085.99
575.23	1083.04
575.58	1083.06
575.93	1080.74
576.28	1080.84
576.64	1081.98
576.99	1082.69
577.34	1081.00
577.69	1078.92
578.04	1081.68
578.39	1079.29
578.74	1080.46
579.09	1081.77
579.44	1085.77
579.80	1086.52
580.15	1085.49
580.50	1085.84
580.85	1085.87
581.20	1083.01
581.55	1083.71
581.90	1084.00
582.25	1083.86
582.60	1083.29
582.95	1082.50
583.30	1079.06
583.65	1079.62
584.00	1080.39
584.35	1083.79
584.71	1085.82
585.06	1087.67
585.41	1088.70
585.76	1085.47
586.11	1081.26
586.46	1078.96
586.81	1073.60
587.16	1073.09
587.51	1073.77
587.86	1076.69
588.21	1076.27
588.56	1081.98
588.91	1086.52
589.26	1089.50
589.61	1089.71
589.96	1090.20
590.31	1089.00
590.66	1081.75
591.01	1081.47
591.36	1079.62
591.71	1082.69
592.06	1082.22
592.41	1081.94
592.76	1081.21
593.10	1083.57
593.45	1079.24
593.80	1082.50
594.15	1086.43
594.50	1082.38
594.85	1080.11
595.20	1084.35
595.55	1080.91
595.90	1079.81
596.25	1082.59
596.60	1083.57
596.95	1083.74
597.30	1082.99
597.64	1132.07
597.99	1135.35
598.34	1133.59
598.69	1129.66
599.04	1130.15
599.39	1082.05
599.74	1076.27
600.09	1077.89
600.44	1077.44
600.78	1078.96
601.13	1077.04
601.48	1078.33
601.83	1076.65
602.18	1077.44
602.53	1078.07
602.88	1078.73
603.22	1082.17
603.57	1083.20
603.92	1084.96
604.27	1085.94
604.62	1087.93
604.97	1083.08
605.31	1082.64
605.66	1080.53
606.01	1075.73
606.36	1071.66
606.71	1072.92
607.05	1074.66
607.40	1072.43
607.75	1074.03
608.10	1079.69
608.44	1079.78
608.79	1077.98
609.14	1081.40
609.49	1084.84
609.84	1086.66
610.18	1090.43
610.53	1096.26
610.88	1098.93
611.23	1104.26
611.57	1100.71
611.92	1101.27
612.27	1097.45
612.62	1099.09
612.96	1093.76
613.31	1095.63
613.66	1093.73
614.00	1094.34
614.35	1092.52
614.70	1091.51
615.05	1089.19
615.39	1088.54
615.74	1085.49
616.09	1084.72
616.43	1083.48
616.78	1083.81
617.13	1084.18
617.47	1083.81
617.82	1085.73
618.17	1085.59
618.51	1085.10
618.86	1082.59
619.21	1085.77
619.55	1083.29
619.90	1082.36
620.25	1082.69
620.59	1082.97
620.94	1083.18
621.29	1080.79
621.63	1080.46
621.98	1079.29
622.32	1082.26
622.67	1078.80
623.02	1080.34
623.36	1078.87
623.71	1079.06
624.05	1078.73
624.40	1080.72
624.75	1080.91
625.09	1080.70
625.44	1081.89
625.78	1082.33
626.13	1082.52
626.48	1080.53
626.82	1082.43
627.17	1083.34
627.51	1081.73
627.86	1080.32
628.20	1078.47
628.55	1077.84
628.89	1078.07
629.24	1072.34
629.58	1073.88
629.93	1078.66
630.28	1079.22
630.62	1075.66
630.97	1079.97
631.31	1077.65
631.66	1077.91
632.00	1077.68
632.35	1081.21
632.69	1081.00
633.04	1079.43
633.38	1073.44
633.73	1075.38
634.07	1071.57
634.42	1071.94
634.76	1074.68
635.11	1081.47
635.45	1082.33
635.79	1083.97
636.14	1084.65
636.48	1085.70
636.83	1082.73
637.17	1078.73
637.52	1077.42
637.86	1075.62
638.21	1075.48
638.55	1076.23
638.89	1077.91
639.24	1077.44
639.58	1080.39
639.93	1079.69
640.27	1076.81
640.61	1082.08
640.96	1082.50
641.30	1080.77
641.65	1080.58
641.99	1082.64
642.33	1077.75
642.68	1075.80
643.02	1075.59
643.37	1078.21
643.71	1078.40
644.05	1077.14
644.40	1080.95
644.74	1081.61
645.08	1078.24
645.43	1078.40
645.77	1078.61
646.11	1076.60
646.46	1076.95
646.80	1074.82
647.14	1074.63
647.49	1074.66
647.83	1075.43
648.17	1077.79
648.52	1078.43
648.86	1077.14
649.20	1079.48
649.55	1078.05
649.89	1076.48
650.23	1080.04
650.57	1079.36
650.92	1077.93
651.26	1079.17
651.60	1077.35
651.95	1075.43
652.29	1079.15
652.63	1080.18
652.97	1081.70
653.32	1083.88
653.66	1084.67
654.00	1081.91
654.34	1084.96
654.69	1085.77
655.03	1084.09
655.37	1084.67
655.71	1088.51
656.05	1087.02
656.40	1084.46
656.74	1083.64
657.08	1081.58
657.42	1078.19
657.76	1074.47
658.11	1074.14
658.45	1077.47
658.79	1080.27
659.13	1084.18
659.47	1087.58
659.82	1090.22
660.16	1085.94
660.50	1083.69
660.84	1078.80
661.18	1074.21
661.52	1077.21
661.87	1078.57
662.21	1080.41
662.55	1083.46
662.89	1084.11
663.23	1077.63
663.57	1078.05
663.91	1076.25
664.25	1076.15
664.60	1076.60
664.94	1078.80
665.28	1080.48
665.62	1083.34
665.96	1080.70
666.30	1080.39
666.64	1079.57
666.98	1080.91
667.32	1080.72
667.66	1082.24
668.01	1086.08
668.35	1085.00
668.69	1083.29
669.03	1079.97
669.37	1076.65
669.71	1074.77
670.05	1074.84
670.39	1073.14
670.73	1071.52
671.07	1073.04
671.41	1073.00
671.75	1075.94
672.09	1078.89
672.43	1081.14
672.77	1081.05
673.11	1083.06
673.45	1080.20
673.79	1077.30
674.13	1076.13
674.47	1079.95
674.81	1078.36
675.15	1078.07
675.49	1080.91
675.83	1082.66
676.17	1080.48
676.51	1081.56
676.85	1085.21
677.19	1083.81
677.53	1083.13
677.87	1082.92
678.21	1081.82
678.55	1083.39
678.89	1083.90
679.23	1086.20
679.57	1087.79
679.90	1089.45
680.24	1083.13
680.58	1082.31
680.92	1078.71
681.26	1077.84
681.60	1077.35
681.94	1079.22
682.28	1081.94
682.62	1084.51
682.96	1081.91
683.29	1080.74
683.63	1081.19
683.97	1076.13
684.31	1074.66
684.65	1073.56
684.99	1073.04
685.33	1071.05
685.67	1074.68
686.00	1079.22
686.34	1082.83
686.68	1084.58
687.02	1087.72
687.36	1086.13
687.70	1086.08
688.03	1084.04
688.37	1081.19
688.71	1078.66
689.05	1078.61
689.39	1079.36
689.72	1080.16
690.06	1079.90
690.40	1080.37
690.74	1078.99
691.08	1076.27
691.41	1076.01
691.75	1076.39
692.09	1080.84
692.43	1083.25
692.76	1080.34
693.10	1080.95
693.44	1081.05
693.78	1078.00
694.11	1077.11
694.45	1077.42
694.79	1076.83
695.13	1079.27
695.46	1077.35
695.80	1075.78
696.14	1075.15
696.48	1076.72
696.81	1074.03
697.15	1079.03
697.49	1082.66
697.82	1083.08
698.16	1082.43
698.50	1082.33
698.83	1080.56
699.17	1075.97
699.51	1075.20
699.84	1074.35
700.18	1074.24
700.52	1072.92
700.85	1074.47
701.19	1075.03
701.53	1075.50
701.86	1076.93
702.20	1077.30
702.54	1077.37
702.87	1077.63
703.21	1082.76
703.55	1086.99
703.88	1084.18
704.22	1087.48
704.55	1087.53
704.89	1080.16
705.23	1076.44
705.56	1078.80
705.90	1075.27
706.23	1076.65
706.57	1077.30
706.91	1076.37
707.24	1076.20
707.58	1079.17
707.91	1077.18
708.25	1083.41
708.58	1083.62
708.92	1082.85
709.26	1078.89
709.59	1079.48
709.93	1076.60
710.26	1080.11
710.60	1081.70
710.93	1083.74
711.27	1086.20
711.60	1084.51
711.94	1081.91
712.27	1081.61
712.61	1083.29
712.94	1079.46
713.28	1079.64
713.61	1079.01
713.95	1078.85
714.28	1078.64
714.62	1079.64
714.95	1079.76
715.29	1080.25
715.62	1079.34
715.96	1077.21
716.29	1076.65
716.63	1076.20
716.96	1077.77
717.29	1078.99
717.63	1081.63
717.96	1086.85
718.30	1088.04
718.63	1084.04
718.97	1083.95
719.30	1081.51
719.63	1076.81
719.97	1078.89
720.30	1082.40
720.64	1081.30
720.97	1081.30
721.30	1083.32
721.64	1078.43
721.97	1073.14
722.31	1074.21
722.64	1073.14
722.97	1074.54
723.31	1077.30
723.64	1077.00
723.97	1075.22
724.31	1078.50
724.64	1077.14
724.98	1073.37
725.31	1078.52
725.64	1082.15
725.98	1080.39
726.31	1083.06
726.64	1086.48
726.97	1086.48
727.31	1084.21
727.64	1082.36
727.97	1077.93
728.31	1076.86
728.64	1077.72
728.97	1079.17
729.31	1077.98
729.64	1080.30
729.97	1081.49
730.30	1079.62
730.64	1077.82
730.97	1076.58
731.30	1073.84
731.63	1072.67
731.97	1069.72
732.30	1069.67
732.63	1072.13
732.96	1073.93
733.30	1075.43
733.63	1078.73
733.96	1079.31
734.29	1080.32
734.63	1079.41
734.96	1077.93
735.29	1077.49
735.62	1078.21
735.95	1081.87
736.29	1082.83
736.62	1082.47
736.95	1079.13
737.28	1075.10
737.61	1072.57
737.94	1073.86
738.28	1078.17
738.61	1081.26
738.94	1085.07
739.27	1083.55
739.60	1082.36
739.93	1079.62
740.27	1080.81
740.60	1079.83
740.93	1078.75
741.26	1076.76
741.59	1077.09
741.92	1074.10
742.25	1073.00
742.58	1075.55
742.91	1074.94
743.25	1073.42
743.58	1077.65
743.91	1076.20
744.24	1077.65
744.57	1080.30
744.90	1080.79
745.23	1077.51
745.56	1078.85
745.89	1077.09
746.22	1076.67
746.55	1078.03
746.88	1077.89
747.21	1080.53
747.54	1079.20
747.87	1080.51
748.20	1082.24
748.53	1082.03
748.87	1082.15
749.20	1083.62
749.53	1081.96
749.86	1077.33
750.19	1079.34
750.52	1077.51
750.85	1077.21
751.18	1076.69
751.51	1076.55
751.84	1074.10
752.16	1073.23
752.49	1073.72
752.82	1074.07
753.15	1072.27
753.48	1070.40
753.81	1072.46
754.14	1070.56
754.47	1068.15
754.80	1069.81
755.13	1072.04
755.46	1071.24
755.79	1074.10
756.12	1077.63
756.45	1077.91
756.78	1081.40
757.11	1082.50
757.43	1079.90
757.76	1080.23
758.09	1079.67
758.42	1075.85
758.75	1074.38
759.08	1075.92
759.41	1076.39
759.74	1076.39
760.07	1078.47
760.39	1080.04
760.72	1079.53
761.05	1076.83
761.38	1078.71
761.71	1079.34
762.04	1080.77
762.36	1081.16
762.69	1081.70
763.02	1082.80
763.35	1082.99
763.68	1080.27
764.01	1078.92
764.33	1079.34
764.66	1077.44
764.99	1076.93
765.32	1077.35
765.65	1076.18
765.97	1076.01
766.30	1076.95
