SpectraSuite Data File
++++++++++++++++++++++++++++++++++++
Date: Mon Aug 26 10:26:01 PDT 2019
User: corrico
Dark Spectrum Present: No
Reference Spectrum Present: No
Number of Sampled Component Spectra: 1
Spectrometers: USB2+H06089
Integration Time (usec): 10000 (USB2+H06089)
Spectra Averaged: 2 (USB2+H06089)
Boxcar Smoothing: 2 (USB2+H06089)
Correct for Electrical Dark: No (USB2+H06089)
Strobe/Lamp Enabled: No (USB2+H06089)
Correct for Detector Non-linearity: No (USB2+H06089)
Correct for Stray Light: No (USB2+H06089)
Number of Pixels in Processed Spectrum: 2048
>>>>>Begin Processed Spectral Data<<<<<
339.70	1026.32
340.07	1026.32
340.45	998.94
340.82	974.83
341.19	958.22
341.57	931.30
341.94	924.75
342.31	922.87
342.69	925.68
343.06	915.15
343.43	913.51
343.81	917.49
344.18	911.64
344.55	916.09
344.93	921.94
345.30	935.98
345.67	935.98
346.04	941.36
346.42	938.09
346.79	946.75
347.16	955.64
347.54	965.47
347.91	974.60
348.28	986.77
348.65	992.39
349.03	996.83
349.40	1009.71
349.77	1016.26
350.14	1029.37
350.52	1042.24
350.89	1047.39
351.26	1050.90
351.63	1060.73
352.01	1061.90
352.38	1064.71
352.75	1067.28
353.12	1064.71
353.50	1066.58
353.87	1072.67
354.24	1079.69
354.61	1083.20
354.98	1082.03
355.36	1079.22
355.73	1076.88
356.10	1073.37
356.47	1068.69
356.84	1071.03
357.22	1073.37
357.59	1077.11
357.96	1076.88
358.33	1078.75
358.70	1078.05
359.08	1088.58
359.45	1084.60
359.82	1080.39
360.19	1093.73
360.56	1095.37
360.94	1086.94
361.31	1095.14
361.68	1096.07
362.05	1080.39
362.42	1077.11
362.79	1073.14
363.16	1074.07
363.54	1082.03
363.91	1080.16
364.28	1072.43
364.65	1073.60
365.02	1069.86
365.39	1056.52
365.76	1059.79
366.14	1072.20
366.51	1066.35
366.88	1057.45
367.25	1052.54
367.62	1050.67
367.99	1036.16
368.36	1036.16
368.73	1038.73
369.10	1051.84
369.48	1061.43
369.85	1077.58
370.22	1082.03
370.59	1086.94
370.96	1084.14
371.33	1082.73
371.70	1077.11
372.07	1072.20
372.44	1063.07
372.81	1060.50
373.18	1054.65
373.55	1059.33
373.93	1070.09
374.30	1070.33
374.67	1066.11
375.04	1064.24
375.41	1056.52
375.78	1043.18
376.15	1049.03
376.52	1058.39
376.89	1061.90
377.26	1066.82
377.63	1078.28
378.00	1078.99
378.37	1074.54
378.74	1062.14
379.11	1056.99
379.48	1050.90
379.85	1066.82
380.22	1072.90
380.59	1077.82
380.96	1081.33
381.33	1082.03
381.70	1068.92
382.07	1064.01
382.44	1074.31
382.81	1074.31
383.18	1080.86
383.55	1072.90
383.92	1077.35
384.29	1084.14
384.66	1084.37
385.03	1081.09
385.40	1082.50
385.77	1088.35
386.14	1079.69
386.51	1083.20
386.88	1082.03
387.25	1078.99
387.62	1069.16
387.99	1069.39
388.36	1058.39
388.73	1056.05
389.10	1058.16
389.46	1057.69
389.83	1046.45
390.20	1057.69
390.57	1058.86
390.94	1069.86
391.31	1069.39
391.68	1076.65
392.05	1078.05
392.42	1079.92
392.79	1062.84
393.16	1064.94
393.53	1070.33
393.89	1065.88
394.26	1068.22
394.63	1073.84
395.00	1072.20
395.37	1065.88
395.74	1067.75
396.11	1062.37
396.48	1062.14
396.84	1061.43
397.21	1067.28
397.58	1067.75
397.95	1076.88
398.32	1084.84
398.69	1092.80
399.06	1091.16
399.42	1092.56
399.79	1084.84
400.16	1080.86
400.53	1080.39
400.90	1076.18
401.27	1078.75
401.64	1068.69
402.00	1069.86
402.37	1065.65
402.74	1067.28
403.11	1058.16
403.48	1070.09
403.84	1067.99
404.21	1066.82
404.58	1062.84
404.95	1060.03
405.32	1067.28
405.68	1063.77
406.05	1059.79
406.42	1062.14
406.79	1070.80
407.16	1067.99
407.52	1064.71
407.89	1061.43
408.26	1070.09
408.63	1071.26
408.99	1061.43
409.36	1071.97
409.73	1079.92
410.10	1079.69
410.47	1074.31
410.83	1075.24
411.20	1076.41
411.57	1078.28
411.94	1077.35
412.30	1078.05
412.67	1082.03
413.04	1076.18
413.40	1080.63
413.77	1082.26
414.14	1079.92
414.51	1072.67
414.87	1075.94
415.24	1073.60
415.61	1066.11
415.97	1069.16
416.34	1070.56
416.71	1067.99
417.08	1063.77
417.44	1068.92
417.81	1071.97
418.18	1078.52
418.54	1086.71
418.91	1091.63
419.28	1086.94
419.64	1087.41
420.01	1094.43
420.38	1086.48
420.74	1081.09
421.11	1078.52
421.48	1080.16
421.84	1060.96
422.21	1064.94
422.58	1074.77
422.94	1081.56
423.31	1073.14
423.68	1085.77
424.04	1075.48
424.41	1067.99
424.77	1073.84
425.14	1077.82
425.51	1082.97
425.87	1093.03
426.24	1098.65
426.61	1082.97
426.97	1082.97
427.34	1076.18
427.70	1073.37
428.07	1064.01
428.44	1068.69
428.80	1072.90
429.17	1078.99
429.53	1086.48
429.90	1093.26
430.27	1088.58
430.63	1082.73
431.00	1076.18
431.36	1064.24
431.73	1065.18
432.09	1071.97
432.46	1081.09
432.83	1080.39
433.19	1078.75
433.56	1078.05
433.92	1081.56
434.29	1074.77
434.65	1081.09
435.02	1083.20
435.38	1074.07
435.75	1078.28
436.11	1086.48
436.48	1089.99
436.84	1089.52
437.21	1100.05
437.57	1096.54
437.94	1093.50
438.30	1088.82
438.67	1091.16
439.03	1082.73
439.40	1083.43
439.76	1074.77
440.13	1067.99
440.49	1071.03
440.86	1069.16
441.22	1065.65
441.59	1067.52
441.95	1075.71
442.32	1073.37
442.68	1074.54
443.05	1073.60
443.41	1082.97
443.78	1080.86
444.14	1081.56
444.51	1090.92
444.87	1092.09
445.24	1087.18
445.60	1089.99
445.96	1096.07
446.33	1092.33
446.69	1088.35
447.06	1091.86
447.42	1083.43
447.79	1079.92
448.15	1078.05
448.51	1078.75
448.88	1072.20
449.24	1076.41
449.61	1072.67
449.97	1080.86
450.33	1084.84
450.70	1077.35
451.06	1076.65
451.43	1076.41
451.79	1063.07
452.15	1064.24
452.52	1084.37
452.88	1093.03
453.24	1098.41
453.61	1102.39
453.97	1099.58
454.34	1088.58
454.70	1072.67
455.06	1074.07
455.43	1071.97
455.79	1073.60
456.15	1076.18
456.52	1085.31
456.88	1080.39
457.24	1087.88
457.61	1089.75
457.97	1086.48
458.33	1090.46
458.70	1096.31
459.06	1093.03
459.42	1095.84
459.79	1085.07
460.15	1073.84
460.51	1076.18
460.88	1079.92
461.24	1079.92
461.60	1094.20
461.96	1094.67
462.33	1085.07
462.69	1072.67
463.05	1068.45
463.42	1064.01
463.78	1068.22
464.14	1072.67
464.50	1084.37
464.87	1087.65
465.23	1085.31
465.59	1092.80
465.95	1083.67
466.32	1075.94
466.68	1075.71
467.04	1070.33
467.40	1070.33
467.77	1078.28
468.13	1077.58
468.49	1073.60
468.85	1076.41
469.22	1062.37
469.58	1062.37
469.94	1067.52
470.30	1067.28
470.66	1068.92
471.03	1077.82
471.39	1084.37
471.75	1084.14
472.11	1081.56
472.47	1079.92
472.84	1071.73
473.20	1056.99
473.56	1060.03
473.92	1065.65
474.28	1070.09
474.65	1076.88
475.01	1080.16
475.37	1078.52
475.73	1078.52
476.09	1083.67
476.45	1086.94
476.81	1093.50
477.18	1100.52
477.54	1104.03
477.90	1097.71
478.26	1093.26
478.62	1086.94
478.98	1081.33
479.34	1083.43
479.71	1090.92
480.07	1090.22
480.43	1087.18
480.79	1081.80
481.15	1074.07
481.51	1066.11
481.87	1069.16
482.23	1074.54
482.59	1078.05
482.96	1078.75
483.32	1081.80
483.68	1082.03
484.04	1083.67
484.40	1080.86
484.76	1078.28
485.12	1084.84
485.48	1078.75
485.84	1073.60
486.20	1081.09
486.56	1084.37
486.92	1078.05
487.28	1078.52
487.64	1079.92
488.00	1080.63
488.37	1084.14
488.73	1086.48
489.09	1092.80
489.45	1105.90
489.81	1105.67
490.17	1103.09
490.53	1096.07
490.89	1097.95
491.25	1089.29
491.61	1090.92
491.97	1083.20
492.33	1087.41
492.69	1082.73
493.05	1084.14
493.41	1079.22
493.77	1076.88
494.13	1078.52
494.49	1073.37
494.85	1064.94
495.21	1066.58
495.57	1077.35
495.93	1075.71
496.29	1074.54
496.64	1084.84
497.00	1081.09
497.36	1079.92
497.72	1089.29
498.08	1092.56
498.44	1088.12
498.80	1090.22
499.16	1091.39
499.52	1081.33
499.88	1081.33
500.24	1079.22
500.60	1083.67
500.96	1080.16
501.32	1078.99
501.68	1083.43
502.03	1095.37
502.39	1092.09
502.75	1092.33
503.11	1088.82
503.47	1086.24
503.83	1078.28
504.19	1073.14
504.55	1076.41
504.91	1086.48
505.26	1086.94
505.62	1089.05
505.98	1089.52
506.34	1085.07
506.70	1085.77
507.06	1090.22
507.42	1095.37
507.78	1095.37
508.13	1104.26
508.49	1103.56
508.85	1098.18
509.21	1079.46
509.57	1078.05
509.93	1075.48
510.28	1075.71
510.64	1071.26
511.00	1087.18
511.36	1087.41
511.72	1078.99
512.07	1070.56
512.43	1078.05
512.79	1062.84
513.15	1064.48
513.51	1073.37
513.86	1077.35
514.22	1074.31
514.58	1087.18
514.94	1095.14
515.30	1089.05
515.65	1087.65
516.01	1098.41
516.37	1094.43
516.73	1080.39
517.08	1075.48
517.44	1077.35
517.80	1076.18
518.16	1070.80
518.51	1084.84
518.87	1100.99
519.23	1104.50
519.59	1099.82
519.94	1112.92
520.30	1110.82
520.66	1112.46
521.01	1100.52
521.37	1094.20
521.73	1092.33
522.09	1093.03
522.44	1077.82
522.80	1088.58
523.16	1089.52
523.51	1085.31
523.87	1081.80
524.23	1081.33
524.58	1089.99
524.94	1096.07
525.30	1107.78
525.65	1102.63
526.01	1104.73
526.37	1094.43
526.72	1098.88
527.08	1089.52
527.44	1094.67
527.79	1102.16
528.15	1094.67
528.51	1092.56
528.86	1095.60
529.22	1095.14
529.58	1090.92
529.93	1109.18
530.29	1105.90
530.65	1093.26
531.00	1095.84
531.36	1098.88
531.71	1085.07
532.07	1093.03
532.43	1115.73
532.78	1117.61
533.14	1115.50
533.49	1123.69
533.85	1122.99
534.21	1093.97
534.56	1078.28
534.92	1072.90
535.27	1061.67
535.63	1060.26
535.98	1081.09
536.34	1097.24
536.69	1096.78
537.05	1099.82
537.41	1082.03
537.76	1067.52
538.12	1060.26
538.47	1065.41
538.83	1069.39
539.18	1082.26
539.54	1080.86
539.89	1071.26
540.25	1067.52
540.60	1079.92
540.96	1076.88
541.31	1088.58
541.67	1094.20
542.02	1100.52
542.38	1086.48
542.73	1086.71
543.09	1087.65
543.44	1097.24
543.80	1088.82
544.15	1087.65
544.51	1089.29
544.86	1090.92
545.22	1082.97
545.57	1093.97
545.93	1100.75
546.28	1095.14
546.64	1092.33
546.99	1096.54
547.35	1091.86
547.70	1082.50
548.05	1101.22
548.41	1097.48
548.76	1107.07
549.12	1110.35
549.47	1109.88
549.83	1096.07
550.18	1099.12
550.53	1083.90
550.89	1077.58
551.24	1090.46
551.60	1095.84
551.95	1101.92
552.30	1109.65
552.66	1111.75
553.01	1103.33
553.37	1102.16
553.72	1096.07
554.07	1084.14
554.43	1077.58
554.78	1077.58
555.13	1071.03
555.49	1065.88
555.84	1076.65
556.19	1084.60
556.55	1083.67
556.90	1081.80
557.26	1089.99
557.61	1089.29
557.96	1090.22
558.32	1092.56
558.67	1092.09
559.02	1081.56
559.37	1081.80
559.73	1074.07
560.08	1069.62
560.43	1073.84
560.79	1078.99
561.14	1079.92
561.49	1082.03
561.85	1082.50
562.20	1084.84
562.55	1086.71
562.90	1092.56
563.26	1093.03
563.61	1092.33
563.96	1099.82
564.32	1095.60
564.67	1084.84
565.02	1086.24
565.37	1083.90
565.73	1076.41
566.08	1072.90
566.43	1069.62
566.78	1075.48
567.14	1075.24
567.49	1082.26
567.84	1084.60
568.19	1093.97
568.54	1088.58
568.90	1098.65
569.25	1097.48
569.60	1104.73
569.95	1109.65
570.31	1107.78
570.66	1114.33
571.01	1108.71
571.36	1094.43
571.71	1086.94
572.06	1088.35
572.42	1079.69
572.77	1077.11
573.12	1083.90
573.47	1079.22
573.82	1084.37
574.18	1075.71
574.53	1067.99
574.88	1075.01
575.23	1081.09
575.58	1077.11
575.93	1077.11
576.28	1080.16
576.64	1074.07
576.99	1073.84
577.34	1074.54
577.69	1074.77
578.04	1075.24
578.39	1079.92
578.74	1073.37
579.09	1063.54
579.44	1068.92
579.80	1080.16
580.15	1076.18
580.50	1073.14
580.85	1078.28
581.20	1075.01
581.55	1062.37
581.90	1060.96
582.25	1069.16
582.60	1070.80
582.95	1064.71
583.30	1072.20
583.65	1078.99
584.00	1077.58
584.35	1068.92
584.71	1087.41
585.06	1078.99
585.41	1067.28
585.76	1064.94
586.11	1067.28
586.46	1054.18
586.81	1062.37
587.16	1078.05
587.51	1078.28
587.86	1093.73
588.21	1095.84
588.56	1094.90
588.91	1083.43
589.26	1084.37
589.61	1076.18
589.96	1090.69
590.31	1091.39
590.66	1092.80
591.01	1093.97
591.36	1093.26
591.71	1080.86
592.06	1081.33
592.41	1086.48
592.76	1090.22
593.10	1097.71
593.45	1102.63
593.80	1099.12
594.15	1088.58
594.50	1078.05
594.85	1065.88
595.20	1055.58
595.55	1059.33
595.90	1078.75
596.25	1085.31
596.60	1092.09
596.95	1095.84
597.30	1094.67
597.64	1138.20
597.99	1142.88
598.34	1145.22
598.69	1158.80
599.04	1158.80
599.39	1096.54
599.74	1098.65
600.09	1096.07
600.44	1078.99
600.78	1072.43
601.13	1079.69
601.48	1057.45
601.83	1053.94
602.18	1064.71
602.53	1065.18
602.88	1065.88
603.22	1087.18
603.57	1095.14
603.92	1086.71
604.27	1097.48
604.62	1104.50
604.97	1094.43
605.31	1095.37
605.66	1104.97
606.01	1092.33
606.36	1085.54
606.71	1089.05
607.05	1086.24
607.40	1067.28
607.75	1083.90
608.10	1088.35
608.44	1090.46
608.79	1085.31
609.14	1099.12
609.49	1093.73
609.84	1089.05
610.18	1096.07
610.53	1091.39
610.88	1088.35
611.23	1084.84
611.57	1080.86
611.92	1074.77
612.27	1087.41
612.62	1082.50
612.96	1081.33
613.31	1096.07
613.66	1087.88
614.00	1084.14
614.35	1098.65
614.70	1099.35
615.05	1082.50
615.39	1081.80
615.74	1074.54
616.09	1076.88
616.43	1075.71
616.78	1081.56
617.13	1087.41
617.47	1095.37
617.82	1087.65
618.17	1085.07
618.51	1084.84
618.86	1084.84
619.21	1078.05
619.55	1077.58
619.90	1071.73
620.25	1066.58
620.59	1062.60
620.94	1075.94
621.29	1070.56
621.63	1079.46
621.98	1084.84
622.32	1084.84
622.67	1073.84
623.02	1076.18
623.36	1068.69
623.71	1071.26
624.05	1086.71
624.40	1084.60
624.75	1082.73
625.09	1088.12
625.44	1083.20
625.78	1071.73
626.13	1079.69
626.48	1083.90
626.82	1075.71
627.17	1071.26
627.51	1070.56
627.86	1072.43
628.20	1069.16
628.55	1086.48
628.89	1087.65
629.24	1092.56
629.58	1078.75
629.93	1081.09
630.28	1078.75
630.62	1091.63
630.97	1090.69
631.31	1095.14
631.66	1103.33
632.00	1097.95
632.35	1091.16
632.69	1082.26
633.04	1081.09
633.38	1070.09
633.73	1075.94
634.07	1072.90
634.42	1085.07
634.76	1086.01
635.11	1092.33
635.45	1083.67
635.79	1081.80
636.14	1076.65
636.48	1078.99
636.83	1064.24
637.17	1076.18
637.52	1072.67
637.86	1074.31
638.21	1071.50
638.55	1075.94
638.89	1067.28
639.24	1074.07
639.58	1067.05
639.93	1075.01
640.27	1079.69
640.61	1086.48
640.96	1082.97
641.30	1096.31
641.65	1089.29
641.99	1092.33
642.33	1083.20
642.68	1081.80
643.02	1065.65
643.37	1068.45
643.71	1061.20
644.05	1071.03
644.40	1069.62
644.74	1081.33
645.08	1077.11
645.43	1085.77
645.77	1069.39
646.11	1081.09
646.46	1077.35
646.80	1072.67
647.14	1066.35
647.49	1072.90
647.83	1068.45
648.17	1069.62
648.52	1080.63
648.86	1080.16
649.20	1077.11
649.55	1072.90
649.89	1068.45
650.23	1054.88
650.57	1063.31
650.92	1070.09
651.26	1070.56
651.60	1070.33
651.95	1083.43
652.29	1073.60
652.63	1080.39
652.97	1089.05
653.32	1099.35
653.66	1099.12
654.00	1103.33
654.34	1096.54
654.69	1083.90
655.03	1071.26
655.37	1058.16
655.71	1059.09
656.05	1057.92
656.40	1067.05
656.74	1073.60
657.08	1075.01
657.42	1074.31
657.76	1076.41
658.11	1072.67
658.45	1065.18
658.79	1080.39
659.13	1071.03
659.47	1065.65
659.82	1060.26
660.16	1065.18
660.50	1056.52
660.84	1061.20
661.18	1063.31
661.52	1070.80
661.87	1067.52
662.21	1071.03
662.55	1068.92
662.89	1084.14
663.23	1095.60
663.57	1100.75
663.91	1107.54
664.25	1107.31
664.60	1090.46
664.94	1075.71
665.28	1073.84
665.62	1069.86
665.96	1079.92
666.30	1080.39
666.64	1074.77
666.98	1073.60
667.32	1069.62
667.66	1062.37
668.01	1064.71
668.35	1074.31
668.69	1078.05
669.03	1080.39
669.37	1084.60
669.71	1081.56
670.05	1081.56
670.39	1072.90
670.73	1070.56
671.07	1078.75
671.41	1078.75
671.75	1083.67
672.09	1090.22
672.43	1092.09
672.77	1087.18
673.11	1089.52
673.45	1080.16
673.79	1078.52
674.13	1086.01
674.47	1080.86
674.81	1083.43
675.15	1081.33
675.49	1072.90
675.83	1058.62
676.17	1051.60
676.51	1051.37
676.85	1056.28
677.19	1060.03
677.53	1055.58
677.87	1066.58
678.21	1063.77
678.55	1064.01
678.89	1064.48
679.23	1067.99
679.57	1068.92
679.90	1069.86
680.24	1071.73
680.58	1064.01
680.92	1067.52
681.26	1063.31
681.60	1059.33
681.94	1050.67
682.28	1067.52
682.62	1076.41
682.96	1078.28
683.29	1084.14
683.63	1086.71
683.97	1089.05
684.31	1093.03
684.65	1093.97
684.99	1095.60
685.33	1101.92
685.67	1094.43
686.00	1080.86
686.34	1081.56
686.68	1074.77
687.02	1071.50
687.36	1075.71
687.70	1085.31
688.03	1082.97
688.37	1082.73
688.71	1078.52
689.05	1075.71
689.39	1070.33
689.72	1070.56
690.06	1077.35
690.40	1069.16
690.74	1075.01
691.08	1077.11
691.41	1084.14
691.75	1078.52
692.09	1099.58
692.43	1098.18
692.76	1102.16
693.10	1095.14
693.44	1100.75
693.78	1098.41
694.11	1093.73
694.45	1090.22
694.79	1093.50
695.13	1086.94
695.46	1080.39
695.80	1083.20
696.14	1074.31
696.48	1077.35
696.81	1079.69
697.15	1086.71
697.49	1081.80
697.82	1085.31
698.16	1083.90
698.50	1082.26
698.83	1085.07
699.17	1084.84
699.51	1082.03
699.84	1074.54
700.18	1072.67
700.52	1064.01
700.85	1076.18
701.19	1079.46
701.53	1083.90
701.86	1098.65
702.20	1099.35
702.54	1079.69
702.87	1082.03
703.21	1078.52
703.55	1062.37
703.88	1056.28
704.22	1065.65
704.55	1056.99
704.89	1060.03
705.23	1062.60
705.56	1071.50
705.90	1068.92
706.23	1067.28
706.57	1074.31
706.91	1081.56
707.24	1074.54
707.58	1080.63
707.91	1091.16
708.25	1086.71
708.58	1081.56
708.92	1081.56
709.26	1084.37
709.59	1086.24
709.93	1085.07
710.26	1091.63
710.60	1099.35
710.93	1106.61
711.27	1108.01
711.60	1100.75
711.94	1089.05
712.27	1079.22
712.61	1053.71
712.94	1046.22
713.28	1047.86
713.61	1057.69
713.95	1064.24
714.28	1069.86
714.62	1084.84
714.95	1083.67
715.29	1080.86
715.62	1083.90
715.96	1088.35
716.29	1078.28
716.63	1084.60
716.96	1077.58
717.29	1071.50
717.63	1071.97
717.96	1073.84
718.30	1074.54
718.63	1077.58
718.97	1074.31
719.30	1077.58
719.63	1071.26
719.97	1070.33
720.30	1067.28
720.64	1072.90
720.97	1071.50
721.30	1083.20
721.64	1074.77
721.97	1086.48
722.31	1092.80
722.64	1093.03
722.97	1080.63
723.31	1085.77
723.64	1074.54
723.97	1066.82
724.31	1063.07
724.64	1064.94
724.98	1067.99
725.31	1073.37
725.64	1073.84
725.98	1077.35
726.31	1076.65
726.64	1065.88
726.97	1073.37
727.31	1075.01
727.64	1080.39
727.97	1087.65
728.31	1087.65
728.64	1081.33
728.97	1077.11
729.31	1079.22
729.64	1080.16
729.97	1085.07
730.30	1090.22
730.64	1091.63
730.97	1092.56
731.30	1089.75
731.63	1092.09
731.97	1093.26
732.30	1091.86
732.63	1086.24
732.96	1087.18
733.30	1092.56
733.63	1083.90
733.96	1084.37
734.29	1087.18
734.63	1088.35
734.96	1084.60
735.29	1097.95
735.62	1089.75
735.95	1087.18
736.29	1092.09
736.62	1092.09
736.95	1075.71
737.28	1086.48
737.61	1077.35
737.94	1070.09
738.28	1072.67
738.61	1081.56
738.94	1092.33
739.27	1101.69
739.60	1098.65
739.93	1095.37
740.27	1087.65
740.60	1075.24
740.93	1080.63
741.26	1088.82
741.59	1088.58
741.92	1085.07
742.25	1095.14
742.58	1090.22
742.91	1078.99
743.25	1085.77
743.58	1085.54
743.91	1076.65
744.24	1072.43
744.57	1075.48
744.90	1064.94
745.23	1078.75
745.56	1079.69
745.89	1077.82
746.22	1072.20
746.55	1074.31
746.88	1063.07
747.21	1062.37
747.54	1074.31
747.87	1081.09
748.20	1088.58
748.53	1088.58
748.87	1095.37
749.20	1083.67
749.53	1089.29
749.86	1083.90
750.19	1081.56
750.52	1064.94
750.85	1069.86
751.18	1057.22
751.51	1060.26
751.84	1072.20
752.16	1090.22
752.49	1094.20
752.82	1104.97
753.15	1106.84
753.48	1088.12
753.81	1075.48
754.14	1067.75
754.47	1070.09
754.80	1069.86
755.13	1076.65
755.46	1076.65
755.79	1080.63
756.12	1078.28
756.45	1072.20
756.78	1078.75
757.11	1083.67
757.43	1082.26
757.76	1086.71
758.09	1087.65
758.42	1092.80
758.75	1093.26
759.08	1095.14
759.41	1090.46
759.74	1100.52
760.07	1093.26
760.39	1101.46
760.72	1107.54
761.05	1103.56
761.38	1094.90
761.71	1100.05
762.04	1089.29
762.36	1082.97
762.69	1081.09
763.02	1077.35
763.35	1079.69
763.68	1075.01
764.01	1062.60
764.33	1061.67
764.66	1065.65
764.99	1057.69
765.32	1061.67
765.65	1067.75
765.97	1069.86
766.30	1063.31
