SpectraSuite Data File
++++++++++++++++++++++++++++++++++++
Date: Mon Aug 26 10:26:00 PDT 2019
User: corrico
Dark Spectrum Present: No
Reference Spectrum Present: No
Number of Sampled Component Spectra: 1
Spectrometers: USB2+H06089
Integration Time (usec): 10000 (USB2+H06089)
Spectra Averaged: 2 (USB2+H06089)
Boxcar Smoothing: 2 (USB2+H06089)
Correct for Electrical Dark: No (USB2+H06089)
Strobe/Lamp Enabled: No (USB2+H06089)
Correct for Detector Non-linearity: No (USB2+H06089)
Correct for Stray Light: No (USB2+H06089)
Number of Pixels in Processed Spectrum: 2048
>>>>>Begin Processed Spectral Data<<<<<
339.70	990.05
340.07	990.05
340.45	968.51
340.82	957.75
341.19	944.64
341.57	929.66
341.94	921.70
342.31	919.13
342.69	908.83
343.06	904.62
343.43	908.13
343.81	905.79
344.18	902.51
344.55	906.02
344.93	911.87
345.30	905.32
345.67	918.89
346.04	928.26
346.42	942.07
346.79	951.66
347.16	964.30
347.54	971.56
347.91	985.37
348.28	989.34
348.65	989.34
349.03	996.13
349.40	998.47
349.77	1001.98
350.14	1015.09
350.52	1027.50
350.89	1034.52
351.26	1038.96
351.63	1041.07
352.01	1044.35
352.38	1049.26
352.75	1052.30
353.12	1054.41
353.50	1062.14
353.87	1063.31
354.24	1073.14
354.61	1074.31
354.98	1083.20
355.36	1089.29
355.73	1083.90
356.10	1071.97
356.47	1069.16
356.84	1066.82
357.22	1065.18
357.59	1067.99
357.96	1079.22
358.33	1090.22
358.70	1088.35
359.08	1086.01
359.45	1082.97
359.82	1082.97
360.19	1077.11
360.56	1080.63
360.94	1075.24
361.31	1078.75
361.68	1066.35
362.05	1078.52
362.42	1069.39
362.79	1064.01
363.16	1067.99
363.54	1066.35
363.91	1059.56
364.28	1070.80
364.65	1077.82
365.02	1073.37
365.39	1082.97
365.76	1086.01
366.14	1078.52
366.51	1082.97
366.88	1082.50
367.25	1077.82
367.62	1076.18
367.99	1079.69
368.36	1075.24
368.73	1080.39
369.10	1081.80
369.48	1072.20
369.85	1064.24
370.22	1055.82
370.59	1054.41
370.96	1050.67
371.33	1046.69
371.70	1053.01
372.07	1067.75
372.44	1060.50
372.81	1057.45
373.18	1055.58
373.55	1056.75
373.93	1050.43
374.30	1059.33
374.67	1072.20
375.04	1077.82
375.41	1074.54
375.78	1077.11
376.15	1077.82
376.52	1067.99
376.89	1077.11
377.26	1077.11
377.63	1079.46
378.00	1076.88
378.37	1076.18
378.74	1070.09
379.11	1071.26
379.48	1055.35
379.85	1052.54
380.22	1052.77
380.59	1047.86
380.96	1045.52
381.33	1059.79
381.70	1067.99
382.07	1074.77
382.44	1082.97
382.81	1082.50
383.18	1084.37
383.55	1075.48
383.92	1072.43
384.29	1060.73
384.66	1069.16
385.03	1070.80
385.40	1066.82
385.77	1066.82
386.14	1075.94
386.51	1073.60
386.88	1064.71
387.25	1073.60
387.62	1075.24
387.99	1072.90
388.36	1072.20
388.73	1076.65
389.10	1072.67
389.46	1077.82
389.83	1085.77
390.20	1081.09
390.57	1082.03
390.94	1080.39
391.31	1073.60
391.68	1071.97
392.05	1077.82
392.42	1076.18
392.79	1075.94
393.16	1066.11
393.53	1057.45
393.89	1057.22
394.26	1049.26
394.63	1049.73
395.00	1058.39
395.37	1065.65
395.74	1067.75
396.11	1074.31
396.48	1074.07
396.84	1073.60
397.21	1064.24
397.58	1064.24
397.95	1056.75
398.32	1058.62
398.69	1059.56
399.06	1063.54
399.42	1055.35
399.79	1061.43
400.16	1061.90
400.53	1053.94
400.90	1055.11
401.27	1057.69
401.64	1061.20
402.00	1060.50
402.37	1067.75
402.74	1077.82
403.11	1068.69
403.48	1060.96
403.84	1060.26
404.21	1060.96
404.58	1057.22
404.95	1066.58
405.32	1069.39
405.68	1071.97
406.05	1073.60
406.42	1078.05
406.79	1087.41
407.16	1090.69
407.52	1088.82
407.89	1085.54
408.26	1075.01
408.63	1061.43
408.99	1066.11
409.36	1075.94
409.73	1076.65
410.10	1080.63
410.47	1083.67
410.83	1083.67
411.20	1076.65
411.57	1079.46
411.94	1082.03
412.30	1092.33
412.67	1092.33
413.04	1095.60
413.40	1092.09
413.77	1093.03
414.14	1091.86
414.51	1092.09
414.87	1086.24
415.24	1089.75
415.61	1076.88
415.97	1075.48
416.34	1073.37
416.71	1067.99
417.08	1065.88
417.44	1078.05
417.81	1065.18
418.18	1056.75
418.54	1056.52
418.91	1055.35
419.28	1045.99
419.64	1051.13
420.01	1058.86
420.38	1068.45
420.74	1081.56
421.11	1094.90
421.48	1092.33
421.84	1089.75
422.21	1083.43
422.58	1066.82
422.94	1059.09
423.31	1067.05
423.68	1072.43
424.04	1068.92
424.41	1075.48
424.77	1072.43
425.14	1062.84
425.51	1057.45
425.87	1056.52
426.24	1057.45
426.61	1061.90
426.97	1071.03
427.34	1070.33
427.70	1074.07
428.07	1067.52
428.44	1067.05
428.80	1066.35
429.17	1071.03
429.53	1084.60
429.90	1090.22
430.27	1089.29
430.63	1093.97
431.00	1099.58
431.36	1093.26
431.73	1093.03
432.09	1101.46
432.46	1093.50
432.83	1089.75
433.19	1089.52
433.56	1093.26
433.92	1086.48
434.29	1095.14
434.65	1094.43
435.02	1102.39
435.38	1100.52
435.75	1094.20
436.11	1090.69
436.48	1081.56
436.84	1080.63
437.21	1087.18
437.57	1087.88
437.94	1084.37
438.30	1089.05
438.67	1090.46
439.03	1077.82
439.40	1080.39
439.76	1079.22
440.13	1088.82
440.49	1084.14
440.86	1082.50
441.22	1084.60
441.59	1091.16
441.95	1083.20
442.32	1082.26
442.68	1090.22
443.05	1085.31
443.41	1074.07
443.78	1072.20
444.14	1064.01
444.51	1060.03
444.87	1064.01
445.24	1071.03
445.60	1061.90
445.96	1062.60
446.33	1068.92
446.69	1065.41
447.06	1064.01
447.42	1073.14
447.79	1080.39
448.15	1073.37
448.51	1088.82
448.88	1090.69
449.24	1086.24
449.61	1075.94
449.97	1079.22
450.33	1070.56
450.70	1068.45
451.06	1073.84
451.43	1082.97
451.79	1085.54
452.15	1071.73
452.52	1063.77
452.88	1063.31
453.24	1060.50
453.61	1050.43
453.97	1064.94
454.34	1070.33
454.70	1083.20
455.06	1083.67
455.43	1092.56
455.79	1094.43
456.15	1099.12
456.52	1087.18
456.88	1082.50
457.24	1080.86
457.61	1077.82
457.97	1078.05
458.33	1075.71
458.70	1076.88
459.06	1074.54
459.42	1075.71
459.79	1086.01
460.15	1087.65
460.51	1090.69
460.88	1085.31
461.24	1080.86
461.60	1070.09
461.96	1073.60
462.33	1077.82
462.69	1088.35
463.05	1085.31
463.42	1083.67
463.78	1086.48
464.14	1084.37
464.50	1084.84
464.87	1098.88
465.23	1107.07
465.59	1096.31
465.95	1101.22
466.32	1104.97
466.68	1096.54
467.04	1086.01
467.40	1084.84
467.77	1073.84
468.13	1067.75
468.49	1064.71
468.85	1066.58
469.22	1080.39
469.58	1082.03
469.94	1085.31
470.30	1088.35
470.66	1083.90
471.03	1078.52
471.39	1077.35
471.75	1078.28
472.11	1073.14
472.47	1068.69
472.84	1058.16
473.20	1057.45
473.56	1052.54
473.92	1056.75
474.28	1064.01
474.65	1075.71
475.01	1080.86
475.37	1077.82
475.73	1068.22
476.09	1072.20
476.45	1074.31
476.81	1073.37
477.18	1076.65
477.54	1081.33
477.90	1077.11
478.26	1070.80
478.62	1070.56
478.98	1071.50
479.34	1076.88
479.71	1084.84
480.07	1089.29
480.43	1091.86
480.79	1091.86
481.15	1092.80
481.51	1086.94
481.87	1095.84
482.23	1097.95
482.59	1096.78
482.96	1092.33
483.32	1085.07
483.68	1081.09
484.04	1069.86
484.40	1068.92
484.76	1062.60
485.12	1078.52
485.48	1075.01
485.84	1082.03
486.20	1078.52
486.56	1090.92
486.92	1083.90
487.28	1079.92
487.64	1073.37
488.00	1080.16
488.37	1073.14
488.73	1079.46
489.09	1081.80
489.45	1093.26
489.81	1101.22
490.17	1106.84
490.53	1101.46
490.89	1098.41
491.25	1091.63
491.61	1086.94
491.97	1089.05
492.33	1098.65
492.69	1106.84
493.05	1114.10
493.41	1101.22
493.77	1096.54
494.13	1085.31
494.49	1074.54
494.85	1060.03
495.21	1067.28
495.57	1065.65
495.93	1064.94
496.29	1070.80
496.64	1082.50
497.00	1079.22
497.36	1077.11
497.72	1071.03
498.08	1071.26
498.44	1073.37
498.80	1085.31
499.16	1095.14
499.52	1106.37
499.88	1101.22
500.24	1089.52
500.60	1082.03
500.96	1071.97
501.32	1070.80
501.68	1070.09
502.03	1074.07
502.39	1071.50
502.75	1084.14
503.11	1089.75
503.47	1090.22
503.83	1097.01
504.19	1097.01
504.55	1092.56
504.91	1093.26
505.26	1098.65
505.62	1094.67
505.98	1103.33
506.34	1097.95
506.70	1082.03
507.06	1075.01
507.42	1073.37
507.78	1060.73
508.13	1066.35
508.49	1070.33
508.85	1073.84
509.21	1074.54
509.57	1076.65
509.93	1068.45
510.28	1068.69
510.64	1071.97
511.00	1073.14
511.36	1078.52
511.72	1083.67
512.07	1088.82
512.43	1092.80
512.79	1091.16
513.15	1089.75
513.51	1096.07
513.86	1099.35
514.22	1095.84
514.58	1091.16
514.94	1088.12
515.30	1084.84
515.65	1082.97
516.01	1085.07
516.37	1085.54
516.73	1097.48
517.08	1102.63
517.44	1103.33
517.80	1102.16
518.16	1111.75
518.51	1093.50
518.87	1092.33
519.23	1084.60
519.59	1079.46
519.94	1078.99
520.30	1083.90
520.66	1084.37
521.01	1095.84
521.37	1093.73
521.73	1092.33
522.09	1098.65
522.44	1090.69
522.80	1089.29
523.16	1103.09
523.51	1095.14
523.87	1094.67
524.23	1091.39
524.58	1085.31
524.94	1080.86
525.30	1089.52
525.65	1089.52
526.01	1098.65
526.37	1098.18
526.72	1092.09
527.08	1082.50
527.44	1087.41
527.79	1082.26
528.15	1078.99
528.51	1080.39
528.86	1086.71
529.22	1086.48
529.58	1086.71
529.93	1092.33
530.29	1094.20
530.65	1093.26
531.00	1092.80
531.36	1092.33
531.71	1089.05
532.07	1089.29
532.43	1092.56
532.78	1092.80
533.14	1092.09
533.49	1092.33
533.85	1101.92
534.21	1098.41
534.56	1095.84
534.92	1100.29
535.27	1111.75
535.63	1097.71
535.98	1105.44
536.34	1111.52
536.69	1124.16
537.05	1116.90
537.41	1118.31
537.76	1121.12
538.12	1116.90
538.47	1104.73
538.83	1104.97
539.18	1103.09
539.54	1101.22
539.89	1099.82
540.25	1104.50
540.60	1099.35
540.96	1103.80
541.31	1097.71
541.67	1090.92
542.02	1076.88
542.38	1073.84
542.73	1067.99
543.09	1067.28
543.44	1066.82
543.80	1081.56
544.15	1089.99
544.51	1097.24
544.86	1094.90
545.22	1102.39
545.57	1101.69
545.93	1102.16
546.28	1090.69
546.64	1094.67
546.99	1093.73
547.35	1089.29
547.70	1089.05
548.05	1096.54
548.41	1094.20
548.76	1086.71
549.12	1086.71
549.47	1078.52
549.83	1078.52
550.18	1078.52
550.53	1093.26
550.89	1093.50
551.24	1103.09
551.60	1107.31
551.95	1119.01
552.30	1111.29
552.66	1101.22
553.01	1087.88
553.37	1078.05
553.72	1077.58
554.07	1074.54
554.43	1085.07
554.78	1097.71
555.13	1107.78
555.49	1088.82
555.84	1084.37
556.19	1075.01
556.55	1069.86
556.90	1056.28
557.26	1059.79
557.61	1073.37
557.96	1081.33
558.32	1087.41
558.67	1102.63
559.02	1104.03
559.37	1098.88
559.73	1089.52
560.08	1085.77
560.43	1085.07
560.79	1092.56
561.14	1094.20
561.49	1106.61
561.85	1107.31
562.20	1110.12
562.55	1109.18
562.90	1108.01
563.26	1100.05
563.61	1093.03
563.96	1081.80
564.32	1077.35
564.67	1070.56
565.02	1080.39
565.37	1087.88
565.73	1093.50
566.08	1098.41
566.43	1097.01
566.78	1092.56
567.14	1087.18
567.49	1080.39
567.84	1078.75
568.19	1073.14
568.54	1071.73
568.90	1068.22
569.25	1071.26
569.60	1067.52
569.95	1072.20
570.31	1066.58
570.66	1067.52
571.01	1067.75
571.36	1072.20
571.71	1078.05
572.06	1075.48
572.42	1076.41
572.77	1073.60
573.12	1063.07
573.47	1061.90
573.82	1066.58
574.18	1074.54
574.53	1076.88
574.88	1081.09
575.23	1075.24
575.58	1075.01
575.93	1069.16
576.28	1072.20
576.64	1078.05
576.99	1078.99
577.34	1078.05
577.69	1079.46
578.04	1078.05
578.39	1071.97
578.74	1079.92
579.09	1086.71
579.44	1090.22
579.80	1089.29
580.15	1088.82
580.50	1087.18
580.85	1079.22
581.20	1087.88
581.55	1085.31
581.90	1100.05
582.25	1110.35
582.60	1112.46
582.95	1103.33
583.30	1108.24
583.65	1089.52
584.00	1069.62
584.35	1073.14
584.71	1074.54
585.06	1066.35
585.41	1069.16
585.76	1083.20
586.11	1075.48
586.46	1069.86
586.81	1075.71
587.16	1082.50
587.51	1074.54
587.86	1081.56
588.21	1078.28
588.56	1078.99
588.91	1076.41
589.26	1082.50
589.61	1091.16
589.96	1098.41
590.31	1104.50
590.66	1109.65
591.01	1107.31
591.36	1107.54
591.71	1108.01
592.06	1109.65
592.41	1104.50
592.76	1103.80
593.10	1090.22
593.45	1088.58
593.80	1081.80
594.15	1083.43
594.50	1083.67
594.85	1084.37
595.20	1091.63
595.55	1085.31
595.90	1083.67
596.25	1086.71
596.60	1092.80
596.95	1082.73
597.30	1095.37
597.64	1149.91
597.99	1148.27
598.34	1144.76
598.69	1147.80
599.04	1142.65
599.39	1095.14
599.74	1088.58
600.09	1090.69
600.44	1088.82
600.78	1091.86
601.13	1077.58
601.48	1086.94
601.83	1079.69
602.18	1075.71
602.53	1069.16
602.88	1082.50
603.22	1071.97
603.57	1071.26
603.92	1075.24
604.27	1073.60
604.62	1070.33
604.97	1082.73
605.31	1088.35
605.66	1086.94
606.01	1093.03
606.36	1089.75
606.71	1081.56
607.05	1079.69
607.40	1089.75
607.75	1093.97
608.10	1106.14
608.44	1115.03
608.79	1111.52
609.14	1113.16
609.49	1109.18
609.84	1099.35
610.18	1099.58
610.53	1111.52
610.88	1095.60
611.23	1091.86
611.57	1086.94
611.92	1070.80
612.27	1075.48
612.62	1091.63
612.96	1097.95
613.31	1105.90
613.66	1106.84
614.00	1091.63
614.35	1092.09
614.70	1092.33
615.05	1078.99
615.39	1084.84
615.74	1094.90
616.09	1080.86
616.43	1076.41
616.78	1080.63
617.13	1080.39
617.47	1074.77
617.82	1076.41
618.17	1072.43
618.51	1081.80
618.86	1079.22
619.21	1083.67
619.55	1087.65
619.90	1096.31
620.25	1095.37
620.59	1102.16
620.94	1097.24
621.29	1092.56
621.63	1094.90
621.98	1094.67
622.32	1078.28
622.67	1072.20
623.02	1077.35
623.36	1072.90
623.71	1069.39
624.05	1089.75
624.40	1097.48
624.75	1091.86
625.09	1086.71
625.44	1080.86
625.78	1082.26
626.13	1079.46
626.48	1085.77
626.82	1085.54
627.17	1088.35
627.51	1090.22
627.86	1094.43
628.20	1087.18
628.55	1083.67
628.89	1076.18
629.24	1065.88
629.58	1054.41
629.93	1053.48
630.28	1057.22
630.62	1069.86
630.97	1074.54
631.31	1084.84
631.66	1085.31
632.00	1077.35
632.35	1078.99
632.69	1071.03
633.04	1069.62
633.38	1076.65
633.73	1069.39
634.07	1059.33
634.42	1059.56
634.76	1053.94
635.11	1044.82
635.45	1059.56
635.79	1063.07
636.14	1068.45
636.48	1081.33
636.83	1082.73
637.17	1084.84
637.52	1096.31
637.86	1103.80
638.21	1097.71
638.55	1100.05
638.89	1105.44
639.24	1095.84
639.58	1090.69
639.93	1088.35
640.27	1087.65
640.61	1077.35
640.96	1076.41
641.30	1074.54
641.65	1076.88
641.99	1079.69
642.33	1086.94
642.68	1088.82
643.02	1084.14
643.37	1086.24
643.71	1084.60
644.05	1074.31
644.40	1073.37
644.74	1076.18
645.08	1078.75
645.43	1085.07
645.77	1090.46
646.11	1092.33
646.46	1092.80
646.80	1081.56
647.14	1081.09
647.49	1084.14
647.83	1085.54
648.17	1088.58
648.52	1090.69
648.86	1096.07
649.20	1104.97
649.55	1090.69
649.89	1082.03
650.23	1084.84
650.57	1076.88
650.92	1071.73
651.26	1079.92
651.60	1088.35
651.95	1089.05
652.29	1085.31
652.63	1085.07
652.97	1086.01
653.32	1074.07
653.66	1069.39
654.00	1075.01
654.34	1065.18
654.69	1074.31
655.03	1084.37
655.37	1086.94
655.71	1080.16
656.05	1087.18
656.40	1077.11
656.74	1079.69
657.08	1078.05
657.42	1080.16
657.76	1078.28
658.11	1087.41
658.45	1093.26
658.79	1095.37
659.13	1093.26
659.47	1094.67
659.82	1084.84
660.16	1077.11
660.50	1076.65
660.84	1078.28
661.18	1079.46
661.52	1089.99
661.87	1091.16
662.21	1092.56
662.55	1095.14
662.89	1092.09
663.23	1082.26
663.57	1076.88
663.91	1082.50
664.25	1073.60
664.60	1065.41
664.94	1064.71
665.28	1073.84
665.62	1076.41
665.96	1082.50
666.30	1088.58
666.64	1090.92
666.98	1081.09
667.32	1074.77
667.66	1084.14
668.01	1086.94
668.35	1098.41
668.69	1102.16
669.03	1091.16
669.37	1076.88
669.71	1078.05
670.05	1066.11
670.39	1068.45
670.73	1081.33
671.07	1079.22
671.41	1076.65
671.75	1083.20
672.09	1073.14
672.43	1060.50
672.77	1063.07
673.11	1062.60
673.45	1056.05
673.79	1072.43
674.13	1075.01
674.47	1083.90
674.81	1083.90
675.15	1100.29
675.49	1089.99
675.83	1097.71
676.17	1094.20
676.51	1103.33
676.85	1093.97
677.19	1088.35
677.53	1083.90
677.87	1087.88
678.21	1085.77
678.55	1081.56
678.89	1087.65
679.23	1093.73
679.57	1092.56
679.90	1089.52
680.24	1085.07
680.58	1083.67
680.92	1078.75
681.26	1081.80
681.60	1078.52
681.94	1077.11
682.28	1075.24
682.62	1077.11
682.96	1069.62
683.29	1069.39
683.63	1072.20
683.97	1074.54
684.31	1078.28
684.65	1080.39
684.99	1083.67
685.33	1083.90
685.67	1091.86
686.00	1090.69
686.34	1100.75
686.68	1095.37
687.02	1098.65
687.36	1088.35
687.70	1086.71
688.03	1085.31
688.37	1086.48
688.71	1076.88
689.05	1072.90
689.39	1077.11
689.72	1067.99
690.06	1070.33
690.40	1086.48
690.74	1084.84
691.08	1073.84
691.41	1081.56
691.75	1072.43
692.09	1065.41
692.43	1069.86
692.76	1073.84
693.10	1070.09
693.44	1081.56
693.78	1077.35
694.11	1074.31
694.45	1073.84
694.79	1073.14
695.13	1066.35
695.46	1064.94
695.80	1070.09
696.14	1068.22
696.48	1066.82
696.81	1064.24
697.15	1070.80
697.49	1070.80
697.82	1070.56
698.16	1069.62
698.50	1079.69
698.83	1075.94
699.17	1076.65
699.51	1090.22
699.84	1079.46
700.18	1079.46
700.52	1087.41
700.85	1083.67
701.19	1071.03
701.53	1076.41
701.86	1071.26
702.20	1067.05
702.54	1070.09
702.87	1075.71
703.21	1071.97
703.55	1059.56
703.88	1063.07
704.22	1056.05
704.55	1059.09
704.89	1060.50
705.23	1080.39
705.56	1078.75
705.90	1087.65
706.23	1080.16
706.57	1094.90
706.91	1088.12
707.24	1083.43
707.58	1085.54
707.91	1082.73
708.25	1064.01
708.58	1063.31
708.92	1069.86
709.26	1070.56
709.59	1075.94
709.93	1087.88
710.26	1085.31
710.60	1078.99
710.93	1073.14
711.27	1071.03
711.60	1071.73
711.94	1067.99
712.27	1068.69
712.61	1072.90
712.94	1074.31
713.28	1072.90
713.61	1079.69
713.95	1076.41
714.28	1079.22
714.62	1077.58
714.95	1073.84
715.29	1069.62
715.62	1068.69
715.96	1068.22
716.29	1064.71
716.63	1072.90
716.96	1079.46
717.29	1090.22
717.63	1086.94
717.96	1085.07
718.30	1078.75
718.63	1083.20
718.97	1082.03
719.30	1077.58
719.63	1079.46
719.97	1084.84
720.30	1081.80
720.64	1077.58
720.97	1079.22
721.30	1085.07
721.64	1075.48
721.97	1078.75
722.31	1083.90
722.64	1082.03
722.97	1088.58
723.31	1095.14
723.64	1088.82
723.97	1083.43
724.31	1084.14
724.64	1086.94
724.98	1091.63
725.31	1096.78
725.64	1098.65
725.98	1104.73
726.31	1091.39
726.64	1094.43
726.97	1090.69
727.31	1087.41
727.64	1089.29
727.97	1097.01
728.31	1082.03
728.64	1088.82
728.97	1094.90
729.31	1084.37
729.64	1080.63
729.97	1090.46
730.30	1081.09
730.64	1076.41
730.97	1086.24
731.30	1090.46
731.63	1089.52
731.97	1100.52
732.30	1103.33
732.63	1092.80
732.96	1085.31
733.30	1082.50
733.63	1075.24
733.96	1068.92
734.29	1071.97
734.63	1075.48
734.96	1085.31
735.29	1084.84
735.62	1095.60
735.95	1096.78
736.29	1101.22
736.62	1095.60
736.95	1100.99
737.28	1099.58
737.61	1092.80
737.94	1095.60
738.28	1082.97
738.61	1089.05
738.94	1084.37
739.27	1096.78
739.60	1089.05
739.93	1093.50
740.27	1078.75
740.60	1082.03
740.93	1081.80
741.26	1078.05
741.59	1083.20
741.92	1093.26
742.25	1090.69
742.58	1082.73
742.91	1083.20
743.25	1078.05
743.58	1065.88
743.91	1065.65
744.24	1069.16
744.57	1069.86
744.90	1075.24
745.23	1081.56
745.56	1089.29
745.89	1098.18
746.22	1093.03
746.55	1091.16
746.88	1087.65
747.21	1079.69
747.54	1074.07
747.87	1078.75
748.20	1082.97
748.53	1079.92
748.87	1067.99
749.20	1064.94
749.53	1067.05
749.86	1066.11
750.19	1076.18
750.52	1094.67
750.85	1098.18
751.18	1092.09
751.51	1096.07
751.84	1094.20
752.16	1085.77
752.49	1083.90
752.82	1092.09
753.15	1086.48
753.48	1076.65
753.81	1082.50
754.14	1079.92
754.47	1076.65
754.80	1078.05
755.13	1092.33
755.46	1090.22
755.79	1082.97
756.12	1086.48
756.45	1085.54
756.78	1079.46
757.11	1083.43
757.43	1087.65
757.76	1088.58
758.09	1084.37
758.42	1080.16
758.75	1070.33
759.08	1073.37
759.41	1069.39
759.74	1077.35
760.07	1075.01
760.39	1089.29
760.72	1096.07
761.05	1096.31
761.38	1085.31
761.71	1084.37
762.04	1066.58
762.36	1065.41
762.69	1070.80
763.02	1066.11
763.35	1071.26
763.68	1083.20
764.01	1074.07
764.33	1060.96
764.66	1066.11
764.99	1063.54
765.32	1058.39
765.65	1063.54
765.97	1071.50
766.30	1085.77
