SpectraSuite Data File
++++++++++++++++++++++++++++++++++++
Date: Mon Aug 26 10:26:02 PDT 2019
User: corrico
Dark Spectrum Present: No
Reference Spectrum Present: No
Number of Sampled Component Spectra: 1
Spectrometers: USB2+H06089
Integration Time (usec): 10000 (USB2+H06089)
Spectra Averaged: 2 (USB2+H06089)
Boxcar Smoothing: 2 (USB2+H06089)
Correct for Electrical Dark: No (USB2+H06089)
Strobe/Lamp Enabled: No (USB2+H06089)
Correct for Detector Non-linearity: No (USB2+H06089)
Correct for Stray Light: No (USB2+H06089)
Number of Pixels in Processed Spectrum: 2048
>>>>>Begin Processed Spectral Data<<<<<
339.70	1060.26
340.07	1060.26
340.45	1010.18
340.82	982.09
341.19	958.92
341.57	932.70
341.94	923.11
342.31	915.85
342.69	907.43
343.06	893.38
343.43	897.36
343.81	899.00
344.18	899.47
344.55	905.79
344.93	918.66
345.30	921.47
345.67	943.24
346.04	951.90
346.42	954.94
346.79	953.07
347.16	955.41
347.54	950.73
347.91	958.45
348.28	978.11
348.65	990.75
349.03	1000.81
349.40	1009.71
349.77	1015.09
350.14	1018.37
350.52	1031.01
350.89	1040.13
351.26	1043.18
351.63	1050.43
352.01	1051.60
352.38	1051.60
352.75	1046.69
353.12	1051.84
353.50	1066.58
353.87	1079.46
354.24	1088.82
354.61	1103.09
354.98	1107.07
355.36	1097.95
355.73	1093.26
356.10	1086.01
356.47	1075.71
356.84	1072.20
357.22	1071.03
357.59	1071.50
357.96	1069.86
358.33	1072.20
358.70	1077.58
359.08	1071.03
359.45	1074.31
359.82	1078.99
360.19	1071.97
360.56	1073.37
360.94	1074.07
361.31	1064.01
361.68	1069.16
362.05	1072.67
362.42	1066.35
362.79	1079.46
363.16	1089.05
363.54	1082.97
363.91	1087.41
364.28	1084.37
364.65	1072.67
365.02	1066.35
365.39	1063.07
365.76	1062.37
366.14	1067.05
366.51	1065.65
366.88	1064.71
367.25	1067.99
367.62	1062.84
367.99	1065.18
368.36	1078.75
368.73	1074.31
369.10	1073.14
369.48	1080.39
369.85	1082.97
370.22	1077.35
370.59	1088.82
370.96	1095.84
371.33	1092.09
371.70	1094.90
372.07	1090.22
372.44	1080.63
372.81	1070.09
373.18	1069.86
373.55	1060.96
373.93	1058.62
374.30	1062.60
374.67	1063.07
375.04	1065.41
375.41	1072.67
375.78	1081.56
376.15	1082.26
376.52	1083.43
376.89	1078.52
377.26	1074.07
377.63	1061.90
378.00	1068.22
378.37	1073.14
378.74	1074.77
379.11	1068.45
379.48	1076.88
379.85	1059.09
380.22	1063.77
380.59	1071.97
380.96	1073.14
381.33	1069.86
381.70	1088.35
382.07	1084.84
382.44	1082.50
382.81	1087.88
383.18	1083.67
383.55	1079.22
383.92	1072.90
384.29	1066.11
384.66	1063.54
385.03	1061.20
385.40	1056.05
385.77	1049.96
386.14	1052.77
386.51	1052.54
386.88	1064.01
387.25	1065.18
387.62	1074.77
387.99	1077.35
388.36	1080.63
388.73	1082.73
389.10	1080.86
389.46	1074.77
389.83	1072.20
390.20	1066.11
390.57	1072.90
390.94	1072.90
391.31	1084.37
391.68	1072.20
392.05	1078.05
392.42	1075.01
392.79	1074.31
393.16	1065.65
393.53	1080.86
393.89	1073.37
394.26	1062.37
394.63	1060.96
395.00	1063.54
395.37	1059.56
395.74	1066.35
396.11	1072.90
396.48	1079.92
396.84	1085.77
397.21	1097.71
397.58	1095.84
397.95	1093.03
398.32	1094.90
398.69	1092.33
399.06	1086.01
399.42	1086.71
399.79	1090.46
400.16	1086.94
400.53	1083.67
400.90	1075.01
401.27	1065.88
401.64	1068.45
402.00	1059.79
402.37	1062.60
402.74	1073.14
403.11	1074.31
403.48	1068.69
403.84	1079.22
404.21	1072.67
404.58	1061.90
404.95	1072.90
405.32	1074.07
405.68	1074.07
406.05	1072.20
406.42	1073.84
406.79	1066.82
407.16	1057.69
407.52	1062.37
407.89	1069.86
408.26	1073.60
408.63	1072.20
408.99	1084.84
409.36	1084.60
409.73	1085.07
410.10	1077.82
410.47	1091.39
410.83	1097.48
411.20	1089.99
411.57	1096.07
411.94	1100.05
412.30	1102.39
412.67	1092.80
413.04	1089.52
413.40	1086.24
413.77	1091.39
414.14	1081.56
414.51	1078.52
414.87	1081.80
415.24	1075.94
415.61	1073.84
415.97	1074.31
416.34	1074.07
416.71	1082.03
417.08	1088.82
417.44	1092.80
417.81	1092.09
418.18	1090.46
418.54	1090.69
418.91	1079.46
419.28	1076.88
419.64	1071.03
420.01	1081.80
420.38	1076.88
420.74	1089.29
421.11	1089.99
421.48	1090.69
421.84	1082.97
422.21	1088.58
422.58	1086.24
422.94	1079.46
423.31	1081.80
423.68	1084.37
424.04	1080.39
424.41	1079.46
424.77	1078.75
425.14	1078.05
425.51	1076.88
425.87	1075.01
426.24	1076.41
426.61	1083.90
426.97	1088.82
427.34	1091.16
427.70	1084.37
428.07	1080.16
428.44	1076.88
428.80	1075.94
429.17	1075.94
429.53	1076.65
429.90	1070.33
430.27	1078.05
430.63	1086.01
431.00	1084.84
431.36	1091.39
431.73	1097.48
432.09	1082.03
432.46	1072.90
432.83	1074.07
433.19	1073.37
433.56	1075.48
433.92	1082.50
434.29	1074.77
434.65	1065.18
435.02	1063.07
435.38	1065.88
435.75	1062.14
436.11	1069.39
436.48	1082.97
436.84	1082.73
437.21	1080.63
437.57	1087.18
437.94	1089.29
438.30	1085.77
438.67	1085.07
439.03	1083.20
439.40	1086.24
439.76	1091.39
440.13	1089.29
440.49	1089.99
440.86	1094.67
441.22	1096.78
441.59	1094.43
441.95	1090.22
442.32	1096.78
442.68	1085.31
443.05	1074.77
443.41	1074.31
443.78	1083.90
444.14	1071.03
444.51	1077.35
444.87	1082.26
445.24	1082.97
445.60	1070.80
445.96	1070.56
446.33	1067.52
446.69	1064.24
447.06	1066.82
447.42	1066.58
447.79	1075.01
448.15	1074.07
448.51	1075.24
448.88	1069.39
449.24	1086.71
449.61	1092.33
449.97	1092.09
450.33	1091.86
450.70	1088.12
451.06	1070.56
451.43	1060.26
451.79	1071.03
452.15	1072.20
452.52	1076.41
452.88	1075.71
453.24	1075.71
453.61	1062.14
453.97	1063.54
454.34	1065.41
454.70	1075.48
455.06	1078.75
455.43	1080.63
455.79	1082.97
456.15	1073.37
456.52	1067.28
456.88	1064.71
457.24	1069.86
457.61	1061.67
457.97	1072.43
458.33	1075.01
458.70	1080.86
459.06	1081.33
459.42	1090.69
459.79	1091.16
460.15	1101.69
460.51	1103.33
460.88	1106.84
461.24	1106.61
461.60	1108.01
461.96	1097.71
462.33	1097.01
462.69	1090.46
463.05	1096.31
463.42	1093.73
463.78	1091.39
464.14	1104.03
464.50	1107.78
464.87	1100.99
465.23	1098.88
465.59	1098.65
465.95	1089.75
466.32	1092.56
466.68	1090.46
467.04	1091.63
467.40	1090.46
467.77	1090.69
468.13	1084.84
468.49	1081.09
468.85	1078.52
469.22	1083.20
469.58	1067.28
469.94	1068.69
470.30	1067.52
470.66	1072.20
471.03	1071.50
471.39	1077.35
471.75	1071.50
472.11	1066.58
472.47	1063.07
472.84	1065.41
473.20	1062.84
473.56	1059.33
473.92	1077.58
474.28	1075.94
474.65	1064.71
475.01	1073.14
475.37	1077.82
475.73	1060.73
476.09	1063.07
476.45	1064.24
476.81	1057.92
477.18	1057.92
477.54	1069.62
477.90	1070.09
478.26	1074.54
478.62	1077.35
478.98	1078.99
479.34	1081.09
479.71	1091.16
480.07	1086.48
480.43	1082.26
480.79	1084.14
481.15	1081.56
481.51	1075.94
481.87	1094.67
482.23	1103.33
482.59	1099.82
482.96	1100.75
483.32	1092.09
483.68	1085.31
484.04	1084.84
484.40	1099.12
484.76	1103.80
485.12	1107.07
485.48	1097.71
485.84	1098.65
486.20	1090.69
486.56	1082.50
486.92	1082.50
487.28	1090.92
487.64	1082.26
488.00	1083.43
488.37	1079.46
488.73	1084.84
489.09	1081.33
489.45	1090.92
489.81	1087.88
490.17	1088.35
490.53	1088.35
490.89	1086.48
491.25	1082.26
491.61	1086.01
491.97	1081.09
492.33	1079.92
492.69	1079.92
493.05	1075.01
493.41	1070.09
493.77	1077.35
494.13	1063.07
494.49	1058.39
494.85	1064.24
495.21	1069.16
495.57	1074.07
495.93	1082.73
496.29	1093.97
496.64	1090.22
497.00	1083.90
497.36	1082.03
497.72	1085.77
498.08	1071.50
498.44	1077.82
498.80	1087.18
499.16	1086.24
499.52	1077.82
499.88	1089.05
500.24	1079.46
500.60	1065.18
500.96	1052.54
501.32	1053.71
501.68	1061.43
502.03	1065.88
502.39	1058.86
502.75	1069.16
503.11	1073.37
503.47	1060.26
503.83	1060.26
504.19	1074.07
504.55	1068.69
504.91	1074.07
505.26	1078.99
505.62	1082.73
505.98	1082.50
506.34	1079.46
506.70	1078.75
507.06	1085.07
507.42	1075.01
507.78	1082.97
508.13	1093.03
508.49	1090.22
508.85	1087.65
509.21	1089.52
509.57	1085.31
509.93	1087.88
510.28	1093.26
510.64	1082.97
511.00	1089.99
511.36	1091.39
511.72	1094.43
512.07	1084.37
512.43	1098.65
512.79	1104.50
513.15	1107.31
513.51	1100.52
513.86	1105.44
514.22	1099.82
514.58	1088.12
514.94	1082.50
515.30	1085.07
515.65	1085.77
516.01	1082.26
516.37	1089.99
516.73	1086.94
517.08	1081.33
517.44	1070.09
517.80	1065.41
518.16	1068.69
518.51	1059.79
518.87	1059.09
519.23	1070.80
519.59	1076.18
519.94	1064.01
520.30	1079.22
520.66	1086.01
521.01	1091.86
521.37	1092.56
521.73	1100.99
522.09	1105.67
522.44	1108.48
522.80	1100.05
523.16	1109.65
523.51	1113.86
523.87	1112.46
524.23	1105.67
524.58	1119.71
524.94	1109.88
525.30	1096.54
525.65	1087.41
526.01	1094.43
526.37	1082.97
526.72	1082.97
527.08	1086.24
527.44	1079.69
527.79	1070.80
528.15	1079.22
528.51	1076.65
528.86	1077.35
529.22	1076.41
529.58	1084.37
529.93	1071.73
530.29	1070.80
530.65	1070.09
531.00	1076.88
531.36	1071.03
531.71	1083.43
532.07	1098.18
532.43	1110.12
532.78	1113.39
533.14	1115.97
533.49	1105.20
533.85	1097.95
534.21	1091.86
534.56	1097.48
534.92	1091.39
535.27	1090.69
535.63	1079.92
535.98	1073.84
536.34	1071.50
536.69	1071.26
537.05	1079.69
537.41	1087.88
537.76	1085.54
538.12	1083.90
538.47	1097.24
538.83	1084.14
539.18	1082.03
539.54	1079.46
539.89	1070.09
540.25	1069.62
540.60	1078.28
540.96	1084.14
541.31	1096.31
541.67	1094.20
542.02	1092.80
542.38	1085.07
542.73	1089.29
543.09	1083.43
543.44	1096.07
543.80	1088.82
544.15	1096.07
544.51	1087.88
544.86	1092.80
545.22	1084.84
545.57	1083.67
545.93	1076.88
546.28	1071.73
546.64	1066.11
546.99	1064.94
547.35	1071.03
547.70	1067.99
548.05	1075.94
548.41	1087.41
548.76	1093.26
549.12	1079.92
549.47	1084.84
549.83	1083.20
550.18	1071.97
550.53	1081.33
550.89	1090.46
551.24	1096.07
551.60	1087.41
551.95	1086.01
552.30	1072.20
552.66	1066.58
553.01	1061.67
553.37	1070.09
553.72	1080.86
554.07	1090.46
554.43	1095.84
554.78	1094.20
555.13	1090.69
555.49	1089.52
555.84	1094.90
556.19	1095.14
556.55	1099.82
556.90	1100.29
557.26	1089.29
557.61	1083.67
557.96	1088.12
558.32	1081.33
558.67	1080.86
559.02	1085.31
559.37	1075.94
559.73	1065.88
560.08	1073.60
560.43	1080.16
560.79	1082.73
561.14	1086.01
561.49	1097.71
561.85	1101.22
562.20	1100.99
562.55	1098.88
562.90	1096.31
563.26	1085.77
563.61	1082.73
563.96	1079.92
564.32	1078.05
564.67	1087.18
565.02	1102.86
565.37	1098.88
565.73	1094.90
566.08	1099.12
566.43	1087.88
566.78	1087.18
567.14	1086.71
567.49	1096.54
567.84	1094.67
568.19	1097.95
568.54	1087.41
568.90	1082.03
569.25	1091.63
569.60	1096.07
569.95	1102.39
570.31	1114.56
570.66	1127.67
571.01	1104.73
571.36	1097.24
571.71	1089.29
572.06	1074.77
572.42	1064.24
572.77	1068.22
573.12	1071.73
573.47	1083.67
573.82	1093.26
574.18	1095.84
574.53	1099.58
574.88	1110.35
575.23	1099.82
575.58	1095.14
575.93	1098.18
576.28	1094.67
576.64	1080.16
576.99	1094.67
577.34	1098.65
577.69	1103.09
578.04	1112.69
578.39	1116.90
578.74	1107.31
579.09	1096.54
579.44	1084.37
579.80	1077.58
580.15	1075.71
580.50	1080.63
580.85	1090.46
581.20	1094.90
581.55	1095.84
581.90	1091.63
582.25	1086.94
582.60	1078.28
582.95	1081.56
583.30	1066.82
583.65	1071.73
584.00	1072.20
584.35	1075.94
584.71	1079.92
585.06	1089.52
585.41	1089.75
585.76	1081.09
586.11	1079.22
586.46	1070.56
586.81	1077.82
587.16	1085.07
587.51	1089.29
587.86	1091.16
588.21	1105.67
588.56	1091.39
588.91	1083.43
589.26	1082.26
589.61	1082.26
589.96	1074.54
590.31	1081.80
590.66	1081.09
591.01	1084.37
591.36	1085.54
591.71	1074.54
592.06	1077.35
592.41	1081.09
592.76	1082.97
593.10	1084.60
593.45	1085.07
593.80	1082.26
594.15	1077.35
594.50	1074.07
594.85	1079.46
595.20	1091.63
595.55	1090.46
595.90	1091.86
596.25	1088.58
596.60	1083.20
596.95	1073.84
597.30	1079.46
597.64	1129.78
597.99	1133.99
598.34	1135.63
598.69	1137.50
599.04	1133.52
599.39	1078.28
599.74	1072.67
600.09	1071.73
600.44	1081.09
600.78	1086.94
601.13	1087.65
601.48	1088.58
601.83	1092.56
602.18	1081.09
602.53	1080.16
602.88	1085.31
603.22	1091.63
603.57	1085.77
603.92	1091.39
604.27	1087.41
604.62	1083.43
604.97	1074.77
605.31	1069.86
605.66	1069.16
606.01	1067.75
606.36	1075.71
606.71	1086.24
607.05	1087.88
607.40	1089.99
607.75	1090.92
608.10	1086.01
608.44	1084.14
608.79	1086.24
609.14	1084.60
609.49	1076.41
609.84	1072.90
610.18	1071.03
610.53	1067.75
610.88	1070.33
611.23	1088.82
611.57	1093.73
611.92	1099.12
612.27	1107.78
612.62	1106.84
612.96	1098.41
613.31	1099.82
613.66	1095.60
614.00	1082.73
614.35	1075.94
614.70	1080.39
615.05	1079.92
615.39	1078.99
615.74	1088.58
616.09	1096.07
616.43	1085.07
616.78	1074.54
617.13	1081.56
617.47	1077.58
617.82	1067.75
618.17	1069.16
618.51	1082.97
618.86	1080.39
619.21	1081.56
619.55	1081.80
619.90	1087.41
620.25	1087.18
620.59	1075.24
620.94	1088.35
621.29	1095.84
621.63	1095.60
621.98	1094.43
622.32	1102.63
622.67	1088.58
623.02	1085.31
623.36	1085.54
623.71	1073.60
624.05	1070.33
624.40	1065.88
624.75	1068.22
625.09	1068.45
625.44	1071.26
625.78	1073.60
626.13	1080.16
626.48	1077.82
626.82	1072.43
627.17	1073.37
627.51	1082.50
627.86	1083.90
628.20	1080.63
628.55	1086.71
628.89	1093.97
629.24	1083.43
629.58	1080.39
629.93	1090.92
630.28	1094.67
630.62	1094.20
630.97	1094.43
631.31	1092.80
631.66	1085.77
632.00	1084.14
632.35	1088.12
632.69	1086.71
633.04	1093.73
633.38	1092.80
633.73	1086.24
634.07	1083.43
634.42	1084.37
634.76	1076.41
635.11	1081.80
635.45	1083.20
635.79	1087.18
636.14	1081.56
636.48	1083.43
636.83	1080.16
637.17	1068.92
637.52	1061.90
637.86	1063.77
638.21	1064.01
638.55	1073.37
638.89	1078.05
639.24	1075.94
639.58	1071.50
639.93	1080.63
640.27	1067.52
640.61	1076.65
640.96	1084.60
641.30	1086.48
641.65	1075.48
641.99	1080.86
642.33	1074.77
642.68	1066.58
643.02	1078.75
643.37	1089.52
643.71	1082.50
644.05	1083.67
644.40	1082.97
644.74	1085.07
645.08	1077.11
645.43	1079.22
645.77	1088.82
646.11	1095.14
646.46	1093.50
646.80	1097.71
647.14	1101.92
647.49	1096.78
647.83	1101.69
648.17	1096.54
648.52	1090.22
648.86	1079.92
649.20	1085.07
649.55	1082.50
649.89	1089.05
650.23	1090.46
650.57	1090.69
650.92	1083.43
651.26	1078.75
651.60	1073.60
651.95	1075.71
652.29	1096.78
652.63	1100.75
652.97	1108.01
653.32	1103.56
653.66	1093.26
654.00	1075.48
654.34	1063.54
654.69	1055.11
655.03	1061.90
655.37	1064.71
655.71	1072.43
656.05	1075.24
656.40	1070.80
656.74	1062.60
657.08	1062.14
657.42	1062.84
657.76	1062.60
658.11	1071.97
658.45	1075.01
658.79	1083.90
659.13	1078.52
659.47	1082.26
659.82	1084.37
660.16	1089.99
660.50	1085.07
660.84	1090.92
661.18	1099.35
661.52	1094.43
661.87	1092.56
662.21	1091.86
662.55	1089.52
662.89	1081.33
663.23	1085.77
663.57	1087.18
663.91	1094.67
664.25	1097.24
664.60	1093.97
664.94	1081.56
665.28	1075.94
665.62	1072.43
665.96	1066.58
666.30	1077.58
666.64	1077.58
666.98	1080.39
667.32	1088.82
667.66	1089.29
668.01	1083.43
668.35	1090.69
668.69	1085.31
669.03	1072.90
669.37	1069.86
669.71	1075.48
670.05	1068.45
670.39	1065.41
670.73	1068.69
671.07	1076.41
671.41	1069.16
671.75	1078.28
672.09	1083.43
672.43	1079.22
672.77	1078.99
673.11	1073.14
673.45	1060.03
673.79	1055.35
674.13	1050.67
674.47	1047.16
674.81	1049.50
675.15	1056.75
675.49	1069.16
675.83	1090.69
676.17	1091.39
676.51	1098.18
676.85	1094.90
677.19	1087.18
677.53	1079.92
677.87	1083.67
678.21	1078.75
678.55	1080.16
678.89	1086.71
679.23	1081.80
679.57	1071.73
679.90	1080.16
680.24	1078.52
680.58	1073.60
680.92	1079.46
681.26	1082.50
681.60	1067.05
681.94	1082.50
682.28	1078.99
682.62	1071.03
682.96	1075.71
683.29	1086.24
683.63	1081.33
683.97	1084.14
684.31	1095.37
684.65	1098.88
684.99	1099.12
685.33	1093.73
685.67	1091.16
686.00	1078.52
686.34	1074.54
686.68	1077.11
687.02	1076.88
687.36	1088.58
687.70	1085.54
688.03	1089.29
688.37	1076.88
688.71	1075.24
689.05	1070.80
689.39	1075.48
689.72	1072.90
690.06	1082.50
690.40	1092.33
690.74	1089.99
691.08	1084.84
691.41	1081.33
691.75	1073.37
692.09	1064.24
692.43	1067.75
692.76	1075.71
693.10	1075.01
693.44	1087.41
693.78	1086.94
694.11	1078.99
694.45	1078.05
694.79	1071.50
695.13	1063.54
695.46	1066.35
695.80	1076.88
696.14	1078.05
696.48	1099.12
696.81	1108.24
697.15	1113.63
697.49	1099.82
697.82	1099.12
698.16	1088.12
698.50	1076.41
698.83	1079.46
699.17	1087.18
699.51	1085.54
699.84	1081.80
700.18	1081.33
700.52	1064.24
700.85	1065.41
701.19	1072.67
701.53	1067.28
701.86	1071.26
702.20	1082.73
702.54	1086.24
702.87	1081.80
703.21	1090.69
703.55	1095.14
703.88	1092.09
704.22	1081.33
704.55	1075.48
704.89	1074.07
705.23	1075.48
705.56	1083.90
705.90	1095.84
706.23	1099.82
706.57	1098.65
706.91	1098.41
707.24	1082.73
707.58	1078.75
707.91	1085.31
708.25	1084.37
708.58	1076.18
708.92	1077.82
709.26	1080.63
709.59	1066.58
709.93	1056.52
710.26	1059.33
710.60	1069.16
710.93	1058.16
711.27	1055.82
711.60	1078.05
711.94	1081.33
712.27	1071.73
712.61	1072.90
712.94	1077.82
713.28	1069.39
713.61	1061.43
713.95	1062.14
714.28	1060.73
714.62	1066.35
714.95	1068.45
715.29	1075.24
715.62	1079.69
715.96	1089.29
716.29	1079.92
716.63	1082.03
716.96	1082.26
717.29	1082.50
717.63	1085.54
717.96	1096.78
718.30	1094.43
718.63	1093.73
718.97	1084.84
719.30	1077.35
719.63	1076.88
719.97	1072.43
720.30	1073.60
720.64	1084.14
720.97	1086.24
721.30	1081.80
721.64	1086.71
721.97	1085.54
722.31	1079.69
722.64	1069.62
722.97	1065.65
723.31	1057.22
723.64	1047.39
723.97	1044.58
724.31	1052.77
724.64	1061.43
724.98	1065.65
725.31	1061.90
725.64	1070.80
725.98	1077.82
726.31	1075.48
726.64	1071.26
726.97	1088.12
727.31	1082.73
727.64	1074.54
727.97	1065.18
728.31	1070.56
728.64	1071.26
728.97	1065.65
729.31	1067.05
729.64	1069.39
729.97	1070.56
730.30	1057.22
730.64	1069.39
730.97	1069.86
731.30	1076.65
731.63	1082.50
731.97	1097.48
732.30	1096.07
732.63	1090.46
732.96	1092.09
733.30	1096.78
733.63	1088.35
733.96	1087.65
734.29	1101.69
734.63	1099.58
734.96	1096.07
735.29	1100.52
735.62	1096.54
735.95	1091.16
736.29	1088.82
736.62	1077.11
736.95	1072.67
737.28	1078.05
737.61	1081.09
737.94	1092.56
738.28	1095.60
738.61	1090.92
738.94	1088.82
739.27	1079.22
739.60	1069.62
739.93	1071.50
740.27	1074.54
740.60	1071.50
740.93	1078.52
741.26	1076.18
741.59	1079.22
741.92	1087.18
742.25	1089.75
742.58	1087.65
742.91	1088.58
743.25	1079.46
743.58	1073.37
743.91	1072.67
744.24	1067.99
744.57	1065.65
744.90	1074.31
745.23	1081.56
745.56	1086.71
745.89	1089.75
746.22	1090.46
746.55	1089.29
746.88	1092.33
747.21	1087.18
747.54	1091.16
747.87	1091.16
748.20	1089.29
748.53	1073.60
748.87	1077.58
749.20	1069.62
749.53	1063.54
749.86	1077.58
750.19	1095.60
750.52	1097.71
750.85	1102.86
751.18	1117.37
751.51	1106.37
751.84	1098.18
752.16	1099.12
752.49	1103.09
752.82	1093.73
753.15	1082.97
753.48	1088.58
753.81	1075.71
754.14	1073.60
754.47	1084.14
754.80	1092.80
755.13	1083.67
755.46	1088.12
755.79	1081.09
756.12	1078.28
756.45	1073.60
756.78	1077.58
757.11	1079.22
757.43	1082.03
757.76	1078.99
758.09	1083.20
758.42	1077.11
758.75	1072.43
759.08	1072.43
759.41	1068.45
759.74	1060.96
760.07	1067.75
760.39	1074.31
760.72	1075.48
761.05	1073.14
761.38	1079.92
761.71	1081.33
762.04	1080.39
762.36	1083.20
762.69	1091.86
763.02	1095.37
763.35	1095.37
763.68	1090.46
764.01	1081.33
764.33	1081.56
764.66	1078.75
764.99	1076.18
765.32	1082.50
765.65	1088.82
765.97	1086.01
766.30	1079.22
