SpectraSuite Data File
++++++++++++++++++++++++++++++++++++
Date: Mon Aug 26 10:26:05 PDT 2019
User: corrico
Dark Spectrum Present: No
Reference Spectrum Present: No
Number of Sampled Component Spectra: 1
Spectrometers: USB2+H06089
Integration Time (usec): 10000 (USB2+H06089)
Spectra Averaged: 20 (USB2+H06089)
Boxcar Smoothing: 2 (USB2+H06089)
Correct for Electrical Dark: No (USB2+H06089)
Strobe/Lamp Enabled: No (USB2+H06089)
Correct for Detector Non-linearity: No (USB2+H06089)
Correct for Stray Light: No (USB2+H06089)
Number of Pixels in Processed Spectrum: 2048
>>>>>Begin Processed Spectral Data<<<<<
339.70	1017.31
340.07	1017.31
340.45	988.76
340.82	969.29
341.19	949.02
341.57	925.59
341.94	915.06
342.31	906.75
342.69	902.51
343.06	899.66
343.43	896.92
343.81	897.36
344.18	899.68
344.55	902.74
344.93	906.68
345.30	915.41
345.67	922.80
346.04	930.67
346.42	937.20
346.79	946.86
347.16	954.73
347.54	964.11
347.91	972.59
348.28	983.14
348.65	989.88
349.03	998.07
349.40	1006.97
349.77	1015.23
350.14	1024.83
350.52	1033.84
350.89	1041.70
351.26	1044.67
351.63	1049.43
352.01	1051.06
352.38	1055.53
352.75	1059.89
353.12	1063.56
353.50	1065.95
353.87	1068.13
354.24	1072.78
354.61	1073.53
354.98	1075.83
355.36	1078.38
355.73	1079.62
356.10	1078.52
356.47	1078.99
356.84	1080.44
357.22	1081.35
357.59	1082.36
357.96	1080.30
358.33	1081.19
358.70	1077.82
359.08	1077.96
359.45	1078.26
359.82	1079.71
360.19	1079.41
360.56	1081.47
360.94	1078.61
361.31	1077.37
361.68	1075.01
362.05	1075.43
362.42	1075.71
362.79	1075.69
363.16	1075.52
363.54	1075.62
363.91	1072.46
364.28	1065.46
364.65	1065.76
365.02	1067.10
365.39	1067.17
365.76	1067.14
366.14	1070.77
366.51	1069.72
366.88	1066.11
367.25	1065.11
367.62	1063.91
367.99	1065.69
368.36	1066.42
368.73	1067.96
369.10	1068.34
369.48	1071.26
369.85	1071.03
370.22	1070.89
370.59	1069.41
370.96	1067.47
371.33	1065.51
371.70	1064.41
372.07	1065.27
372.44	1067.10
372.81	1069.46
373.18	1071.87
373.55	1072.95
373.93	1075.31
374.30	1078.50
374.67	1078.43
375.04	1076.83
375.41	1074.40
375.78	1071.54
376.15	1066.56
376.52	1060.92
376.89	1061.53
377.26	1062.53
377.63	1061.67
378.00	1064.26
378.37	1069.98
378.74	1066.49
379.11	1064.66
379.48	1066.86
379.85	1067.33
380.22	1067.31
380.59	1066.51
380.96	1071.99
381.33	1069.72
381.70	1068.29
382.07	1067.35
382.44	1074.07
382.81	1071.10
383.18	1072.95
383.55	1071.61
383.92	1069.91
384.29	1069.46
384.66	1071.24
385.03	1071.01
385.40	1071.36
385.77	1072.81
386.14	1068.57
386.51	1069.65
386.88	1069.79
387.25	1071.85
387.62	1073.56
387.99	1073.91
388.36	1070.80
388.73	1070.28
389.10	1070.56
389.46	1070.16
389.83	1073.98
390.20	1077.00
390.57	1077.89
390.94	1074.07
391.31	1073.32
391.68	1071.15
392.05	1068.31
392.42	1069.13
392.79	1072.39
393.16	1071.08
393.53	1071.66
393.89	1073.86
394.26	1072.36
394.63	1072.13
395.00	1073.18
395.37	1071.82
395.74	1068.81
396.11	1070.14
396.48	1073.30
396.84	1074.68
397.21	1075.71
397.58	1075.64
397.95	1072.57
398.32	1069.98
398.69	1072.13
399.06	1073.30
399.42	1076.27
399.79	1080.53
400.16	1080.04
400.53	1078.05
400.90	1078.28
401.27	1078.94
401.64	1076.74
402.00	1076.97
402.37	1077.33
402.74	1076.79
403.11	1074.73
403.48	1074.68
403.84	1075.52
404.21	1074.19
404.58	1073.81
404.95	1076.93
405.32	1075.22
405.68	1074.80
406.05	1075.31
406.42	1075.13
406.79	1069.86
407.16	1069.02
407.52	1067.05
407.89	1069.04
408.26	1064.78
408.63	1070.56
408.99	1073.79
409.36	1075.92
409.73	1075.22
410.10	1079.31
410.47	1074.87
410.83	1074.33
411.20	1075.03
411.57	1074.70
411.94	1078.92
412.30	1082.64
412.67	1083.93
413.04	1081.96
413.40	1079.90
413.77	1075.78
414.14	1074.31
414.51	1072.25
414.87	1069.65
415.24	1069.67
415.61	1071.26
415.97	1071.05
416.34	1075.83
416.71	1080.72
417.08	1081.16
417.44	1078.96
417.81	1078.00
418.18	1072.43
418.54	1068.17
418.91	1066.11
419.28	1066.56
419.64	1066.77
420.01	1066.07
420.38	1069.72
420.74	1073.88
421.11	1074.00
421.48	1076.72
421.84	1078.12
422.21	1076.81
422.58	1075.22
422.94	1074.70
423.31	1070.84
423.68	1069.27
424.04	1069.48
424.41	1069.44
424.77	1071.33
425.14	1077.09
425.51	1081.16
425.87	1081.56
426.24	1085.19
426.61	1085.99
426.97	1083.88
427.34	1082.61
427.70	1083.71
428.07	1080.95
428.44	1079.27
428.80	1077.11
429.17	1076.30
429.53	1076.06
429.90	1075.92
430.27	1077.70
430.63	1079.57
431.00	1080.72
431.36	1079.22
431.73	1076.86
432.09	1075.80
432.46	1076.65
432.83	1074.54
433.19	1073.11
433.56	1073.42
433.92	1073.09
434.29	1072.78
434.65	1074.45
435.02	1077.54
435.38	1081.37
435.75	1081.05
436.11	1079.67
436.48	1082.73
436.84	1084.70
437.21	1083.36
437.57	1085.99
437.94	1088.82
438.30	1087.41
438.67	1087.65
439.03	1087.44
439.40	1085.75
439.76	1081.33
440.13	1080.98
440.49	1077.65
440.86	1076.46
441.22	1076.11
441.59	1080.30
441.95	1077.42
442.32	1076.44
442.68	1079.08
443.05	1077.86
443.41	1072.69
443.78	1073.42
444.14	1072.83
444.51	1076.74
444.87	1080.34
445.24	1087.06
445.60	1091.25
445.96	1093.78
446.33	1090.55
446.69	1084.23
447.06	1080.16
447.42	1079.29
447.79	1078.92
448.15	1077.28
448.51	1082.40
448.88	1081.94
449.24	1079.15
449.61	1084.21
449.97	1083.27
450.33	1085.91
450.70	1086.99
451.06	1089.03
451.43	1085.21
451.79	1086.38
452.15	1079.46
452.52	1076.83
452.88	1077.58
453.24	1076.88
453.61	1078.33
453.97	1082.80
454.34	1083.29
454.70	1084.09
455.06	1083.69
455.43	1078.36
455.79	1076.13
456.15	1080.84
456.52	1079.76
456.88	1078.89
457.24	1083.60
457.61	1081.89
457.97	1079.48
458.33	1079.01
458.70	1077.35
459.06	1077.18
459.42	1080.81
459.79	1080.20
460.15	1078.40
460.51	1079.03
460.88	1077.23
461.24	1073.23
461.60	1071.36
461.96	1072.08
462.33	1073.46
462.69	1072.62
463.05	1074.42
463.42	1077.70
463.78	1077.58
464.14	1079.46
464.50	1081.12
464.87	1085.31
465.23	1080.77
465.59	1081.56
465.95	1084.63
466.32	1085.91
466.68	1083.01
467.04	1084.60
467.40	1084.49
467.77	1076.13
468.13	1073.11
468.49	1073.81
468.85	1076.30
469.22	1075.59
469.58	1080.13
469.94	1080.09
470.30	1079.29
470.66	1077.02
471.03	1075.97
471.39	1075.34
471.75	1077.04
472.11	1077.16
472.47	1079.85
472.84	1080.67
473.20	1082.01
473.56	1081.42
473.92	1080.70
474.28	1083.27
474.65	1081.19
475.01	1080.63
475.37	1083.32
475.73	1084.02
476.09	1080.67
476.45	1083.81
476.81	1080.72
477.18	1078.99
477.54	1078.87
477.90	1077.91
478.26	1075.36
478.62	1080.74
478.98	1083.36
479.34	1085.03
479.71	1084.86
480.07	1087.06
480.43	1083.25
480.79	1081.91
481.15	1078.07
481.51	1077.30
481.87	1080.27
482.23	1082.97
482.59	1081.44
482.96	1086.45
483.32	1086.48
483.68	1083.06
484.04	1079.20
484.40	1077.37
484.76	1072.78
485.12	1074.94
485.48	1073.93
485.84	1074.47
486.20	1076.76
486.56	1080.18
486.92	1079.01
487.28	1081.07
487.64	1081.12
488.00	1081.91
488.37	1078.75
488.73	1078.38
489.09	1078.99
489.45	1081.23
489.81	1081.02
490.17	1084.35
490.53	1085.17
490.89	1084.30
491.25	1083.55
491.61	1083.57
491.97	1081.89
492.33	1080.63
492.69	1080.58
493.05	1080.23
493.41	1079.50
493.77	1079.71
494.13	1080.77
494.49	1079.34
494.85	1078.87
495.21	1078.89
495.57	1080.02
495.93	1079.83
496.29	1080.13
496.64	1078.54
497.00	1078.61
497.36	1079.74
497.72	1078.73
498.08	1080.84
498.44	1084.49
498.80	1084.32
499.16	1079.74
499.52	1082.24
499.88	1081.94
500.24	1080.16
500.60	1079.43
500.96	1083.83
501.32	1085.14
501.68	1083.20
502.03	1082.92
502.39	1084.84
502.75	1082.31
503.11	1079.13
503.47	1076.95
503.83	1078.17
504.19	1075.57
504.55	1074.54
504.91	1074.68
505.26	1079.36
505.62	1079.06
505.98	1082.33
506.34	1082.99
506.70	1084.53
507.06	1083.81
507.42	1084.39
507.78	1079.15
508.13	1084.39
508.49	1086.13
508.85	1085.66
509.21	1084.63
509.57	1088.65
509.93	1087.23
510.28	1087.20
510.64	1089.89
511.00	1091.32
511.36	1091.88
511.72	1091.72
512.07	1089.92
512.43	1088.77
512.79	1086.69
513.15	1088.04
513.51	1088.28
513.86	1088.47
514.22	1088.00
514.58	1091.25
514.94	1092.98
515.30	1091.34
515.65	1090.97
516.01	1090.95
516.37	1089.59
516.73	1090.10
517.08	1092.30
517.44	1096.14
517.80	1096.14
518.16	1096.73
518.51	1096.05
518.87	1094.11
519.23	1094.18
519.59	1095.72
519.94	1097.71
520.30	1093.26
520.66	1097.71
521.01	1095.67
521.37	1095.56
521.73	1093.40
522.09	1095.91
522.44	1093.19
522.80	1096.10
523.16	1097.27
523.51	1099.82
523.87	1101.36
524.23	1100.99
524.58	1096.07
524.94	1096.73
525.30	1098.18
525.65	1098.51
526.01	1100.22
526.37	1101.60
526.72	1098.16
527.08	1094.08
527.44	1092.00
527.79	1090.60
528.15	1090.22
528.51	1089.52
528.86	1089.78
529.22	1087.09
529.58	1085.03
529.93	1085.03
530.29	1084.77
530.65	1086.64
531.00	1089.99
531.36	1092.19
531.71	1094.55
532.07	1098.23
532.43	1098.69
532.78	1099.12
533.14	1096.89
533.49	1094.34
533.85	1092.54
534.21	1092.42
534.56	1089.57
534.92	1088.93
535.27	1087.95
535.63	1086.78
535.98	1085.89
536.34	1087.86
536.69	1091.20
537.05	1093.83
537.41	1093.19
537.76	1094.13
538.12	1094.11
538.47	1092.91
538.83	1091.98
539.18	1093.22
539.54	1090.99
539.89	1089.82
540.25	1088.86
540.60	1088.75
540.96	1088.12
541.31	1089.78
541.67	1092.63
542.02	1091.77
542.38	1090.43
542.73	1090.36
543.09	1088.82
543.44	1086.31
543.80	1085.73
544.15	1086.08
544.51	1086.08
544.86	1087.55
545.22	1087.46
545.57	1088.72
545.93	1089.24
546.28	1092.52
546.64	1091.34
546.99	1091.58
547.35	1092.73
547.70	1094.86
548.05	1093.73
548.41	1090.03
548.76	1087.79
549.12	1089.68
549.47	1089.99
549.83	1087.74
550.18	1089.14
550.53	1091.37
550.89	1086.06
551.24	1081.44
551.60	1083.25
551.95	1084.16
552.30	1083.46
552.66	1083.06
553.01	1085.42
553.37	1084.35
553.72	1084.98
554.07	1085.35
554.43	1087.81
554.78	1087.16
555.13	1087.90
555.49	1086.20
555.84	1085.52
556.19	1085.12
556.55	1083.76
556.90	1083.83
557.26	1083.95
557.61	1083.46
557.96	1083.90
558.32	1084.67
558.67	1082.61
559.02	1082.29
559.37	1081.33
559.73	1081.44
560.08	1082.97
560.43	1081.51
560.79	1080.65
561.14	1081.82
561.49	1084.98
561.85	1083.88
562.20	1086.31
562.55	1088.40
562.90	1088.33
563.26	1082.92
563.61	1080.16
563.96	1078.26
564.32	1079.20
564.67	1079.01
565.02	1080.86
565.37	1081.30
565.73	1081.30
566.08	1083.48
566.43	1084.96
566.78	1085.45
567.14	1086.48
567.49	1088.44
567.84	1087.27
568.19	1087.74
568.54	1086.13
568.90	1084.58
569.25	1084.07
569.60	1083.43
569.95	1082.78
570.31	1082.29
570.66	1086.80
571.01	1085.42
571.36	1085.28
571.71	1086.01
572.06	1087.02
572.42	1084.58
572.77	1085.73
573.12	1082.33
573.47	1076.97
573.82	1077.63
574.18	1075.97
574.53	1074.80
574.88	1077.28
575.23	1082.29
575.58	1080.23
575.93	1084.00
576.28	1084.67
576.64	1081.75
576.99	1076.60
577.34	1076.18
577.69	1070.02
578.04	1067.52
578.39	1068.13
578.74	1069.27
579.09	1071.40
579.44	1075.20
579.80	1078.75
580.15	1079.81
580.50	1080.30
580.85	1082.31
581.20	1082.57
581.55	1081.00
581.90	1080.23
582.25	1082.76
582.60	1079.57
582.95	1079.27
583.30	1084.93
583.65	1089.80
584.00	1088.86
584.35	1090.50
584.71	1092.16
585.06	1084.77
585.41	1078.68
585.76	1080.46
586.11	1077.35
586.46	1074.28
586.81	1074.70
587.16	1077.79
587.51	1074.38
587.86	1071.92
588.21	1073.93
588.56	1073.72
588.91	1074.26
589.26	1077.49
589.61	1081.19
589.96	1080.60
590.31	1084.67
590.66	1082.73
591.01	1081.56
591.36	1081.37
591.71	1080.81
592.06	1080.56
592.41	1083.06
592.76	1082.73
593.10	1084.18
593.45	1084.46
593.80	1083.88
594.15	1082.17
594.50	1081.58
594.85	1080.95
595.20	1082.33
595.55	1081.49
595.90	1082.40
596.25	1082.19
596.60	1081.47
596.95	1082.90
597.30	1083.76
597.64	1138.23
597.99	1141.95
598.34	1144.26
598.69	1143.45
599.04	1137.64
599.39	1086.15
599.74	1080.84
600.09	1081.12
600.44	1084.16
600.78	1088.42
601.13	1084.02
601.48	1084.56
601.83	1081.56
602.18	1074.87
602.53	1076.08
602.88	1075.50
603.22	1078.57
603.57	1077.86
603.92	1078.26
604.27	1078.89
604.62	1081.37
604.97	1080.27
605.31	1081.05
605.66	1084.72
606.01	1082.76
606.36	1079.92
606.71	1078.80
607.05	1075.80
607.40	1074.75
607.75	1076.55
608.10	1080.63
608.44	1084.02
608.79	1087.93
609.14	1088.63
609.49	1088.49
609.84	1089.45
610.18	1085.91
610.53	1087.65
610.88	1088.65
611.23	1090.53
611.57	1089.78
611.92	1096.14
612.27	1095.00
612.62	1092.02
612.96	1089.59
613.31	1088.56
613.66	1084.89
614.00	1081.51
614.35	1083.79
614.70	1082.71
615.05	1081.42
615.39	1079.88
615.74	1083.13
616.09	1079.88
616.43	1081.16
616.78	1081.35
617.13	1079.64
617.47	1079.31
617.82	1080.34
618.17	1079.74
618.51	1079.90
618.86	1080.46
619.21	1079.62
619.55	1080.37
619.90	1078.92
620.25	1081.19
620.59	1083.81
620.94	1083.69
621.29	1087.23
621.63	1087.65
621.98	1086.92
622.32	1087.81
622.67	1088.04
623.02	1084.21
623.36	1086.10
623.71	1082.64
624.05	1081.23
624.40	1082.43
624.75	1087.30
625.09	1085.84
625.44	1090.06
625.78	1090.08
626.13	1087.55
626.48	1082.87
626.82	1081.94
627.17	1076.39
627.51	1072.62
627.86	1072.06
628.20	1069.58
628.55	1075.45
628.89	1078.92
629.24	1081.51
629.58	1084.16
629.93	1087.32
630.28	1084.23
630.62	1083.90
630.97	1083.79
631.31	1082.64
631.66	1082.76
632.00	1080.09
632.35	1079.46
632.69	1079.78
633.04	1080.53
633.38	1079.71
633.73	1085.40
634.07	1082.90
634.42	1083.48
634.76	1085.00
635.11	1085.89
635.45	1081.70
635.79	1083.39
636.14	1084.14
636.48	1082.33
636.83	1082.90
637.17	1083.15
637.52	1085.26
637.86	1085.82
638.21	1085.66
638.55	1086.55
638.89	1082.57
639.24	1081.14
639.58	1081.37
639.93	1079.64
640.27	1076.32
640.61	1081.56
640.96	1082.90
641.30	1080.81
641.65	1083.22
641.99	1082.01
642.33	1079.62
642.68	1077.56
643.02	1077.70
643.37	1079.64
643.71	1082.03
644.05	1079.88
644.40	1082.59
644.74	1081.42
645.08	1079.38
645.43	1080.06
645.77	1081.91
646.11	1079.48
646.46	1080.20
646.80	1080.74
647.14	1080.30
647.49	1082.05
647.83	1081.14
648.17	1084.16
648.52	1082.08
648.86	1081.54
649.20	1080.72
649.55	1082.80
649.89	1079.85
650.23	1082.92
650.57	1082.99
650.92	1082.94
651.26	1083.90
651.60	1085.33
651.95	1087.41
652.29	1087.11
652.63	1084.51
652.97	1081.44
653.32	1082.57
653.66	1082.10
654.00	1081.49
654.34	1082.17
654.69	1084.98
655.03	1082.85
655.37	1079.41
655.71	1081.07
656.05	1084.74
656.40	1080.48
656.74	1078.54
657.08	1078.28
657.42	1078.28
657.76	1075.57
658.11	1080.67
658.45	1082.45
658.79	1084.42
659.13	1084.98
659.47	1085.82
659.82	1083.48
660.16	1081.35
660.50	1080.32
660.84	1078.89
661.18	1080.77
661.52	1080.18
661.87	1084.58
662.21	1084.93
662.55	1085.31
662.89	1082.99
663.23	1086.08
663.57	1082.45
663.91	1081.16
664.25	1082.05
664.60	1080.51
664.94	1078.59
665.28	1079.74
665.62	1081.28
665.96	1081.56
666.30	1085.70
666.64	1085.94
666.98	1085.49
667.32	1086.80
667.66	1083.69
668.01	1080.84
668.35	1079.22
668.69	1079.71
669.03	1076.88
669.37	1079.83
669.71	1079.50
670.05	1079.36
670.39	1077.82
670.73	1078.87
671.07	1075.85
671.41	1073.67
671.75	1073.00
672.09	1074.91
672.43	1074.12
672.77	1076.74
673.11	1078.52
673.45	1079.64
673.79	1078.96
674.13	1078.59
674.47	1078.68
674.81	1082.24
675.15	1082.69
675.49	1081.75
675.83	1082.24
676.17	1080.30
676.51	1077.23
676.85	1076.60
677.19	1080.46
677.53	1082.26
677.87	1082.78
678.21	1082.17
678.55	1083.20
678.89	1081.66
679.23	1082.78
679.57	1079.99
679.90	1080.13
680.24	1079.83
680.58	1079.83
680.92	1080.25
681.26	1084.23
681.60	1086.17
681.94	1087.44
682.28	1088.89
682.62	1086.73
682.96	1084.96
683.29	1083.25
683.63	1080.67
683.97	1078.07
684.31	1076.04
684.65	1076.72
684.99	1078.96
685.33	1077.91
685.67	1078.64
686.00	1080.60
686.34	1080.81
686.68	1081.75
687.02	1084.30
687.36	1084.81
687.70	1080.27
688.03	1081.75
688.37	1079.13
688.71	1080.09
689.05	1079.64
689.39	1084.30
689.72	1081.05
690.06	1082.50
690.40	1082.85
690.74	1083.18
691.08	1084.14
691.41	1088.75
691.75	1086.73
692.09	1087.74
692.43	1086.80
692.76	1085.47
693.10	1080.20
693.44	1080.04
693.78	1077.18
694.11	1076.32
694.45	1074.56
694.79	1075.05
695.13	1078.03
695.46	1079.55
695.80	1081.19
696.14	1082.17
696.48	1083.32
696.81	1082.17
697.15	1083.76
697.49	1087.18
697.82	1087.37
698.16	1087.60
698.50	1085.35
698.83	1084.77
699.17	1082.26
699.51	1083.22
699.84	1082.54
700.18	1082.33
700.52	1082.03
700.85	1082.47
701.19	1081.35
701.53	1081.82
701.86	1084.02
702.20	1083.29
702.54	1077.84
702.87	1078.47
703.21	1079.22
703.55	1082.01
703.88	1078.68
704.22	1083.83
704.55	1087.16
704.89	1088.63
705.23	1087.32
705.56	1091.02
705.90	1088.89
706.23	1087.76
706.57	1087.06
706.91	1085.24
707.24	1084.81
707.58	1084.09
707.91	1082.05
708.25	1080.67
708.58	1080.56
708.92	1081.80
709.26	1083.36
709.59	1081.89
709.93	1082.26
710.26	1081.47
710.60	1080.70
710.93	1078.80
711.27	1077.56
711.60	1076.67
711.94	1078.89
712.27	1076.65
712.61	1078.36
712.94	1081.07
713.28	1082.29
713.61	1082.50
713.95	1084.65
714.28	1085.91
714.62	1087.60
714.95	1087.48
715.29	1086.78
715.62	1082.94
715.96	1081.54
716.29	1074.19
716.63	1073.79
716.96	1075.69
717.29	1079.76
717.63	1079.17
717.96	1082.22
718.30	1080.88
718.63	1077.86
718.97	1078.03
719.30	1082.19
719.63	1082.03
719.97	1084.53
720.30	1085.17
720.64	1084.53
720.97	1079.67
721.30	1083.90
721.64	1085.61
721.97	1084.44
722.31	1082.71
722.64	1080.37
722.97	1079.15
723.31	1076.79
723.64	1077.51
723.97	1077.11
724.31	1081.35
724.64	1082.50
724.98	1083.32
725.31	1083.18
725.64	1082.99
725.98	1083.55
726.31	1081.14
726.64	1079.85
726.97	1078.78
727.31	1079.17
727.64	1075.64
727.97	1074.80
728.31	1075.94
728.64	1076.83
728.97	1077.37
729.31	1080.18
729.64	1082.36
729.97	1079.81
730.30	1077.37
730.64	1078.59
730.97	1077.79
731.30	1079.92
731.63	1083.15
731.97	1085.82
732.30	1085.45
732.63	1086.31
732.96	1081.98
733.30	1080.32
733.63	1080.34
733.96	1080.20
734.29	1076.97
734.63	1074.40
734.96	1073.35
735.29	1072.29
735.62	1072.13
735.95	1076.18
736.29	1079.67
736.62	1081.66
736.95	1082.17
737.28	1081.84
737.61	1079.67
737.94	1079.48
738.28	1078.07
738.61	1075.71
738.94	1073.95
739.27	1074.07
739.60	1073.63
739.93	1075.10
740.27	1076.27
740.60	1080.13
740.93	1080.09
741.26	1080.70
741.59	1081.91
741.92	1085.42
742.25	1083.69
742.58	1081.84
742.91	1082.73
743.25	1081.68
743.58	1079.46
743.91	1078.45
744.24	1080.16
744.57	1078.00
744.90	1079.55
745.23	1081.70
745.56	1083.64
745.89	1084.98
746.22	1086.52
746.55	1080.46
746.88	1077.51
747.21	1075.24
747.54	1072.01
747.87	1068.97
748.20	1073.30
748.53	1075.10
748.87	1074.87
749.20	1076.81
749.53	1082.29
749.86	1081.77
750.19	1081.33
750.52	1087.09
750.85	1087.34
751.18	1087.27
751.51	1085.87
751.84	1085.05
752.16	1080.51
752.49	1082.33
752.82	1077.40
753.15	1078.12
753.48	1080.04
753.81	1082.71
754.14	1084.18
754.47	1088.49
754.80	1089.89
755.13	1092.47
755.46	1090.92
755.79	1086.87
756.12	1088.30
756.45	1089.92
756.78	1086.73
757.11	1087.32
757.43	1089.31
757.76	1086.24
758.09	1084.07
758.42	1084.39
758.75	1083.71
759.08	1083.62
759.41	1086.85
759.74	1086.41
760.07	1087.34
760.39	1086.76
760.72	1085.47
761.05	1082.43
761.38	1081.91
761.71	1081.56
762.04	1083.06
762.36	1087.13
762.69	1084.84
763.02	1086.45
763.35	1085.40
763.68	1085.68
764.01	1083.29
764.33	1087.65
764.66	1087.53
764.99	1087.30
765.32	1085.19
765.65	1085.00
765.97	1080.32
766.30	1081.40
