SpectraSuite Data File
++++++++++++++++++++++++++++++++++++
Date: Mon Aug 26 10:26:10 PDT 2019
User: corrico
Dark Spectrum Present: No
Reference Spectrum Present: No
Number of Sampled Component Spectra: 1
Spectrometers: USB2+H06089
Integration Time (usec): 10000 (USB2+H06089)
Spectra Averaged: 20 (USB2+H06089)
Boxcar Smoothing: 2 (USB2+H06089)
Correct for Electrical Dark: No (USB2+H06089)
Strobe/Lamp Enabled: No (USB2+H06089)
Correct for Detector Non-linearity: No (USB2+H06089)
Correct for Stray Light: No (USB2+H06089)
Number of Pixels in Processed Spectrum: 2048
>>>>>Begin Processed Spectral Data<<<<<
339.70	1042.01
340.07	1042.01
340.45	1006.90
340.82	982.58
341.19	957.63
341.57	929.54
341.94	917.26
342.31	907.92
342.69	904.03
343.06	901.67
343.43	902.46
343.81	907.40
344.18	911.50
344.55	917.02
344.93	922.73
345.30	931.60
345.67	936.10
346.04	939.87
346.42	947.05
346.79	953.04
347.16	960.25
347.54	969.80
347.91	983.47
348.28	995.38
348.65	1009.40
349.03	1019.84
349.40	1027.61
349.77	1034.24
350.14	1040.91
350.52	1045.66
350.89	1052.00
351.26	1060.40
351.63	1066.91
352.01	1068.90
352.38	1071.87
352.75	1073.18
353.12	1079.99
353.50	1082.33
353.87	1085.77
354.24	1091.53
354.61	1094.76
354.98	1092.47
355.36	1096.24
355.73	1096.42
356.10	1093.31
356.47	1092.59
356.84	1093.26
357.22	1091.39
357.59	1094.29
357.96	1098.23
358.33	1099.65
358.70	1098.79
359.08	1097.50
359.45	1096.33
359.82	1095.23
360.19	1092.73
360.56	1090.13
360.94	1089.00
361.31	1089.54
361.68	1086.55
362.05	1088.28
362.42	1089.64
362.79	1091.34
363.16	1091.56
363.54	1096.56
363.91	1096.78
364.28	1096.38
364.65	1094.18
365.02	1091.44
365.39	1086.41
365.76	1086.66
366.14	1084.74
366.51	1082.17
366.88	1080.44
367.25	1080.20
367.62	1077.72
367.99	1079.01
368.36	1079.97
368.73	1082.08
369.10	1084.35
369.48	1084.30
369.85	1084.18
370.22	1087.81
370.59	1086.24
370.96	1085.94
371.33	1086.41
371.70	1087.11
372.07	1086.45
372.44	1086.78
372.81	1087.11
373.18	1090.20
373.55	1089.89
373.93	1091.25
374.30	1094.50
374.67	1092.28
375.04	1089.94
375.41	1090.81
375.78	1089.05
376.15	1086.92
376.52	1088.33
376.89	1088.89
377.26	1089.14
377.63	1088.77
378.00	1093.12
378.37	1091.86
378.74	1092.35
379.11	1089.68
379.48	1089.50
379.85	1087.11
380.22	1086.87
380.59	1087.16
380.96	1088.75
381.33	1086.52
381.70	1081.09
382.07	1081.58
382.44	1080.30
382.81	1079.69
383.18	1085.05
383.55	1089.12
383.92	1090.15
384.29	1092.30
384.66	1095.82
385.03	1092.47
385.40	1093.64
385.77	1092.68
386.14	1096.70
386.51	1095.91
386.88	1101.83
387.25	1101.43
387.62	1100.87
387.99	1097.10
388.36	1095.75
388.73	1093.33
389.10	1098.32
389.46	1101.41
389.83	1101.32
390.20	1102.42
390.57	1102.28
390.94	1096.42
391.31	1098.41
391.68	1098.69
392.05	1098.48
392.42	1099.65
392.79	1103.52
393.16	1101.55
393.53	1100.29
393.89	1100.85
394.26	1099.70
394.63	1099.49
395.00	1099.12
395.37	1099.58
395.74	1100.03
396.11	1100.73
396.48	1098.32
396.84	1101.64
397.21	1103.96
397.58	1106.51
397.95	1106.68
398.32	1111.36
398.69	1111.43
399.06	1106.79
399.42	1106.16
399.79	1108.48
400.16	1106.39
400.53	1106.68
400.90	1110.44
401.27	1106.61
401.64	1104.26
402.00	1102.70
402.37	1102.58
402.74	1102.09
403.11	1102.77
403.48	1104.22
403.84	1107.99
404.21	1107.17
404.58	1107.24
404.95	1109.39
405.32	1110.40
405.68	1107.94
406.05	1103.38
406.42	1106.56
406.79	1107.28
407.16	1109.13
407.52	1113.02
407.89	1121.12
408.26	1120.55
408.63	1120.16
408.99	1116.25
409.36	1113.63
409.73	1114.63
410.10	1115.64
410.47	1116.58
410.83	1120.04
411.20	1122.90
411.57	1120.88
411.94	1120.44
412.30	1121.91
412.67	1121.26
413.04	1121.28
413.40	1122.47
413.77	1123.90
414.14	1126.29
414.51	1129.99
414.87	1131.74
415.24	1129.75
415.61	1132.73
415.97	1130.81
416.34	1132.30
416.71	1130.95
417.08	1134.06
417.44	1131.98
417.81	1133.05
418.18	1128.28
418.54	1127.06
418.91	1130.48
419.28	1132.61
419.64	1133.45
420.01	1137.80
420.38	1140.82
420.74	1137.90
421.11	1139.30
421.48	1142.91
421.84	1143.38
422.21	1145.04
422.58	1149.37
422.94	1149.51
423.31	1149.11
423.68	1149.13
424.04	1147.42
424.41	1145.39
424.77	1148.15
425.14	1147.94
425.51	1149.27
425.87	1146.49
426.24	1146.23
426.61	1142.37
426.97	1147.92
427.34	1152.20
427.70	1158.80
428.07	1157.75
428.44	1159.52
428.80	1153.86
429.17	1152.32
429.53	1153.11
429.90	1156.46
430.27	1154.73
430.63	1158.45
431.00	1160.74
431.36	1160.77
431.73	1159.71
432.09	1159.67
432.46	1159.83
432.83	1154.98
433.19	1153.60
433.56	1154.07
433.92	1158.35
434.29	1153.88
434.65	1154.12
435.02	1155.27
435.38	1153.70
435.75	1150.61
436.11	1151.40
436.48	1155.45
436.84	1154.21
437.21	1154.38
437.57	1154.63
437.94	1153.44
438.30	1151.47
438.67	1149.55
439.03	1150.75
439.40	1150.89
439.76	1151.99
440.13	1150.96
440.49	1151.03
440.86	1150.98
441.22	1150.26
441.59	1149.13
441.95	1149.41
442.32	1149.88
442.68	1148.36
443.05	1149.32
443.41	1152.46
443.78	1149.09
444.14	1148.55
444.51	1149.65
444.87	1150.40
445.24	1148.06
445.60	1146.89
445.96	1145.53
446.33	1142.06
446.69	1139.26
447.06	1140.10
447.42	1140.68
447.79	1142.35
448.15	1145.88
448.51	1146.04
448.88	1143.68
449.24	1145.76
449.61	1143.73
449.97	1140.07
450.33	1139.84
450.70	1136.56
451.06	1135.00
451.43	1135.86
451.79	1137.99
452.15	1138.67
452.52	1144.97
452.88	1148.52
453.24	1148.06
453.61	1146.53
453.97	1145.27
454.34	1143.33
454.70	1142.09
455.06	1144.99
455.43	1147.38
455.79	1150.58
456.15	1151.24
456.52	1148.83
456.88	1148.64
457.24	1148.92
457.61	1150.16
457.97	1149.13
458.33	1149.32
458.70	1150.44
459.06	1150.47
459.42	1152.57
459.79	1157.61
460.15	1160.98
460.51	1162.99
460.88	1163.67
461.24	1159.50
461.60	1159.08
461.96	1158.64
462.33	1155.10
462.69	1156.41
463.05	1161.77
463.42	1163.76
463.78	1168.56
464.14	1174.15
464.50	1178.76
464.87	1176.52
465.23	1177.36
465.59	1176.80
465.95	1179.65
466.32	1179.30
466.68	1184.85
467.04	1187.47
467.40	1189.53
467.77	1188.52
468.13	1189.18
468.49	1189.74
468.85	1194.40
469.22	1199.78
469.58	1208.79
469.94	1218.93
470.30	1223.66
470.66	1227.00
471.03	1228.73
471.39	1231.52
471.75	1231.19
472.11	1238.75
472.47	1243.11
472.84	1250.08
473.20	1257.80
473.56	1267.63
473.92	1275.01
474.28	1288.54
474.65	1297.48
475.01	1303.35
475.37	1311.82
475.73	1320.25
476.09	1327.62
476.45	1338.04
476.81	1350.91
477.18	1361.79
477.54	1379.23
477.90	1396.36
478.26	1412.70
478.62	1431.12
478.98	1453.40
479.34	1473.13
479.71	1495.25
480.07	1525.16
480.43	1549.83
480.79	1577.05
481.15	1605.33
481.51	1634.23
481.87	1661.22
482.23	1694.52
482.59	1728.39
482.96	1765.04
483.32	1804.93
483.68	1845.25
484.04	1890.29
484.40	1939.37
484.76	1988.03
485.12	2037.60
485.48	2092.28
485.84	2145.34
486.20	2199.03
486.56	2254.52
486.92	2318.30
487.28	2382.43
487.64	2463.53
488.00	2546.50
488.37	2635.47
488.73	2726.98
489.09	2827.67
489.45	2921.34
489.81	3023.83
490.17	3131.12
490.53	3238.13
490.89	3344.30
491.25	3451.10
491.61	3572.90
491.97	3698.49
492.33	3842.15
492.69	3990.99
493.05	4167.04
493.41	4333.36
493.77	4523.72
494.13	4713.77
494.49	4920.51
494.85	5119.83
495.21	5336.42
495.57	5552.03
495.93	5775.79
496.29	6005.93
496.64	6272.43
497.00	6538.45
497.36	6809.18
497.72	7092.92
498.08	7433.82
498.44	7789.98
498.80	8160.91
499.16	8569.43
499.52	8999.43
499.88	9414.57
500.24	9846.70
500.60	10297.54
500.96	10756.89
501.32	11263.52
501.68	11808.00
502.03	12396.88
502.39	13043.71
502.75	13694.80
503.11	14394.04
503.47	15095.85
503.83	15794.99
504.19	16501.50
504.55	17276.64
504.91	18071.28
505.26	18881.31
505.62	19793.91
505.98	20779.72
506.34	21778.26
506.70	22852.24
507.06	23988.22
507.42	25171.34
507.78	26387.78
508.13	27678.57
508.49	29052.55
508.85	30509.23
509.21	31963.17
509.57	33536.16
509.93	35142.18
510.28	36718.25
510.64	38215.47
511.00	39812.33
511.36	41406.77
511.72	42976.00
512.07	44617.07
512.43	46449.29
512.79	48322.44
513.15	50124.66
513.51	52016.30
513.86	53762.50
514.22	55304.28
514.58	56668.75
514.94	57971.49
515.30	59162.52
515.65	60269.17
516.01	61354.29
516.37	62371.18
516.73	63329.21
517.08	64100.88
517.44	64726.39
517.80	65175.89
518.16	65432.20
518.51	65512.86
518.87	65534.67
519.23	65535.00
519.59	65535.00
519.94	65535.00
520.30	65535.00
520.66	65535.00
521.01	65535.00
521.37	65535.00
521.73	65535.00
522.09	65535.00
522.44	65535.00
522.80	65535.00
523.16	65535.00
523.51	65535.00
523.87	65535.00
524.23	65535.00
524.58	65535.00
524.94	65535.00
525.30	65535.00
525.65	65535.00
526.01	65535.00
526.37	65535.00
526.72	65535.00
527.08	65535.00
527.44	65535.00
527.79	65535.00
528.15	65535.00
528.51	65535.00
528.86	65535.00
529.22	65535.00
529.58	65535.00
529.93	65535.00
530.29	65535.00
530.65	65535.00
531.00	65535.00
531.36	65535.00
531.71	65535.00
532.07	65535.00
532.43	65535.00
532.78	65535.00
533.14	65535.00
533.49	65535.00
533.85	65535.00
534.21	65535.00
534.56	65535.00
534.92	65535.00
535.27	65534.18
535.63	65516.93
535.98	65450.04
536.34	65381.46
536.69	65240.51
537.05	64942.91
537.41	64543.13
537.76	64123.28
538.12	63598.07
538.47	62995.14
538.83	62387.38
539.18	61830.42
539.54	61214.58
539.89	60536.29
540.25	59868.75
540.60	59333.84
540.96	58697.62
541.31	58103.52
541.67	57657.67
542.02	57191.22
542.38	56469.94
542.73	55665.45
543.09	54827.73
543.44	53925.76
543.80	52968.10
544.15	52115.09
544.51	51317.35
544.86	50505.81
545.22	49621.39
545.57	48785.78
545.93	47889.56
546.28	47194.19
546.64	46440.82
546.99	45629.31
547.35	44801.95
547.70	44146.20
548.05	43278.47
548.41	42475.78
548.76	41736.11
549.12	40911.35
549.47	40012.49
549.83	39318.92
550.18	38591.83
550.53	37767.19
550.89	37035.42
551.24	36236.06
551.60	35335.61
551.95	34334.77
552.30	33444.48
552.66	32628.47
553.01	31996.29
553.37	31311.87
553.72	30720.07
554.07	30145.12
554.43	29553.06
554.78	28835.17
555.13	28181.90
555.49	27546.86
555.84	26987.87
556.19	26407.38
556.55	25733.46
556.90	24972.37
557.26	24269.27
557.61	23551.01
557.96	22865.65
558.32	22384.42
558.67	21978.68
559.02	21548.07
559.37	21118.91
559.73	20668.97
560.08	20136.28
560.43	19561.17
560.79	19001.83
561.14	18459.08
561.49	17962.82
561.85	17457.35
562.20	17039.45
562.55	16656.19
562.90	16243.60
563.26	15818.44
563.61	15444.89
563.96	15103.13
564.32	14747.11
564.67	14385.89
565.02	14042.61
565.37	13705.83
565.73	13345.27
566.08	13038.56
566.43	12746.32
566.78	12506.25
567.14	12254.23
567.49	11992.13
567.84	11745.02
568.19	11493.69
568.54	11184.34
568.90	10910.43
569.25	10687.07
569.60	10413.46
569.95	10147.39
570.31	9927.36
570.66	9704.87
571.01	9442.38
571.36	9212.49
571.71	9026.86
572.06	8843.22
572.42	8695.75
572.77	8531.46
573.12	8363.74
573.47	8167.72
573.82	7958.15
574.18	7741.53
574.53	7548.72
574.88	7365.69
575.23	7206.23
575.58	7045.69
575.93	6883.75
576.28	6742.36
576.64	6585.75
576.99	6420.60
577.34	6280.22
577.69	6142.20
578.04	5992.33
578.39	5847.64
578.74	5715.35
579.09	5601.74
579.44	5499.60
579.80	5402.42
580.15	5316.27
580.50	5211.16
580.85	5095.25
581.20	4971.91
581.55	4856.12
581.90	4744.76
582.25	4646.83
582.60	4544.29
582.95	4450.34
583.30	4368.21
583.65	4284.58
584.00	4195.57
584.35	4111.24
584.71	4026.89
585.06	3946.24
585.41	3862.89
585.76	3800.37
586.11	3735.21
586.46	3662.94
586.81	3586.36
587.16	3519.74
587.51	3441.99
587.86	3375.26
588.21	3316.00
588.56	3256.88
588.91	3206.96
589.26	3160.54
589.61	3109.80
589.96	3061.68
590.31	3015.59
590.66	2959.05
591.01	2905.45
591.36	2859.71
591.71	2817.72
592.06	2775.66
592.41	2734.94
592.76	2698.05
593.10	2659.34
593.45	2616.27
593.80	2576.91
594.15	2544.02
594.50	2514.04
594.85	2480.73
595.20	2451.24
595.55	2420.04
595.90	2388.80
596.25	2356.85
596.60	2324.76
596.95	2299.46
597.30	2276.31
597.64	2305.08
597.99	2285.42
598.34	2269.87
598.69	2249.40
599.04	2221.40
599.39	2141.38
599.74	2111.26
600.09	2085.37
600.44	2059.23
600.78	2034.42
601.13	2015.39
601.48	1990.44
601.83	1964.86
602.18	1939.86
602.53	1924.06
602.88	1898.81
603.22	1882.38
603.57	1862.88
603.92	1845.11
604.27	1823.44
604.62	1804.39
604.97	1787.75
605.31	1769.80
605.66	1751.59
606.01	1732.77
606.36	1717.74
606.71	1698.71
607.05	1683.62
607.40	1666.84
607.75	1653.64
608.10	1642.52
608.44	1630.65
608.79	1619.58
609.14	1611.51
609.49	1601.09
609.84	1589.36
610.18	1581.69
610.53	1572.30
610.88	1561.61
611.23	1556.32
611.57	1547.94
611.92	1537.01
612.27	1525.35
612.62	1512.62
612.96	1494.20
613.31	1480.18
613.66	1473.09
614.00	1465.15
614.35	1457.85
614.70	1451.74
615.05	1445.96
615.39	1432.60
615.74	1423.68
616.09	1413.80
616.43	1405.47
616.78	1396.76
617.13	1392.03
617.47	1382.34
617.82	1376.24
618.17	1369.99
618.51	1362.87
618.86	1357.09
619.21	1350.47
619.55	1345.97
619.90	1341.81
620.25	1338.20
620.59	1329.10
620.94	1325.77
621.29	1318.17
621.63	1314.49
621.98	1309.65
622.32	1307.03
622.67	1301.08
623.02	1294.55
623.36	1287.83
623.71	1278.61
624.05	1270.79
624.40	1267.94
624.75	1264.08
625.09	1261.53
625.44	1261.88
625.78	1261.31
626.13	1258.83
626.48	1261.62
626.82	1253.03
627.17	1252.80
627.51	1250.78
627.86	1246.34
628.20	1240.46
628.55	1242.24
628.89	1236.62
629.24	1230.28
629.58	1226.51
629.93	1220.03
630.28	1214.86
630.62	1211.02
630.97	1209.17
631.31	1205.56
631.66	1202.97
632.00	1201.84
632.35	1196.04
632.69	1191.71
633.04	1188.08
633.38	1188.01
633.73	1186.21
634.07	1187.40
634.42	1186.58
634.76	1188.22
635.11	1185.90
635.45	1183.75
635.79	1179.86
636.14	1179.82
636.48	1175.35
636.83	1175.09
637.17	1173.54
637.52	1174.27
637.86	1169.45
638.21	1169.28
638.55	1168.68
638.89	1167.81
639.24	1165.68
639.58	1167.83
639.93	1166.76
640.27	1161.77
640.61	1159.74
640.96	1158.49
641.30	1154.40
641.65	1153.98
641.99	1154.40
642.33	1150.40
642.68	1151.12
643.02	1151.89
643.37	1149.04
643.71	1147.31
644.05	1146.70
644.40	1142.30
644.74	1144.87
645.08	1145.22
645.43	1143.26
645.77	1141.32
646.11	1142.60
646.46	1138.06
646.80	1137.48
647.14	1136.31
647.49	1137.73
647.83	1136.45
648.17	1135.46
648.52	1133.22
648.86	1136.56
649.20	1137.76
649.55	1136.68
649.89	1137.01
650.23	1138.69
650.57	1135.89
650.92	1136.61
651.26	1137.59
651.60	1137.48
651.95	1133.57
652.29	1132.73
652.63	1125.68
652.97	1121.65
653.32	1117.84
653.66	1120.02
654.00	1120.16
654.34	1122.94
654.69	1123.04
655.03	1122.75
655.37	1118.89
655.71	1117.21
656.05	1119.06
656.40	1117.75
656.74	1119.22
657.08	1121.51
657.42	1121.51
657.76	1118.52
658.11	1119.90
658.45	1121.40
658.79	1121.94
659.13	1122.80
659.47	1123.01
659.82	1118.50
660.16	1116.25
660.50	1114.70
660.84	1113.32
661.18	1110.96
661.52	1115.87
661.87	1113.63
662.21	1110.26
662.55	1108.97
662.89	1112.29
663.23	1111.64
663.57	1113.98
663.91	1116.72
664.25	1116.22
664.60	1113.09
664.94	1112.64
665.28	1110.33
665.62	1108.24
665.96	1109.98
666.30	1112.71
666.64	1114.35
666.98	1113.35
667.32	1116.65
667.66	1119.99
668.01	1117.07
668.35	1113.93
668.69	1116.04
669.03	1116.86
669.37	1110.05
669.71	1110.19
670.05	1110.84
670.39	1109.86
670.73	1106.46
671.07	1109.65
671.41	1112.25
671.75	1112.97
672.09	1113.42
672.43	1113.18
672.77	1112.13
673.11	1109.55
673.45	1106.30
673.79	1106.32
674.13	1105.83
674.47	1102.39
674.81	1103.66
675.15	1104.76
675.49	1106.42
675.83	1108.24
676.17	1112.55
676.51	1110.89
676.85	1111.82
677.19	1107.52
677.53	1106.42
677.87	1103.87
678.21	1103.52
678.55	1102.11
678.89	1103.54
679.23	1102.95
679.57	1102.32
679.90	1104.12
680.24	1102.49
680.58	1105.22
680.92	1104.08
681.26	1105.18
681.60	1103.49
681.94	1104.26
682.28	1099.79
682.62	1099.28
682.96	1099.40
683.29	1097.90
683.63	1099.23
683.97	1100.59
684.31	1100.00
684.65	1100.36
684.99	1097.57
685.33	1096.35
685.67	1099.77
686.00	1102.72
686.34	1100.40
686.68	1104.43
687.02	1106.07
687.36	1104.26
687.70	1100.87
688.03	1103.70
688.37	1104.78
688.71	1103.38
689.05	1100.73
689.39	1104.19
689.72	1104.05
690.06	1100.15
690.40	1102.98
690.74	1103.35
691.08	1099.68
691.41	1099.75
691.75	1102.63
692.09	1101.34
692.43	1106.30
692.76	1110.47
693.10	1111.22
693.44	1111.64
693.78	1113.07
694.11	1108.92
694.45	1107.07
694.79	1104.12
695.13	1105.13
695.46	1101.08
695.80	1101.32
696.14	1100.43
696.48	1101.60
696.81	1096.96
697.15	1099.56
697.49	1095.46
697.82	1095.60
698.16	1095.00
698.50	1098.39
698.83	1100.31
699.17	1102.28
699.51	1098.72
699.84	1099.23
700.18	1097.66
700.52	1092.14
700.85	1091.93
701.19	1096.21
701.53	1097.27
701.86	1097.45
702.20	1098.93
702.54	1097.90
702.87	1098.90
703.21	1093.52
703.55	1091.65
703.88	1091.88
704.22	1091.74
704.55	1091.65
704.89	1094.15
705.23	1096.07
705.56	1095.28
705.90	1098.55
706.23	1096.24
706.57	1098.51
706.91	1098.58
707.24	1101.81
707.58	1101.50
707.91	1102.28
708.25	1097.62
708.58	1096.33
708.92	1093.87
709.26	1091.86
709.59	1092.73
709.93	1096.47
710.26	1097.03
710.60	1094.79
710.93	1096.61
711.27	1094.95
711.60	1093.97
711.94	1090.69
712.27	1093.40
712.61	1093.50
712.94	1092.00
713.28	1089.92
713.61	1095.23
713.95	1096.47
714.28	1095.91
714.62	1096.87
714.95	1100.68
715.29	1098.83
715.62	1097.03
715.96	1097.22
716.29	1099.07
716.63	1096.61
716.96	1095.65
717.29	1096.80
717.63	1095.89
717.96	1096.99
718.30	1100.43
718.63	1103.40
718.97	1102.21
719.30	1103.26
719.63	1098.93
719.97	1095.07
720.30	1091.32
720.64	1088.79
720.97	1087.67
721.30	1090.69
721.64	1091.09
721.97	1090.85
722.31	1093.45
722.64	1093.69
722.97	1091.42
723.31	1090.95
723.64	1091.70
723.97	1091.44
724.31	1091.88
724.64	1092.45
724.98	1096.73
725.31	1096.59
725.64	1095.30
725.98	1094.06
726.31	1093.99
726.64	1089.40
726.97	1091.27
727.31	1090.92
727.64	1090.88
727.97	1092.70
728.31	1092.54
728.64	1091.51
728.97	1092.30
729.31	1090.67
729.64	1087.93
729.97	1089.43
730.30	1090.46
730.64	1088.21
730.97	1090.76
731.30	1091.06
731.63	1090.83
731.97	1090.48
732.30	1093.76
732.63	1091.58
732.96	1092.61
733.30	1092.84
733.63	1093.26
733.96	1091.84
734.29	1094.15
734.63	1094.88
734.96	1093.26
735.29	1094.48
735.62	1096.63
735.95	1094.79
736.29	1094.34
736.62	1095.14
736.95	1092.07
737.28	1089.78
737.61	1090.32
737.94	1086.50
738.28	1084.44
738.61	1086.31
738.94	1088.14
739.27	1089.82
739.60	1093.24
739.93	1094.41
740.27	1095.02
740.60	1095.21
740.93	1093.15
741.26	1092.80
741.59	1093.36
741.92	1091.86
742.25	1089.05
742.58	1089.10
742.91	1090.10
743.25	1092.45
743.58	1090.83
743.91	1094.97
744.24	1095.82
744.57	1094.18
744.90	1096.12
745.23	1096.66
745.56	1094.90
745.89	1092.77
746.22	1095.96
746.55	1094.34
746.88	1093.29
747.21	1092.07
747.54	1096.07
747.87	1094.67
748.20	1091.06
748.53	1091.49
748.87	1087.97
749.20	1085.21
749.53	1086.13
749.86	1083.29
750.19	1084.93
750.52	1087.16
750.85	1088.14
751.18	1084.39
751.51	1088.77
751.84	1089.00
752.16	1092.45
752.49	1094.13
752.82	1096.17
753.15	1095.67
753.48	1094.67
753.81	1091.77
754.14	1086.64
754.47	1085.38
754.80	1085.61
755.13	1087.18
755.46	1089.68
755.79	1094.50
756.12	1097.08
756.45	1098.60
756.78	1099.40
757.11	1097.31
757.43	1093.29
757.76	1088.56
758.09	1088.12
758.42	1085.96
758.75	1088.58
759.08	1092.26
759.41	1093.47
759.74	1089.66
760.07	1090.57
760.39	1088.04
760.72	1085.70
761.05	1085.45
761.38	1088.16
761.71	1088.35
762.04	1088.58
