SpectraSuite Data File
++++++++++++++++++++++++++++++++++++
Date: Mon Aug 26 10:26:01 PDT 2019
User: corrico
Dark Spectrum Present: No
Reference Spectrum Present: No
Number of Sampled Component Spectra: 1
Spectrometers: USB2+H06089
Integration Time (usec): 10000 (USB2+H06089)
Spectra Averaged: 2 (USB2+H06089)
Boxcar Smoothing: 2 (USB2+H06089)
Correct for Electrical Dark: No (USB2+H06089)
Strobe/Lamp Enabled: No (USB2+H06089)
Correct for Detector Non-linearity: No (USB2+H06089)
Correct for Stray Light: No (USB2+H06089)
Number of Pixels in Processed Spectrum: 2048
>>>>>Begin Processed Spectral Data<<<<<
339.70	1033.35
340.07	1033.35
340.45	1005.03
340.82	979.98
341.19	946.98
341.57	920.53
341.94	909.30
342.31	902.74
342.69	906.49
343.06	918.43
343.43	916.55
343.81	910.94
344.18	921.70
344.55	916.79
344.93	913.75
345.30	926.85
345.67	935.04
346.04	929.43
346.42	942.30
346.79	953.77
347.16	946.28
347.54	967.34
347.91	987.24
348.28	991.92
348.65	996.60
349.03	1013.45
349.40	1002.92
349.77	1006.90
350.14	1011.58
350.52	1021.88
350.89	1027.26
351.26	1044.35
351.63	1049.96
352.01	1057.45
352.38	1058.62
352.75	1072.90
353.12	1070.56
353.50	1066.35
353.87	1079.22
354.24	1083.20
354.61	1089.99
354.98	1098.41
355.36	1107.78
355.73	1102.39
356.10	1102.39
356.47	1095.14
356.84	1091.86
357.22	1092.33
357.59	1087.18
357.96	1089.75
358.33	1090.22
358.70	1089.99
359.08	1079.46
359.45	1085.54
359.82	1085.54
360.19	1094.67
360.56	1104.03
360.94	1105.67
361.31	1109.18
361.68	1105.67
362.05	1085.54
362.42	1073.14
362.79	1077.58
363.16	1074.54
363.54	1076.88
363.91	1075.48
364.28	1068.92
364.65	1063.31
365.02	1071.26
365.39	1069.39
365.76	1073.37
366.14	1078.28
366.51	1081.56
366.88	1068.69
367.25	1071.73
367.62	1068.92
367.99	1069.16
368.36	1065.65
368.73	1067.28
369.10	1059.33
369.48	1061.20
369.85	1064.48
370.22	1067.05
370.59	1070.80
370.96	1084.14
371.33	1094.43
371.70	1082.03
372.07	1079.69
372.44	1077.58
372.81	1066.58
373.18	1064.01
373.55	1059.09
373.93	1064.01
374.30	1060.96
374.67	1066.11
375.04	1060.50
375.41	1073.37
375.78	1075.01
376.15	1071.97
376.52	1066.82
376.89	1071.97
377.26	1075.24
377.63	1073.84
378.00	1080.63
378.37	1076.65
378.74	1071.73
379.11	1063.54
379.48	1061.90
379.85	1053.24
380.22	1059.79
380.59	1051.13
380.96	1060.96
381.33	1050.90
381.70	1060.73
382.07	1057.69
382.44	1070.33
382.81	1072.20
383.18	1082.03
383.55	1072.90
383.92	1082.97
384.29	1080.86
384.66	1073.60
385.03	1067.99
385.40	1074.54
385.77	1068.92
386.14	1066.35
386.51	1066.82
386.88	1066.58
387.25	1071.50
387.62	1067.52
387.99	1064.01
388.36	1065.41
388.73	1066.35
389.10	1049.96
389.46	1053.48
389.83	1057.69
390.20	1059.56
390.57	1059.79
390.94	1078.05
391.31	1084.14
391.68	1080.16
392.05	1086.94
392.42	1093.73
392.79	1085.31
393.16	1078.05
393.53	1076.65
393.89	1066.11
394.26	1062.84
394.63	1058.16
395.00	1060.73
395.37	1064.94
395.74	1058.39
396.11	1057.69
396.48	1057.45
396.84	1059.79
397.21	1054.88
397.58	1059.09
397.95	1052.07
398.32	1068.69
398.69	1072.67
399.06	1082.50
399.42	1086.71
399.79	1086.71
400.16	1078.05
400.53	1060.50
400.90	1062.37
401.27	1062.14
401.64	1070.56
402.00	1062.84
402.37	1080.86
402.74	1072.67
403.11	1082.73
403.48	1090.92
403.84	1088.82
404.21	1091.63
404.58	1096.07
404.95	1088.12
405.32	1083.67
405.68	1089.29
406.05	1075.94
406.42	1065.41
406.79	1060.96
407.16	1063.77
407.52	1065.65
407.89	1072.90
408.26	1082.97
408.63	1089.52
408.99	1094.20
409.36	1093.50
409.73	1092.09
410.10	1089.99
410.47	1088.58
410.83	1076.65
411.20	1069.86
411.57	1063.31
411.94	1067.28
412.30	1072.43
412.67	1081.56
413.04	1092.33
413.40	1093.97
413.77	1088.82
414.14	1082.73
414.51	1071.26
414.87	1067.05
415.24	1072.43
415.61	1076.18
415.97	1073.37
416.34	1070.33
416.71	1076.18
417.08	1070.56
417.44	1071.97
417.81	1069.39
418.18	1075.71
418.54	1065.41
418.91	1062.60
419.28	1063.54
419.64	1066.35
420.01	1063.31
420.38	1072.43
420.74	1075.48
421.11	1075.01
421.48	1074.31
421.84	1073.60
422.21	1069.16
422.58	1068.22
422.94	1067.28
423.31	1071.97
423.68	1082.97
424.04	1083.20
424.41	1091.16
424.77	1082.97
425.14	1083.67
425.51	1070.56
425.87	1067.05
426.24	1066.58
426.61	1075.01
426.97	1074.31
427.34	1079.46
427.70	1080.16
428.07	1079.22
428.44	1079.92
428.80	1087.18
429.17	1089.05
429.53	1093.73
429.90	1091.39
430.27	1084.84
430.63	1075.71
431.00	1081.56
431.36	1080.39
431.73	1078.28
432.09	1087.65
432.46	1078.05
432.83	1068.69
433.19	1073.37
433.56	1070.80
433.92	1070.56
434.29	1085.31
434.65	1088.58
435.02	1081.56
435.38	1076.41
435.75	1067.99
436.11	1058.86
436.48	1056.05
436.84	1053.71
437.21	1059.09
437.57	1072.67
437.94	1071.26
438.30	1079.22
438.67	1085.54
439.03	1090.92
439.40	1091.16
439.76	1099.58
440.13	1091.39
440.49	1089.05
440.86	1086.71
441.22	1078.52
441.59	1081.09
441.95	1081.56
442.32	1083.20
442.68	1074.54
443.05	1066.82
443.41	1067.28
443.78	1069.86
444.14	1072.43
444.51	1082.73
444.87	1083.90
445.24	1079.22
445.60	1081.56
445.96	1072.43
446.33	1070.80
446.69	1064.48
447.06	1058.62
447.42	1049.50
447.79	1057.69
448.15	1058.86
448.51	1077.11
448.88	1085.54
449.24	1089.05
449.61	1078.52
449.97	1076.65
450.33	1073.84
450.70	1072.67
451.06	1080.86
451.43	1086.71
451.79	1082.26
452.15	1074.54
452.52	1073.14
452.88	1068.45
453.24	1065.18
453.61	1064.24
453.97	1063.07
454.34	1059.09
454.70	1066.58
455.06	1073.60
455.43	1080.39
455.79	1083.43
456.15	1092.80
456.52	1086.94
456.88	1094.43
457.24	1095.37
457.61	1094.43
457.97	1089.29
458.33	1089.52
458.70	1080.16
459.06	1084.14
459.42	1100.99
459.79	1101.22
460.15	1097.24
460.51	1087.65
460.88	1080.16
461.24	1060.03
461.60	1058.39
461.96	1065.88
462.33	1074.77
462.69	1080.86
463.05	1089.29
463.42	1090.92
463.78	1085.31
464.14	1091.86
464.50	1085.31
464.87	1085.77
465.23	1086.71
465.59	1090.22
465.95	1086.94
466.32	1081.09
466.68	1078.28
467.04	1074.31
467.40	1074.77
467.77	1065.18
468.13	1063.77
468.49	1062.60
468.85	1057.45
469.22	1051.60
469.58	1060.50
469.94	1079.46
470.30	1077.58
470.66	1082.97
471.03	1082.26
471.39	1078.28
471.75	1067.75
472.11	1078.99
472.47	1074.54
472.84	1070.33
473.20	1067.28
473.56	1066.11
473.92	1050.20
474.28	1056.28
474.65	1057.92
475.01	1073.14
475.37	1075.01
475.73	1081.09
476.09	1079.46
476.45	1075.94
476.81	1063.77
477.18	1065.18
477.54	1059.09
477.90	1056.52
478.26	1053.71
478.62	1054.88
478.98	1057.92
479.34	1069.62
479.71	1071.97
480.07	1085.31
480.43	1086.24
480.79	1080.16
481.15	1075.01
481.51	1069.62
481.87	1073.84
482.23	1076.88
482.59	1082.03
482.96	1084.60
483.32	1093.03
483.68	1102.16
484.04	1089.99
484.40	1083.90
484.76	1086.48
485.12	1085.77
485.48	1071.50
485.84	1086.24
486.20	1091.63
486.56	1086.71
486.92	1087.41
487.28	1083.20
487.64	1079.92
488.00	1081.33
488.37	1085.54
488.73	1091.86
489.09	1086.94
489.45	1087.18
489.81	1077.58
490.17	1083.43
490.53	1073.14
490.89	1079.22
491.25	1075.94
491.61	1082.73
491.97	1070.09
492.33	1074.54
492.69	1072.67
493.05	1077.11
493.41	1079.92
493.77	1090.69
494.13	1081.80
494.49	1087.18
494.85	1077.82
495.21	1075.94
495.57	1075.71
495.93	1079.22
496.29	1073.37
496.64	1078.75
497.00	1077.11
497.36	1063.31
497.72	1058.16
498.08	1066.11
498.44	1063.54
498.80	1061.43
499.16	1075.48
499.52	1082.26
499.88	1082.73
500.24	1083.20
500.60	1091.86
500.96	1082.97
501.32	1076.88
501.68	1070.56
502.03	1072.43
502.39	1064.71
502.75	1077.35
503.11	1085.31
503.47	1091.86
503.83	1097.01
504.19	1104.73
504.55	1100.29
504.91	1097.24
505.26	1087.65
505.62	1082.50
505.98	1075.94
506.34	1069.62
506.70	1066.35
507.06	1072.20
507.42	1068.45
507.78	1066.11
508.13	1077.58
508.49	1095.60
508.85	1090.46
509.21	1094.90
509.57	1101.92
509.93	1092.80
510.28	1070.56
510.64	1069.62
511.00	1080.39
511.36	1079.22
511.72	1083.43
512.07	1090.92
512.43	1098.88
512.79	1082.97
513.15	1071.97
513.51	1064.71
513.86	1064.94
514.22	1059.09
514.58	1059.79
514.94	1075.48
515.30	1080.63
515.65	1078.52
516.01	1075.24
516.37	1085.31
516.73	1082.50
517.08	1077.35
517.44	1080.86
517.80	1086.01
518.16	1074.07
518.51	1066.35
518.87	1074.07
519.23	1072.90
519.59	1075.71
519.94	1087.88
520.30	1095.84
520.66	1097.71
521.01	1108.71
521.37	1107.07
521.73	1101.22
522.09	1100.05
522.44	1085.77
522.80	1071.26
523.16	1079.69
523.51	1081.09
523.87	1082.26
524.23	1088.58
524.58	1099.82
524.94	1090.92
525.30	1096.07
525.65	1087.18
526.01	1086.71
526.37	1083.20
526.72	1093.73
527.08	1089.75
527.44	1098.18
527.79	1101.92
528.15	1108.01
528.51	1098.41
528.86	1093.26
529.22	1088.12
529.58	1087.88
529.93	1085.77
530.29	1089.05
530.65	1093.26
531.00	1095.37
531.36	1097.48
531.71	1098.18
532.07	1103.56
532.43	1097.71
532.78	1097.24
533.14	1085.54
533.49	1090.22
533.85	1082.73
534.21	1091.16
534.56	1100.75
534.92	1113.39
535.27	1095.84
535.63	1088.58
535.98	1077.35
536.34	1068.22
536.69	1057.45
537.05	1066.11
537.41	1073.60
537.76	1086.01
538.12	1086.94
538.47	1092.80
538.83	1104.73
539.18	1106.14
539.54	1095.37
539.89	1093.50
540.25	1092.09
540.60	1076.88
540.96	1072.43
541.31	1087.41
541.67	1089.99
542.02	1096.31
542.38	1101.69
542.73	1094.67
543.09	1084.14
543.44	1089.05
543.80	1090.46
544.15	1082.50
544.51	1086.48
544.86	1094.67
545.22	1090.92
545.57	1082.97
545.93	1086.24
546.28	1092.56
546.64	1093.50
546.99	1084.84
547.35	1083.20
547.70	1092.09
548.05	1088.12
548.41	1077.82
548.76	1079.46
549.12	1088.35
549.47	1082.50
549.83	1076.65
550.18	1081.33
550.53	1083.43
550.89	1075.01
551.24	1075.71
551.60	1075.71
551.95	1079.69
552.30	1081.33
552.66	1092.09
553.01	1091.39
553.37	1101.92
553.72	1091.16
554.07	1097.01
554.43	1082.97
554.78	1073.14
555.13	1066.82
555.49	1066.35
555.84	1068.92
556.19	1077.35
556.55	1087.65
556.90	1091.63
557.26	1100.05
557.61	1085.77
557.96	1082.50
558.32	1091.39
558.67	1086.71
559.02	1083.20
559.37	1084.84
559.73	1087.18
560.08	1070.09
560.43	1070.33
560.79	1066.11
561.14	1072.67
561.49	1068.69
561.85	1065.88
562.20	1067.75
562.55	1075.71
562.90	1062.37
563.26	1061.43
563.61	1068.69
563.96	1070.09
564.32	1073.14
564.67	1080.16
565.02	1079.92
565.37	1081.33
565.73	1082.50
566.08	1073.37
566.43	1075.94
566.78	1076.41
567.14	1078.05
567.49	1078.75
567.84	1078.28
568.19	1079.46
568.54	1078.52
568.90	1080.63
569.25	1082.26
569.60	1091.63
569.95	1086.01
570.31	1078.28
570.66	1070.80
571.01	1066.82
571.36	1066.11
571.71	1070.09
572.06	1086.71
572.42	1081.56
572.77	1085.77
573.12	1086.01
573.47	1080.63
573.82	1071.50
574.18	1076.18
574.53	1071.50
574.88	1067.28
575.23	1075.48
575.58	1085.31
575.93	1093.26
576.28	1092.09
576.64	1086.24
576.99	1082.73
577.34	1075.94
577.69	1068.69
578.04	1077.11
578.39	1083.20
578.74	1076.88
579.09	1080.16
579.44	1089.75
579.80	1076.18
580.15	1069.39
580.50	1081.56
580.85	1086.24
581.20	1067.75
581.55	1073.60
581.90	1074.31
582.25	1073.37
582.60	1068.92
582.95	1081.33
583.30	1078.52
583.65	1086.01
584.00	1079.69
584.35	1070.80
584.71	1078.05
585.06	1086.01
585.41	1081.09
585.76	1087.88
586.11	1097.95
586.46	1090.69
586.81	1093.26
587.16	1086.24
587.51	1083.90
587.86	1076.18
588.21	1064.71
588.56	1053.48
588.91	1058.62
589.26	1065.18
589.61	1069.86
589.96	1077.11
590.31	1083.90
590.66	1080.63
591.01	1075.01
591.36	1077.82
591.71	1073.37
592.06	1075.94
592.41	1079.92
592.76	1068.45
593.10	1070.09
593.45	1078.28
593.80	1071.50
594.15	1073.60
594.50	1077.82
594.85	1067.28
595.20	1067.52
595.55	1075.01
595.90	1075.71
596.25	1082.50
596.60	1091.86
596.95	1092.33
597.30	1085.07
597.64	1135.39
597.99	1128.84
598.34	1129.07
598.69	1124.86
599.04	1127.44
599.39	1075.94
599.74	1076.18
600.09	1063.31
600.44	1056.05
600.78	1057.69
601.13	1057.45
601.48	1065.41
601.83	1081.09
602.18	1088.82
602.53	1092.56
602.88	1093.97
603.22	1089.52
603.57	1072.67
603.92	1073.84
604.27	1070.09
604.62	1066.11
604.97	1069.86
605.31	1078.75
605.66	1080.16
606.01	1072.20
606.36	1072.20
606.71	1063.54
607.05	1064.71
607.40	1062.14
607.75	1076.18
608.10	1073.37
608.44	1072.20
608.79	1064.48
609.14	1069.39
609.49	1063.31
609.84	1071.97
610.18	1082.50
610.53	1086.24
610.88	1084.84
611.23	1081.33
611.57	1081.56
611.92	1084.14
612.27	1088.35
612.62	1095.14
612.96	1099.35
613.31	1097.01
613.66	1091.39
614.00	1094.90
614.35	1089.05
614.70	1096.54
615.05	1089.75
615.39	1087.65
615.74	1083.43
616.09	1090.22
616.43	1085.31
616.78	1096.31
617.13	1100.75
617.47	1097.95
617.82	1085.31
618.17	1080.16
618.51	1071.03
618.86	1070.33
619.21	1064.48
619.55	1068.92
619.90	1070.09
620.25	1077.35
620.59	1084.60
620.94	1093.50
621.29	1091.39
621.63	1088.58
621.98	1078.05
622.32	1068.45
622.67	1060.50
623.02	1058.62
623.36	1057.92
623.71	1065.18
624.05	1060.73
624.40	1075.01
624.75	1096.54
625.09	1102.16
625.44	1096.07
625.78	1097.48
626.13	1088.58
626.48	1079.22
626.82	1074.31
627.17	1080.16
627.51	1075.71
627.86	1073.37
628.20	1076.88
628.55	1075.01
628.89	1070.80
629.24	1075.24
629.58	1068.92
629.93	1057.69
630.28	1069.86
630.62	1080.63
630.97	1080.16
631.31	1083.90
631.66	1089.05
632.00	1077.58
632.35	1078.75
632.69	1083.67
633.04	1083.43
633.38	1076.41
633.73	1079.46
634.07	1071.50
634.42	1076.18
634.76	1076.88
635.11	1082.03
635.45	1086.24
635.79	1086.94
636.14	1077.11
636.48	1081.09
636.83	1084.37
637.17	1082.73
637.52	1077.11
637.86	1083.20
638.21	1082.73
638.55	1072.67
638.89	1066.35
639.24	1070.09
639.58	1064.01
639.93	1071.03
640.27	1075.71
640.61	1082.03
640.96	1078.99
641.30	1087.18
641.65	1089.29
641.99	1090.69
642.33	1089.29
642.68	1102.63
643.02	1090.46
643.37	1080.39
643.71	1076.65
644.05	1076.88
644.40	1071.03
644.74	1084.84
645.08	1089.29
645.43	1086.94
645.77	1087.88
646.11	1089.52
646.46	1091.39
646.80	1089.05
647.14	1091.39
647.49	1091.63
647.83	1092.09
648.17	1081.33
648.52	1075.94
648.86	1075.94
649.20	1083.20
649.55	1088.82
649.89	1091.63
650.23	1100.52
650.57	1097.01
650.92	1086.48
651.26	1081.80
651.60	1078.05
651.95	1071.03
652.29	1077.35
652.63	1073.84
652.97	1077.11
653.32	1085.54
653.66	1089.99
654.00	1084.14
654.34	1095.60
654.69	1083.20
655.03	1075.24
655.37	1076.65
655.71	1083.67
656.05	1093.97
656.40	1095.37
656.74	1103.33
657.08	1110.35
657.42	1109.65
657.76	1091.86
658.11	1094.20
658.45	1090.92
658.79	1089.99
659.13	1081.80
659.47	1082.03
659.82	1071.03
660.16	1071.73
660.50	1054.18
660.84	1060.50
661.18	1059.56
661.52	1067.99
661.87	1065.18
662.21	1062.84
662.55	1067.52
662.89	1072.20
663.23	1069.86
663.57	1069.16
663.91	1071.73
664.25	1062.37
664.60	1064.01
664.94	1068.22
665.28	1069.86
665.62	1078.52
665.96	1093.73
666.30	1083.67
666.64	1082.50
666.98	1090.46
667.32	1095.14
667.66	1081.33
668.01	1084.60
668.35	1079.46
668.69	1060.03
669.03	1053.94
669.37	1048.09
669.71	1042.01
670.05	1047.86
670.39	1063.07
670.73	1062.84
671.07	1074.07
671.41	1094.67
671.75	1102.86
672.09	1097.24
672.43	1101.92
672.77	1097.24
673.11	1081.33
673.45	1074.54
673.79	1073.60
674.13	1064.94
674.47	1067.52
674.81	1075.48
675.15	1080.16
675.49	1087.18
675.83	1090.92
676.17	1098.41
676.51	1092.33
676.85	1088.82
677.19	1082.26
677.53	1090.69
677.87	1085.54
678.21	1087.65
678.55	1087.18
678.89	1090.46
679.23	1088.12
679.57	1087.65
679.90	1086.24
680.24	1087.88
680.58	1086.48
680.92	1084.14
681.26	1076.41
681.60	1073.84
681.94	1067.52
682.28	1066.58
682.62	1070.33
682.96	1079.46
683.29	1086.94
683.63	1086.24
683.97	1082.26
684.31	1081.09
684.65	1074.54
684.99	1080.39
685.33	1084.14
685.67	1094.67
686.00	1099.35
686.34	1097.24
686.68	1082.97
687.02	1081.33
687.36	1067.05
687.70	1058.39
688.03	1069.86
688.37	1070.33
688.71	1069.86
689.05	1079.69
689.39	1070.56
689.72	1066.11
690.06	1076.18
690.40	1084.14
690.74	1089.05
691.08	1101.69
691.41	1103.80
691.75	1093.97
692.09	1085.31
692.43	1078.99
692.76	1072.90
693.10	1062.14
693.44	1061.43
693.78	1060.73
694.11	1053.48
694.45	1052.07
694.79	1060.50
695.13	1072.90
695.46	1073.60
695.80	1080.86
696.14	1090.69
696.48	1086.48
696.81	1077.11
697.15	1077.35
697.49	1076.18
697.82	1067.28
698.16	1069.86
698.50	1064.94
698.83	1071.50
699.17	1078.99
699.51	1081.09
699.84	1079.46
700.18	1091.39
700.52	1091.63
700.85	1086.24
701.19	1078.99
701.53	1079.92
701.86	1071.73
702.20	1063.31
702.54	1064.24
702.87	1073.60
703.21	1078.75
703.55	1077.35
703.88	1081.09
704.22	1087.41
704.55	1087.41
704.89	1081.56
705.23	1092.09
705.56	1086.71
705.90	1072.67
706.23	1068.92
706.57	1064.01
706.91	1059.09
707.24	1061.43
707.58	1064.01
707.91	1065.88
708.25	1070.56
708.58	1067.99
708.92	1072.67
709.26	1079.46
709.59	1084.84
709.93	1081.33
710.26	1089.99
710.60	1095.60
710.93	1088.12
711.27	1081.56
711.60	1086.71
711.94	1072.20
712.27	1070.56
712.61	1073.37
712.94	1076.41
713.28	1080.63
713.61	1095.14
713.95	1085.77
714.28	1085.54
714.62	1074.77
714.95	1079.92
715.29	1072.20
715.62	1086.01
715.96	1086.48
716.29	1097.24
716.63	1076.88
716.96	1072.90
717.29	1070.09
717.63	1073.84
717.96	1075.71
718.30	1080.39
718.63	1082.97
718.97	1075.94
719.30	1071.73
719.63	1075.24
719.97	1082.73
720.30	1085.31
720.64	1084.84
720.97	1081.56
721.30	1080.39
721.64	1076.18
721.97	1076.88
722.31	1086.48
722.64	1092.09
722.97	1091.39
723.31	1086.71
723.64	1078.28
723.97	1069.16
724.31	1075.48
724.64	1064.94
724.98	1074.31
725.31	1076.65
725.64	1079.69
725.98	1068.92
726.31	1074.31
726.64	1072.90
726.97	1074.31
727.31	1065.18
727.64	1071.50
727.97	1067.75
728.31	1062.14
728.64	1065.65
728.97	1076.65
729.31	1076.41
729.64	1076.88
729.97	1078.52
730.30	1076.41
730.64	1066.58
730.97	1056.99
731.30	1058.16
731.63	1053.94
731.97	1056.99
732.30	1074.54
732.63	1082.50
732.96	1086.01
733.30	1094.20
733.63	1089.29
733.96	1087.18
734.29	1086.01
734.63	1082.03
734.96	1078.28
735.29	1089.75
735.62	1076.18
735.95	1069.86
736.29	1067.28
736.62	1066.35
736.95	1055.58
737.28	1070.80
737.61	1071.73
737.94	1080.16
738.28	1084.37
738.61	1086.01
738.94	1074.77
739.27	1080.39
739.60	1074.77
739.93	1081.56
740.27	1082.26
740.60	1072.90
740.93	1069.16
741.26	1077.35
741.59	1075.71
741.92	1080.16
742.25	1084.60
742.58	1087.18
742.91	1068.92
743.25	1064.24
743.58	1062.14
743.91	1072.67
744.24	1076.88
744.57	1091.86
744.90	1097.48
745.23	1102.16
745.56	1091.39
745.89	1087.41
746.22	1087.18
746.55	1090.69
746.88	1077.82
747.21	1084.60
747.54	1083.43
747.87	1078.75
748.20	1062.14
748.53	1061.67
748.87	1059.09
749.20	1058.39
749.53	1059.56
749.86	1066.58
750.19	1068.69
750.52	1062.14
750.85	1065.65
751.18	1074.07
751.51	1071.73
751.84	1080.63
752.16	1096.78
752.49	1098.65
752.82	1090.69
753.15	1088.82
753.48	1075.48
753.81	1067.05
754.14	1065.18
754.47	1061.43
754.80	1064.01
755.13	1075.71
755.46	1073.84
755.79	1081.33
756.12	1082.03
756.45	1088.58
756.78	1092.56
757.11	1099.35
757.43	1082.50
757.76	1088.82
758.09	1087.41
758.42	1081.09
758.75	1081.56
759.08	1093.97
759.41	1093.73
759.74	1094.20
760.07	1091.39
760.39	1091.63
760.72	1091.39
761.05	1093.73
761.38	1089.05
761.71	1088.82
762.04	1091.86
762.36	1091.16
762.69	1079.69
763.02	1083.43
763.35	1082.97
763.68	1075.01
764.01	1072.20
764.33	1079.69
764.66	1075.24
764.99	1082.26
765.32	1077.82
765.65	1065.88
765.97	1064.71
766.30	1062.84
