SpectraSuite Data File
++++++++++++++++++++++++++++++++++++
Date: Mon Aug 26 10:26:15 PDT 2019
User: corrico
Dark Spectrum Present: No
Reference Spectrum Present: No
Number of Sampled Component Spectra: 1
Spectrometers: USB2+H06089
Integration Time (usec): 10000 (USB2+H06089)
Spectra Averaged: 20 (USB2+H06089)
Boxcar Smoothing: 2 (USB2+H06089)
Correct for Electrical Dark: No (USB2+H06089)
Strobe/Lamp Enabled: No (USB2+H06089)
Correct for Detector Non-linearity: No (USB2+H06089)
Correct for Stray Light: No (USB2+H06089)
Number of Pixels in Processed Spectrum: 2048
>>>>>Begin Processed Spectral Data<<<<<
339.70	1035.57
340.07	1035.57
340.45	998.87
340.82	977.10
341.19	953.51
341.57	930.11
341.94	920.46
342.31	912.43
342.69	907.68
343.06	902.72
343.43	903.10
343.81	903.10
344.18	908.50
344.55	913.79
344.93	920.93
345.30	923.93
345.67	930.92
346.04	936.52
346.42	944.50
346.79	950.49
347.16	957.26
347.54	966.27
347.91	976.03
348.28	987.31
348.65	998.10
349.03	1010.22
349.40	1019.23
349.77	1027.68
350.14	1032.01
350.52	1040.63
350.89	1044.89
351.26	1054.22
351.63	1060.24
352.01	1065.06
352.38	1068.29
352.75	1077.86
353.12	1078.40
353.50	1083.69
353.87	1087.11
354.24	1089.50
354.61	1090.13
354.98	1090.81
355.36	1091.20
355.73	1094.18
356.10	1094.86
356.47	1092.21
356.84	1094.88
357.22	1093.03
357.59	1091.72
357.96	1091.63
358.33	1091.93
358.70	1090.64
359.08	1089.29
359.45	1086.45
359.82	1088.51
360.19	1089.61
360.56	1088.98
360.94	1089.96
361.31	1090.81
361.68	1089.52
362.05	1085.99
362.42	1086.20
362.79	1083.67
363.16	1081.94
363.54	1080.18
363.91	1081.73
364.28	1077.98
364.65	1080.02
365.02	1082.22
365.39	1082.45
365.76	1084.39
366.14	1086.76
366.51	1084.18
366.88	1083.01
367.25	1081.84
367.62	1078.75
367.99	1080.77
368.36	1082.31
368.73	1081.77
369.10	1084.30
369.48	1083.43
369.85	1080.23
370.22	1080.11
370.59	1081.98
370.96	1079.46
371.33	1080.09
371.70	1082.59
372.07	1083.06
372.44	1079.57
372.81	1078.80
373.18	1076.34
373.55	1076.83
373.93	1077.25
374.30	1082.78
374.67	1083.67
375.04	1084.72
375.41	1085.24
375.78	1086.15
376.15	1084.09
376.52	1086.92
376.89	1091.86
377.26	1090.83
377.63	1088.40
378.00	1089.61
378.37	1088.89
378.74	1088.77
379.11	1085.03
379.48	1087.39
379.85	1086.24
380.22	1088.12
380.59	1086.50
380.96	1090.06
381.33	1089.40
381.70	1088.86
382.07	1086.13
382.44	1085.68
382.81	1087.41
383.18	1087.16
383.55	1088.04
383.92	1088.86
384.29	1089.73
384.66	1086.50
385.03	1089.96
385.40	1089.10
385.77	1091.27
386.14	1092.77
386.51	1095.09
386.88	1094.32
387.25	1093.59
387.62	1091.04
387.99	1088.75
388.36	1090.53
388.73	1088.70
389.10	1091.81
389.46	1093.47
389.83	1092.68
390.20	1092.73
390.57	1095.18
390.94	1093.71
391.31	1093.69
391.68	1094.83
392.05	1092.94
392.42	1088.02
392.79	1088.72
393.16	1090.78
393.53	1092.40
393.89	1092.68
394.26	1093.10
394.63	1090.85
395.00	1085.42
395.37	1080.56
395.74	1079.08
396.11	1080.27
396.48	1082.45
396.84	1086.06
397.21	1090.27
397.58	1097.71
397.95	1099.56
398.32	1101.39
398.69	1099.40
399.06	1103.94
399.42	1098.83
399.79	1097.45
400.16	1097.38
400.53	1100.96
400.90	1095.39
401.27	1093.87
401.64	1099.37
402.00	1098.25
402.37	1099.63
402.74	1099.19
403.11	1101.27
403.48	1099.86
403.84	1101.83
404.21	1098.30
404.58	1101.06
404.95	1102.06
405.32	1099.65
405.68	1098.02
406.05	1099.47
406.42	1098.23
406.79	1099.30
407.16	1099.63
407.52	1101.08
407.89	1101.15
408.26	1106.11
408.63	1106.42
408.99	1108.08
409.36	1107.33
409.73	1110.49
410.10	1109.62
410.47	1107.64
410.83	1105.39
411.20	1105.25
411.57	1102.46
411.94	1104.36
412.30	1107.14
412.67	1109.95
413.04	1111.64
413.40	1114.54
413.77	1108.57
414.14	1106.21
414.51	1107.03
414.87	1105.76
415.24	1105.41
415.61	1110.35
415.97	1113.37
416.34	1112.15
416.71	1113.16
417.08	1115.90
417.44	1114.73
417.81	1114.80
418.18	1114.63
418.54	1114.89
418.91	1114.82
419.28	1114.38
419.64	1111.29
420.01	1109.81
420.38	1110.89
420.74	1109.41
421.11	1109.95
421.48	1115.66
421.84	1119.31
422.21	1121.44
422.58	1122.87
422.94	1123.76
423.31	1120.23
423.68	1123.11
424.04	1121.73
424.41	1122.17
424.77	1125.33
425.14	1131.46
425.51	1130.67
425.87	1130.43
426.24	1127.08
426.61	1124.84
426.97	1122.12
427.34	1121.44
427.70	1120.60
428.07	1122.99
428.44	1124.25
428.80	1124.72
429.17	1124.42
429.53	1124.51
429.90	1123.93
430.27	1125.49
430.63	1124.60
431.00	1127.55
431.36	1130.08
431.73	1126.99
432.09	1125.87
432.46	1123.08
432.83	1121.28
433.19	1122.05
433.56	1127.74
433.92	1128.21
434.29	1132.05
434.65	1133.90
435.02	1133.24
435.38	1129.10
435.75	1127.74
436.11	1124.72
436.48	1123.43
436.84	1123.57
437.21	1124.16
437.57	1120.48
437.94	1120.55
438.30	1121.05
438.67	1120.02
439.03	1120.37
439.40	1121.00
439.76	1121.61
440.13	1117.84
440.49	1116.51
440.86	1116.86
441.22	1119.27
441.59	1118.73
441.95	1121.14
442.32	1120.55
442.68	1117.32
443.05	1115.62
443.41	1116.62
443.78	1113.51
444.14	1117.14
444.51	1120.74
444.87	1122.52
445.24	1123.48
445.60	1124.00
445.96	1118.87
446.33	1119.81
446.69	1119.29
447.06	1118.35
447.42	1122.26
447.79	1125.17
448.15	1125.56
448.51	1125.66
448.88	1125.98
449.24	1124.98
449.61	1125.68
449.97	1123.62
450.33	1124.02
450.70	1121.65
451.06	1119.74
451.43	1119.71
451.79	1120.09
452.15	1118.19
452.52	1121.16
452.88	1124.81
453.24	1123.53
453.61	1124.46
453.97	1128.65
454.34	1126.38
454.70	1124.77
455.06	1126.85
455.43	1126.24
455.79	1125.07
456.15	1123.64
456.52	1123.88
456.88	1122.31
457.24	1123.15
457.61	1121.70
457.97	1123.90
458.33	1122.43
458.70	1124.37
459.06	1125.68
459.42	1125.03
459.79	1125.66
460.15	1126.01
460.51	1124.28
460.88	1122.40
461.24	1125.03
461.60	1126.76
461.96	1127.81
462.33	1129.45
462.69	1130.17
463.05	1131.93
463.42	1131.60
463.78	1131.95
464.14	1131.79
464.50	1131.09
464.87	1131.32
465.23	1130.60
465.59	1132.49
465.95	1135.14
466.32	1137.31
466.68	1134.41
467.04	1140.17
467.40	1142.16
467.77	1143.61
468.13	1146.86
468.49	1152.06
468.85	1151.73
469.22	1153.28
469.58	1153.72
469.94	1154.28
470.30	1156.32
470.66	1159.17
471.03	1158.96
471.39	1163.29
471.75	1165.52
472.11	1166.73
472.47	1168.47
472.84	1172.02
473.20	1174.04
473.56	1179.79
473.92	1183.14
474.28	1185.72
474.65	1193.53
475.01	1200.46
475.37	1205.31
475.73	1211.46
476.09	1221.95
476.45	1227.17
476.81	1230.56
477.18	1235.17
477.54	1245.45
477.90	1252.26
478.26	1258.60
478.62	1268.29
478.98	1280.93
479.34	1289.28
479.71	1298.48
480.07	1312.15
480.43	1327.01
480.79	1340.26
481.15	1351.33
481.51	1364.42
481.87	1378.55
482.23	1394.77
482.59	1410.50
482.96	1429.48
483.32	1450.01
483.68	1472.24
484.04	1492.68
484.40	1512.59
484.76	1538.36
485.12	1565.23
485.48	1594.40
485.84	1619.65
486.20	1652.23
486.56	1684.27
486.92	1715.45
487.28	1748.05
487.64	1784.38
488.00	1826.95
488.37	1867.14
488.73	1909.78
489.09	1949.10
489.45	1996.92
489.81	2043.43
490.17	2098.10
490.53	2154.02
490.89	2214.19
491.25	2277.01
491.61	2344.40
491.97	2411.90
492.33	2481.06
492.69	2550.41
493.05	2627.63
493.41	2707.13
493.77	2800.03
494.13	2892.34
494.49	2988.04
494.85	3088.73
495.21	3190.10
495.57	3296.76
495.93	3413.60
496.29	3541.93
496.64	3675.39
497.00	3812.08
497.36	3950.15
497.72	4098.56
498.08	4262.86
498.44	4436.18
498.80	4624.55
499.16	4814.97
499.52	5015.30
499.88	5223.14
500.24	5425.92
500.60	5634.35
500.96	5859.81
501.32	6074.79
501.68	6296.70
502.03	6552.33
502.39	6818.26
502.75	7115.13
503.11	7455.75
503.47	7790.50
503.83	8146.14
504.19	8510.21
504.55	8886.29
504.91	9251.79
505.26	9633.46
505.62	10053.82
505.98	10515.49
506.34	10964.73
506.70	11463.62
507.06	12032.04
507.42	12585.36
507.78	13152.78
508.13	13818.03
508.49	14482.16
508.85	15139.08
509.21	15841.87
509.57	16594.37
509.93	17286.19
510.28	18000.01
510.64	18803.75
511.00	19584.92
511.36	20383.21
511.72	21276.94
512.07	22270.24
512.43	23245.55
512.79	24300.03
513.15	25371.10
513.51	26379.24
513.86	27338.21
514.22	28435.54
514.58	29564.64
514.94	30645.80
515.30	31844.84
515.65	33160.87
516.01	34339.38
516.37	35502.09
516.73	36720.71
517.08	37792.96
517.44	38739.63
517.80	39763.15
518.16	40751.65
518.51	41742.71
518.87	42834.45
519.23	44013.63
519.59	45139.62
519.94	46276.74
520.30	47387.05
520.66	48289.30
521.01	49113.82
521.37	49958.48
521.73	50636.11
522.09	51215.91
522.44	51943.35
522.80	52517.99
523.16	52839.26
523.51	53124.99
523.87	53473.75
524.23	53785.72
524.58	54009.20
524.94	54324.33
525.30	54640.77
525.65	54779.02
526.01	54808.42
526.37	55005.37
526.72	55193.27
527.08	55260.00
527.44	55244.86
527.79	55180.47
528.15	54970.01
528.51	54699.86
528.86	54501.39
529.22	54198.90
529.58	53788.41
529.93	53382.75
530.29	52794.41
530.65	52210.82
531.00	51748.03
531.36	51166.36
531.71	50518.99
532.07	49931.33
532.43	49117.78
532.78	48187.37
533.14	47473.74
533.49	46726.03
533.85	46033.24
534.21	45519.86
534.56	45080.57
534.92	44391.65
535.27	43650.90
535.63	42798.10
535.98	41873.26
536.34	40883.54
536.69	40016.96
537.05	39220.33
537.41	38491.07
537.76	37790.57
538.12	36997.53
538.47	36245.72
538.83	35601.49
539.18	34939.28
539.54	34200.96
539.89	33669.43
540.25	33190.53
540.60	32608.62
540.96	31899.91
541.31	31310.87
541.67	30819.94
542.02	30251.87
542.38	29708.75
542.73	29193.74
543.09	28623.51
543.44	27943.75
543.80	27345.63
544.15	26741.49
544.51	26317.57
544.86	25888.99
545.22	25490.49
545.57	25012.65
545.93	24484.51
546.28	23936.85
546.64	23488.17
546.99	23016.90
547.35	22579.69
547.70	22163.96
548.05	21709.08
548.41	21242.73
548.76	20726.43
549.12	20232.46
549.47	19808.77
549.83	19441.71
550.18	19034.34
550.53	18655.75
550.89	18244.31
551.24	17794.41
551.60	17381.45
551.95	16982.95
552.30	16660.28
552.66	16382.81
553.01	16106.37
553.37	15774.04
553.72	15452.97
554.07	15093.27
554.43	14735.08
554.78	14394.34
555.13	14079.02
555.49	13694.69
555.84	13345.88
556.19	12997.42
556.55	12645.89
556.90	12298.65
557.26	12067.43
557.61	11833.98
557.96	11593.31
558.32	11347.81
558.67	11088.73
559.02	10795.21
559.37	10510.20
559.73	10279.38
560.08	10063.06
560.43	9831.37
560.79	9611.18
561.14	9379.42
561.49	9133.80
561.85	8914.70
562.20	8740.66
562.55	8573.45
562.90	8399.71
563.26	8237.02
563.61	8069.49
563.96	7861.30
564.32	7640.56
564.67	7449.90
565.02	7285.83
565.37	7140.48
565.73	6989.92
566.08	6854.07
566.43	6708.09
566.78	6533.32
567.14	6356.01
567.49	6225.82
567.84	6090.07
568.19	5958.21
568.54	5851.88
568.90	5753.46
569.25	5644.62
569.60	5538.95
569.95	5454.38
570.31	5359.64
570.66	5251.13
571.01	5142.65
571.36	5049.31
571.71	4944.52
572.06	4835.29
572.42	4743.14
572.77	4650.81
573.12	4558.92
573.47	4468.18
573.82	4400.35
574.18	4329.97
574.53	4256.26
574.88	4190.85
575.23	4117.87
575.58	4029.33
575.93	3945.63
576.28	3864.36
576.64	3786.24
576.99	3711.22
577.34	3634.50
577.69	3556.61
578.04	3484.33
578.39	3411.14
578.74	3343.34
579.09	3283.94
579.44	3217.25
579.80	3162.20
580.15	3108.02
580.50	3053.23
580.85	2998.46
581.20	2954.81
581.55	2903.18
581.90	2854.94
582.25	2811.71
582.60	2767.73
582.95	2726.37
583.30	2688.18
583.65	2646.87
584.00	2603.21
584.35	2566.12
584.71	2529.32
585.06	2490.80
585.41	2454.82
585.76	2423.27
586.11	2390.65
586.46	2351.16
586.81	2312.66
587.16	2281.55
587.51	2250.19
587.86	2225.01
588.21	2199.85
588.56	2177.85
588.91	2147.04
589.26	2127.06
589.61	2098.55
589.96	2072.73
590.31	2049.21
590.66	2028.00
591.01	1999.12
591.36	1974.71
591.71	1947.58
592.06	1921.35
592.41	1898.64
592.76	1877.11
593.10	1856.26
593.45	1843.17
593.80	1826.60
594.15	1810.78
594.50	1797.95
594.85	1779.56
595.20	1760.29
595.55	1742.62
595.90	1726.15
596.25	1708.29
596.60	1695.69
596.95	1681.02
597.30	1668.99
597.64	1707.16
597.99	1696.89
598.34	1681.56
598.69	1669.53
599.04	1654.08
599.39	1588.80
599.74	1572.51
600.09	1562.21
600.44	1554.05
600.78	1548.62
601.13	1540.77
601.48	1535.44
601.83	1523.62
602.18	1506.56
602.53	1492.77
602.88	1480.39
603.22	1464.89
603.57	1457.50
603.92	1451.04
604.27	1443.01
604.62	1437.49
604.97	1430.84
605.31	1422.46
605.66	1416.40
606.01	1409.47
606.36	1399.78
606.71	1391.78
607.05	1386.74
607.40	1379.56
607.75	1371.37
608.10	1366.80
608.44	1359.43
608.79	1350.30
609.14	1343.19
609.49	1338.11
609.84	1332.91
610.18	1328.09
610.53	1326.85
610.88	1322.47
611.23	1320.04
611.57	1313.81
611.92	1309.39
612.27	1300.85
612.62	1296.98
612.96	1287.13
613.31	1283.83
613.66	1279.55
614.00	1275.83
614.35	1269.81
614.70	1265.08
615.05	1260.26
615.39	1258.11
615.74	1253.82
616.09	1248.86
616.43	1247.58
616.78	1241.86
617.13	1237.72
617.47	1233.23
617.82	1230.89
618.17	1228.50
618.51	1225.95
618.86	1219.11
619.21	1219.28
619.55	1217.80
619.90	1216.59
620.25	1213.59
620.59	1212.02
620.94	1208.07
621.29	1205.59
621.63	1202.22
621.98	1199.50
622.32	1196.41
622.67	1193.44
623.02	1188.83
623.36	1185.18
623.71	1182.53
624.05	1182.49
624.40	1179.28
624.75	1176.10
625.09	1174.90
625.44	1171.67
625.78	1165.87
626.13	1163.74
626.48	1165.12
626.82	1160.60
627.17	1161.56
627.51	1163.20
627.86	1159.43
628.20	1159.03
628.55	1159.01
628.89	1159.67
629.24	1155.19
629.58	1158.21
629.93	1153.44
630.28	1152.34
630.62	1149.46
630.97	1152.95
631.31	1150.98
631.66	1152.83
632.00	1152.67
632.35	1149.76
632.69	1148.50
633.04	1148.03
633.38	1144.26
633.73	1140.64
634.07	1140.47
634.42	1137.62
634.76	1132.00
635.11	1131.13
635.45	1129.71
635.79	1129.19
636.14	1128.84
636.48	1132.07
636.83	1129.75
637.17	1130.64
637.52	1130.03
637.86	1130.46
638.21	1130.06
638.55	1130.74
638.89	1129.12
639.24	1127.76
639.58	1127.23
639.93	1126.99
640.27	1127.72
640.61	1127.46
640.96	1124.51
641.30	1123.48
641.65	1119.99
641.99	1121.02
642.33	1120.06
642.68	1119.48
643.02	1116.18
643.37	1113.95
643.71	1110.77
644.05	1107.10
644.40	1108.55
644.74	1108.85
645.08	1111.24
645.43	1112.60
645.77	1111.45
646.11	1110.23
646.46	1109.46
646.80	1109.79
647.14	1105.79
647.49	1108.85
647.83	1108.01
648.17	1109.02
648.52	1108.10
648.86	1108.29
649.20	1111.92
649.55	1110.65
649.89	1110.16
650.23	1108.83
650.57	1108.69
650.92	1100.47
651.26	1105.32
651.60	1105.44
651.95	1104.94
652.29	1103.14
652.63	1105.04
652.97	1101.78
653.32	1101.60
653.66	1102.70
654.00	1104.01
654.34	1105.55
654.69	1103.33
655.03	1102.44
655.37	1103.80
655.71	1103.47
656.05	1104.76
656.40	1106.21
656.74	1105.90
657.08	1103.80
657.42	1105.88
657.76	1105.83
658.11	1104.33
658.45	1102.02
658.79	1101.90
659.13	1101.01
659.47	1100.38
659.82	1102.46
660.16	1104.22
660.50	1104.22
660.84	1102.18
661.18	1101.50
661.52	1102.13
661.87	1101.34
662.21	1100.00
662.55	1101.55
662.89	1099.05
663.23	1096.78
663.57	1096.82
663.91	1099.19
664.25	1100.43
664.60	1103.84
664.94	1100.59
665.28	1099.61
665.62	1096.59
665.96	1096.14
666.30	1094.86
666.64	1096.10
666.98	1096.33
667.32	1092.66
667.66	1088.61
668.01	1086.76
668.35	1090.71
668.69	1088.07
669.03	1094.69
669.37	1096.75
669.71	1099.09
670.05	1096.28
670.39	1098.23
670.73	1095.63
671.07	1095.63
671.41	1096.10
671.75	1097.34
672.09	1100.92
672.43	1101.78
672.77	1101.08
673.11	1098.79
673.45	1098.60
673.79	1094.81
674.13	1094.74
674.47	1095.14
674.81	1097.01
675.15	1097.83
675.49	1098.18
675.83	1099.44
676.17	1100.29
676.51	1103.00
676.85	1100.50
677.19	1101.53
677.53	1100.82
677.87	1102.56
678.21	1098.81
678.55	1098.06
678.89	1098.41
679.23	1098.46
679.57	1094.72
679.90	1093.80
680.24	1095.21
680.58	1094.32
680.92	1094.79
681.26	1096.94
681.60	1097.66
681.94	1101.01
682.28	1103.31
682.62	1101.15
682.96	1099.56
683.29	1101.64
683.63	1100.43
683.97	1097.57
684.31	1099.93
684.65	1100.29
684.99	1099.21
685.33	1093.24
685.67	1094.04
686.00	1093.29
686.34	1092.70
686.68	1091.91
687.02	1094.20
687.36	1092.77
687.70	1093.85
688.03	1089.38
688.37	1085.66
688.71	1086.76
689.05	1085.49
689.39	1083.90
689.72	1090.55
690.06	1093.50
690.40	1092.16
690.74	1093.36
691.08	1091.46
691.41	1091.91
691.75	1091.18
692.09	1094.01
692.43	1097.64
692.76	1098.11
693.10	1095.93
693.44	1097.48
693.78	1097.57
694.11	1097.43
694.45	1096.47
694.79	1098.95
695.13	1094.90
695.46	1092.28
695.80	1092.52
696.14	1093.22
696.48	1091.77
696.81	1095.72
697.15	1095.79
697.49	1092.37
697.82	1091.51
698.16	1088.35
698.50	1087.93
698.83	1089.59
699.17	1088.98
699.51	1092.33
699.84	1094.11
700.18	1095.07
700.52	1094.04
700.85	1094.39
701.19	1093.38
701.53	1093.71
701.86	1092.30
702.20	1090.71
702.54	1092.49
702.87	1090.81
703.21	1089.71
703.55	1087.27
703.88	1089.71
704.22	1086.94
704.55	1088.33
704.89	1089.82
705.23	1089.47
705.56	1088.09
705.90	1089.82
706.23	1088.26
706.57	1088.26
706.91	1089.33
707.24	1091.91
707.58	1092.80
707.91	1091.30
708.25	1091.46
708.58	1093.08
708.92	1092.91
709.26	1094.08
709.59	1095.42
709.93	1093.05
710.26	1092.84
710.60	1091.74
710.93	1091.86
711.27	1093.90
711.60	1095.51
711.94	1094.32
712.27	1094.18
712.61	1092.66
712.94	1091.98
713.28	1094.43
713.61	1095.16
713.95	1095.04
714.28	1093.71
714.62	1095.25
714.95	1092.23
715.29	1093.92
715.62	1095.46
715.96	1094.06
716.29	1089.92
716.63	1093.99
716.96	1093.12
717.29	1092.02
717.63	1090.83
717.96	1093.33
718.30	1089.00
718.63	1089.80
718.97	1091.84
719.30	1095.72
719.63	1092.00
719.97	1092.37
720.30	1088.82
720.64	1086.29
720.97	1085.77
721.30	1088.72
721.64	1087.79
721.97	1090.15
722.31	1089.57
722.64	1086.38
722.97	1086.69
723.31	1085.84
723.64	1086.24
723.97	1085.10
724.31	1088.75
724.64	1086.78
724.98	1089.50
725.31	1089.10
725.64	1091.39
725.98	1089.40
726.31	1094.60
726.64	1095.16
726.97	1092.23
727.31	1089.22
727.64	1091.53
727.97	1088.04
728.31	1088.23
728.64	1091.34
728.97	1093.50
729.31	1091.98
729.64	1092.30
729.97	1087.95
730.30	1088.23
730.64	1084.11
730.97	1081.12
731.30	1079.06
731.63	1080.77
731.97	1080.30
732.30	1086.48
732.63	1088.47
732.96	1087.48
733.30	1087.09
733.63	1087.18
733.96	1085.82
734.29	1087.55
734.63	1086.76
734.96	1088.84
735.29	1085.73
735.62	1083.29
735.95	1083.53
736.29	1087.02
736.62	1088.07
736.95	1091.34
737.28	1090.67
737.61	1090.13
737.94	1089.94
738.28	1089.50
738.61	1090.06
738.94	1090.36
739.27	1088.98
739.60	1088.54
739.93	1087.86
740.27	1086.64
740.60	1087.62
740.93	1089.80
741.26	1091.95
741.59	1090.39
741.92	1090.99
742.25	1093.73
742.58	1092.21
742.91	1091.20
743.25	1091.04
743.58	1089.54
743.91	1086.06
744.24	1083.20
744.57	1081.26
744.90	1080.84
745.23	1083.08
745.56	1085.28
745.89	1091.20
746.22	1093.40
746.55	1094.22
746.88	1092.73
747.21	1090.92
747.54	1088.79
747.87	1087.25
748.20	1086.03
748.53	1085.99
748.87	1085.56
749.20	1082.83
749.53	1083.11
749.86	1083.60
750.19	1083.83
750.52	1086.66
750.85	1089.29
751.18	1090.41
751.51	1091.39
751.84	1090.88
752.16	1086.43
752.49	1087.81
752.82	1088.30
753.15	1090.32
753.48	1091.86
753.81	1095.21
754.14	1090.81
754.47	1090.60
754.80	1089.47
755.13	1087.69
755.46	1086.55
755.79	1088.93
756.12	1089.17
756.45	1089.36
756.78	1087.41
757.11	1087.18
757.43	1087.69
757.76	1085.73
758.09	1083.04
758.42	1084.81
758.75	1086.10
759.08	1085.66
759.41	1084.63
759.74	1088.44
760.07	1088.70
760.39	1091.02
760.72	1090.97
761.05	1089.10
761.38	1087.06
761.71	1088.28
762.04	1086.01
762.36	1084.98
762.69	1088.54
763.02	1087.86
