SpectraSuite Data File
++++++++++++++++++++++++++++++++++++
Date: Mon Aug 26 10:26:11 PDT 2019
User: corrico
Dark Spectrum Present: No
Reference Spectrum Present: No
Number of Sampled Component Spectra: 1
Spectrometers: USB2+H06089
Integration Time (usec): 10000 (USB2+H06089)
Spectra Averaged: 20 (USB2+H06089)
Boxcar Smoothing: 2 (USB2+H06089)
Correct for Electrical Dark: No (USB2+H06089)
Strobe/Lamp Enabled: No (USB2+H06089)
Correct for Detector Non-linearity: No (USB2+H06089)
Correct for Stray Light: No (USB2+H06089)
Number of Pixels in Processed Spectrum: 2048
>>>>>Begin Processed Spectral Data<<<<<
339.70	1033.35
340.07	1033.35
340.45	998.89
340.82	976.17
341.19	955.17
341.57	930.13
341.94	919.46
342.31	913.65
342.69	910.19
343.06	905.34
343.43	903.45
343.81	901.36
344.18	904.10
344.55	907.31
344.93	909.72
345.30	913.82
345.67	919.71
346.04	926.52
346.42	935.70
346.79	946.02
347.16	955.71
347.54	967.76
347.91	974.46
348.28	985.86
348.65	998.24
349.03	1010.99
349.40	1020.12
349.77	1032.71
350.14	1040.79
350.52	1046.62
350.89	1055.42
351.26	1061.41
351.63	1068.48
352.01	1065.88
352.38	1069.88
352.75	1071.47
353.12	1076.13
353.50	1079.99
353.87	1090.76
354.24	1095.60
354.61	1098.72
354.98	1099.91
355.36	1093.19
355.73	1092.49
356.10	1088.79
356.47	1089.92
356.84	1092.49
357.22	1097.48
357.59	1095.82
357.96	1096.19
358.33	1091.16
358.70	1089.47
359.08	1088.72
359.45	1091.20
359.82	1091.98
360.19	1092.59
360.56	1092.26
360.94	1091.65
361.31	1089.66
361.68	1086.62
362.05	1087.44
362.42	1085.42
362.79	1085.28
363.16	1083.29
363.54	1088.91
363.91	1089.66
364.28	1090.27
364.65	1089.66
365.02	1088.63
365.39	1081.58
365.76	1077.16
366.14	1076.53
366.51	1074.63
366.88	1074.77
367.25	1077.18
367.62	1081.00
367.99	1083.36
368.36	1084.51
368.73	1088.56
369.10	1091.16
369.48	1090.24
369.85	1087.23
370.22	1085.12
370.59	1083.88
370.96	1081.02
371.33	1080.04
371.70	1080.02
372.07	1082.47
372.44	1081.40
372.81	1080.81
373.18	1082.10
373.55	1080.72
373.93	1079.57
374.30	1078.61
374.67	1082.08
375.04	1082.17
375.41	1085.10
375.78	1086.92
376.15	1087.58
376.52	1084.37
376.89	1082.97
377.26	1082.29
377.63	1085.21
378.00	1085.54
378.37	1090.32
378.74	1093.05
379.11	1093.52
379.48	1094.18
379.85	1093.87
380.22	1091.20
380.59	1090.32
380.96	1091.79
381.33	1089.29
381.70	1090.55
382.07	1091.06
382.44	1092.91
382.81	1093.66
383.18	1093.69
383.55	1095.42
383.92	1095.11
384.29	1093.19
384.66	1090.90
385.03	1091.02
385.40	1087.81
385.77	1088.56
386.14	1088.00
386.51	1090.22
386.88	1088.19
387.25	1087.67
387.62	1085.54
387.99	1088.33
388.36	1085.54
388.73	1086.62
389.10	1087.76
389.46	1091.16
389.83	1089.00
390.20	1090.41
390.57	1091.51
390.94	1098.11
391.31	1094.06
391.68	1094.25
392.05	1092.40
392.42	1092.59
392.79	1087.72
393.16	1091.39
393.53	1089.52
393.89	1091.84
394.26	1092.42
394.63	1095.77
395.00	1096.49
395.37	1103.23
395.74	1103.26
396.11	1103.54
396.48	1098.41
396.84	1096.75
397.21	1092.98
397.58	1094.41
397.95	1095.63
398.32	1096.85
398.69	1097.90
399.06	1099.26
399.42	1100.10
399.79	1098.74
400.16	1097.52
400.53	1098.76
400.90	1096.80
401.27	1095.23
401.64	1097.03
402.00	1097.43
402.37	1095.35
402.74	1097.36
403.11	1100.78
403.48	1097.64
403.84	1101.55
404.21	1100.45
404.58	1100.00
404.95	1095.60
405.32	1098.20
405.68	1099.26
406.05	1103.05
406.42	1104.33
406.79	1105.97
407.16	1106.68
407.52	1106.98
407.89	1108.48
408.26	1110.40
408.63	1114.56
408.99	1115.43
409.36	1111.01
409.73	1110.96
410.10	1108.24
410.47	1106.86
410.83	1107.82
411.20	1109.32
411.57	1108.22
411.94	1108.71
412.30	1109.72
412.67	1110.37
413.04	1116.37
413.40	1119.90
413.77	1121.58
414.14	1120.02
414.51	1121.49
414.87	1117.58
415.24	1117.96
415.61	1120.20
415.97	1122.12
416.34	1120.58
416.71	1123.01
417.08	1124.25
417.44	1123.08
417.81	1120.79
418.18	1123.25
418.54	1124.51
418.91	1124.11
419.28	1122.90
419.64	1125.14
420.01	1126.66
420.38	1124.42
420.74	1126.06
421.11	1130.97
421.48	1132.91
421.84	1126.97
422.21	1132.16
422.58	1130.53
422.94	1129.61
423.31	1130.71
423.68	1134.25
424.04	1132.05
424.41	1135.74
424.77	1132.70
425.14	1132.63
425.51	1134.34
425.87	1133.71
426.24	1130.53
426.61	1134.48
426.97	1136.59
427.34	1135.70
427.70	1138.13
428.07	1136.99
428.44	1136.31
428.80	1135.91
429.17	1134.57
429.53	1133.54
429.90	1135.28
430.27	1135.23
430.63	1131.93
431.00	1132.42
431.36	1132.23
431.73	1134.48
432.09	1135.65
432.46	1138.02
432.83	1140.10
433.19	1141.46
433.56	1138.69
433.92	1139.21
434.29	1138.13
434.65	1138.23
435.02	1136.49
435.38	1138.18
435.75	1139.33
436.11	1139.79
436.48	1138.48
436.84	1136.85
437.21	1135.16
437.57	1134.22
437.94	1136.10
438.30	1139.21
438.67	1139.54
439.03	1139.56
439.40	1137.62
439.76	1133.54
440.13	1130.22
440.49	1131.72
440.86	1130.90
441.22	1129.92
441.59	1132.63
441.95	1134.64
442.32	1133.52
442.68	1135.96
443.05	1138.39
443.41	1139.19
443.78	1136.14
444.14	1135.16
444.51	1135.28
444.87	1133.97
445.24	1129.43
445.60	1127.25
445.96	1128.26
446.33	1126.17
446.69	1125.98
447.06	1126.13
447.42	1133.62
447.79	1136.24
448.15	1137.43
448.51	1135.44
448.88	1137.50
449.24	1131.84
449.61	1132.94
449.97	1133.38
450.33	1135.67
450.70	1133.43
451.06	1136.21
451.43	1131.84
451.79	1130.08
452.15	1127.53
452.52	1131.30
452.88	1131.02
453.24	1131.86
453.61	1129.33
453.97	1130.64
454.34	1127.46
454.70	1128.30
455.06	1128.21
455.43	1131.95
455.79	1134.29
456.15	1134.20
456.52	1129.94
456.88	1127.86
457.24	1124.37
457.61	1121.65
457.97	1123.27
458.33	1126.97
458.70	1129.14
459.06	1131.72
459.42	1134.22
459.79	1135.79
460.15	1135.82
460.51	1138.37
460.88	1137.50
461.24	1134.81
461.60	1137.64
461.96	1139.91
462.33	1136.66
462.69	1135.11
463.05	1140.24
463.42	1138.79
463.78	1137.10
464.14	1143.09
464.50	1145.74
464.87	1142.20
465.23	1141.25
465.59	1142.02
465.95	1140.10
466.32	1145.48
466.68	1149.34
467.04	1153.14
467.40	1156.97
467.77	1162.43
468.13	1162.92
468.49	1168.23
468.85	1168.77
469.22	1172.58
469.58	1170.31
469.94	1174.79
470.30	1176.61
470.66	1183.05
471.03	1182.46
471.39	1187.45
471.75	1192.46
472.11	1196.55
472.47	1201.51
472.84	1207.06
473.20	1212.05
473.56	1215.98
473.92	1219.56
474.28	1225.95
474.65	1235.17
475.01	1242.01
475.37	1248.54
475.73	1257.48
476.09	1262.37
476.45	1268.24
476.81	1278.12
477.18	1285.14
477.54	1294.60
477.90	1306.70
478.26	1319.95
478.62	1333.87
478.98	1353.16
479.34	1368.02
479.71	1382.30
480.07	1397.86
480.43	1413.31
480.79	1425.62
481.15	1447.46
481.51	1470.23
481.87	1495.60
482.23	1518.31
482.59	1545.06
482.96	1568.16
483.32	1588.36
483.68	1611.18
484.04	1639.22
484.40	1668.99
484.76	1704.17
485.12	1748.87
485.48	1793.88
485.84	1843.03
486.20	1888.70
486.56	1931.88
486.92	1979.41
487.28	2030.04
487.64	2076.45
488.00	2132.63
488.37	2190.04
488.73	2243.94
489.09	2300.51
489.45	2365.84
489.81	2430.88
490.17	2506.29
490.53	2588.47
490.89	2669.59
491.25	2749.12
491.61	2836.38
491.97	2928.22
492.33	3019.88
492.69	3114.90
493.05	3233.64
493.41	3359.77
493.77	3489.62
494.13	3625.86
494.49	3778.96
494.85	3925.29
495.21	4071.81
495.57	4223.71
495.93	4386.96
496.29	4542.77
496.64	4734.06
497.00	4922.26
497.36	5128.44
497.72	5352.15
498.08	5600.15
498.44	5843.52
498.80	6099.83
499.16	6349.97
499.52	6604.69
499.88	6860.37
500.24	7127.07
500.60	7410.02
500.96	7727.56
501.32	8036.14
501.68	8383.99
502.03	8770.88
502.39	9187.56
502.75	9633.25
503.11	10143.65
503.47	10671.16
503.83	11182.31
504.19	11712.02
504.55	12247.91
504.91	12759.01
505.26	13280.62
505.62	13883.50
505.98	14506.59
506.34	15126.02
506.70	15838.08
507.06	16615.30
507.42	17414.92
507.78	18291.92
508.13	19240.96
508.49	20211.56
508.85	21185.01
509.21	22167.64
509.57	23200.09
509.93	24263.65
510.28	25350.62
510.64	26479.39
511.00	27586.65
511.36	28704.00
511.72	29854.63
512.07	31121.89
512.43	32355.47
512.79	33735.05
513.15	35154.24
513.51	36623.16
513.86	38073.31
514.22	39714.23
514.58	41441.13
514.94	43114.80
515.30	44719.94
515.65	46228.08
516.01	47682.54
516.37	48998.79
516.73	50340.24
517.08	51630.88
517.44	52923.49
517.80	54137.55
518.16	55182.90
518.51	56186.10
518.87	57162.34
519.23	58099.77
519.59	58931.01
519.94	59805.58
520.30	60547.72
520.66	61135.42
521.01	61648.26
521.37	62123.83
521.73	62469.39
522.09	62770.15
522.44	63153.01
522.80	63423.49
523.16	63648.50
523.51	63850.87
523.87	64014.73
524.23	64138.19
524.58	64261.30
524.94	64339.13
525.30	64407.92
525.65	64477.01
526.01	64529.18
526.37	64605.41
526.72	64658.61
527.08	64687.59
527.44	64660.58
527.79	64595.02
528.15	64514.27
528.51	64474.97
528.86	64481.97
529.22	64466.24
529.58	64401.53
529.93	64289.74
530.29	64013.79
530.65	63639.61
531.00	63350.77
531.36	62980.38
531.71	62558.92
532.07	62117.65
532.43	61620.43
532.78	60974.14
533.14	60416.41
533.49	59886.91
533.85	59445.18
534.21	59026.58
534.56	58620.36
534.92	58075.50
535.27	57416.71
535.63	56665.28
535.98	55869.29
536.34	55070.28
536.69	54376.61
537.05	53671.36
537.41	53000.33
537.76	52357.90
538.12	51510.23
538.47	50619.42
538.83	49851.37
539.18	49015.31
539.54	48041.60
539.89	47329.61
540.25	46682.45
540.60	45876.63
540.96	44966.56
541.31	44175.79
541.67	43402.59
542.02	42439.83
542.38	41569.67
542.73	40748.75
543.09	39911.52
543.44	39035.22
543.80	38329.92
544.15	37625.31
544.51	37070.48
544.86	36511.49
545.22	35917.23
545.57	35201.19
545.93	34370.72
546.28	33549.99
546.64	32828.66
546.99	32054.17
547.35	31381.18
547.70	30816.41
548.05	30213.76
548.41	29547.30
548.76	28939.23
549.12	28386.23
549.47	27880.86
549.83	27471.90
550.18	27061.58
550.53	26590.55
550.89	26060.23
551.24	25426.50
551.60	24763.15
551.95	24156.08
552.30	23632.06
552.66	23091.82
553.01	22655.66
553.37	22180.93
553.72	21675.82
554.07	21154.42
554.43	20653.19
554.78	20111.90
555.13	19575.61
555.49	18992.91
555.84	18452.97
556.19	17875.96
556.55	17348.80
556.90	16881.65
557.26	16577.87
557.61	16255.04
557.96	15935.98
558.32	15624.78
558.67	15272.25
559.02	14817.07
559.37	14415.52
559.73	14124.38
560.08	13819.13
560.43	13503.53
560.79	13210.12
561.14	12860.00
561.49	12491.60
561.85	12149.07
562.20	11840.86
562.55	11568.64
562.90	11338.02
563.26	11104.41
563.61	10871.51
563.96	10600.43
564.32	10302.99
564.67	10018.99
565.02	9751.63
565.37	9535.06
565.73	9325.84
566.08	9124.20
566.43	8903.94
566.78	8675.99
567.14	8440.46
567.49	8254.11
567.84	8085.29
568.19	7906.03
568.54	7751.13
568.90	7591.22
569.25	7420.88
569.60	7260.18
569.95	7138.49
570.31	6997.92
570.66	6855.57
571.01	6728.22
571.36	6599.87
571.71	6464.70
572.06	6349.01
572.42	6224.44
572.77	6087.43
573.12	5957.30
573.47	5836.01
573.82	5714.58
574.18	5605.35
574.53	5503.23
574.88	5402.45
575.23	5291.62
575.58	5185.06
575.93	5071.26
576.28	4954.87
576.64	4846.78
576.99	4732.05
577.34	4612.12
577.69	4509.46
578.04	4418.51
578.39	4314.96
578.74	4237.70
579.09	4175.35
579.44	4087.68
579.80	3999.98
580.15	3927.72
580.50	3852.17
580.85	3773.04
581.20	3716.63
581.55	3656.06
581.90	3601.57
582.25	3541.44
582.60	3473.40
582.95	3402.74
583.30	3339.78
583.65	3277.64
584.00	3210.58
584.35	3156.40
584.71	3097.30
585.06	3041.57
585.41	2982.38
585.76	2937.40
586.11	2881.64
586.46	2831.53
586.81	2779.34
587.16	2734.52
587.51	2692.67
587.86	2655.83
588.21	2623.95
588.56	2591.93
588.91	2555.51
589.26	2516.80
589.61	2482.28
589.96	2447.87
590.31	2413.51
590.66	2375.88
591.01	2351.02
591.36	2327.43
591.71	2292.62
592.06	2269.06
592.41	2244.08
592.76	2213.98
593.10	2182.06
593.45	2161.65
593.80	2134.22
594.15	2107.77
594.50	2075.14
594.85	2047.50
595.20	2020.91
595.55	1994.37
595.90	1972.84
596.25	1957.06
596.60	1937.54
596.95	1916.34
597.30	1896.82
597.64	1930.31
597.99	1907.30
598.34	1889.26
598.69	1873.72
599.04	1856.42
599.39	1786.16
599.74	1768.63
600.09	1750.14
600.44	1734.41
600.78	1719.43
601.13	1706.79
601.48	1696.54
601.83	1681.60
602.18	1667.05
602.53	1652.79
602.88	1637.35
603.22	1622.39
603.57	1610.17
603.92	1596.13
604.27	1583.68
604.62	1571.95
604.97	1558.24
605.31	1550.23
605.66	1535.72
606.01	1528.11
606.36	1520.13
606.71	1515.05
607.05	1501.78
607.40	1498.74
607.75	1485.35
608.10	1473.53
608.44	1463.51
608.79	1453.24
609.14	1438.19
609.49	1430.35
609.84	1424.94
610.18	1415.98
610.53	1411.13
610.88	1408.30
611.23	1406.90
611.57	1403.85
611.92	1399.48
612.27	1391.96
612.62	1383.94
612.96	1375.72
613.31	1361.82
613.66	1350.70
614.00	1342.98
614.35	1338.48
614.70	1329.66
615.05	1325.19
615.39	1321.79
615.74	1318.52
616.09	1309.88
616.43	1300.50
616.78	1293.85
617.13	1286.03
617.47	1281.30
617.82	1276.50
618.17	1277.39
618.51	1274.33
618.86	1273.88
619.21	1268.15
619.55	1263.56
619.90	1258.41
620.25	1255.30
620.59	1250.69
620.94	1247.83
621.29	1247.69
621.63	1243.06
621.98	1241.54
622.32	1235.78
622.67	1236.34
623.02	1230.14
623.36	1229.34
623.71	1225.29
624.05	1222.88
624.40	1216.82
624.75	1214.46
625.09	1210.15
625.44	1208.35
625.78	1205.12
626.13	1202.87
626.48	1199.85
626.82	1195.43
627.17	1192.57
627.51	1192.92
627.86	1190.26
628.20	1188.36
628.55	1187.61
628.89	1181.78
629.24	1181.34
629.58	1177.27
629.93	1178.55
630.28	1178.55
630.62	1174.95
630.97	1169.57
631.31	1170.67
631.66	1165.52
632.00	1163.15
632.35	1167.11
632.69	1167.46
633.04	1163.60
633.38	1163.71
633.73	1163.27
634.07	1157.44
634.42	1154.31
634.76	1153.81
635.11	1154.84
635.45	1151.47
635.79	1153.25
636.14	1149.81
636.48	1146.58
636.83	1142.16
637.17	1139.65
637.52	1137.03
637.86	1136.05
638.21	1136.59
638.55	1136.82
638.89	1137.50
639.24	1137.01
639.58	1136.52
639.93	1134.41
640.27	1131.86
640.61	1132.37
640.96	1134.62
641.30	1135.56
641.65	1137.45
641.99	1136.59
642.33	1133.87
642.68	1129.78
643.02	1131.16
643.37	1128.58
643.71	1127.25
644.05	1126.34
644.40	1125.96
644.74	1123.76
645.08	1123.15
645.43	1121.16
645.77	1119.53
646.11	1117.65
646.46	1116.51
646.80	1116.15
647.14	1116.46
647.49	1119.06
647.83	1119.76
648.17	1117.58
648.52	1119.43
648.86	1121.07
649.20	1122.08
649.55	1120.86
649.89	1122.97
650.23	1120.09
650.57	1118.00
650.92	1113.39
651.26	1113.23
651.60	1111.15
651.95	1110.77
652.29	1112.39
652.63	1109.23
652.97	1109.27
653.32	1110.98
653.66	1110.65
654.00	1109.23
654.34	1114.12
654.69	1112.36
655.03	1110.26
655.37	1110.12
655.71	1109.65
656.05	1106.72
656.40	1107.10
656.74	1106.56
657.08	1105.88
657.42	1106.25
657.76	1106.70
658.11	1105.15
658.45	1105.13
658.79	1106.25
659.13	1105.81
659.47	1104.52
659.82	1106.11
660.16	1106.11
660.50	1104.03
660.84	1101.60
661.18	1099.40
661.52	1098.13
661.87	1099.21
662.21	1100.05
662.55	1098.83
662.89	1102.70
663.23	1103.45
663.57	1102.02
663.91	1099.47
664.25	1099.93
664.60	1098.34
664.94	1097.83
665.28	1098.25
665.62	1102.88
665.96	1105.11
666.30	1105.06
666.64	1105.39
666.98	1106.46
667.32	1103.40
667.66	1101.34
668.01	1098.95
668.35	1101.48
668.69	1098.95
669.03	1100.33
669.37	1102.72
669.71	1106.44
670.05	1102.23
670.39	1102.25
670.73	1103.23
671.07	1101.76
671.41	1097.29
671.75	1097.31
672.09	1095.25
672.43	1093.59
672.77	1093.97
673.11	1097.69
673.45	1097.13
673.79	1102.63
674.13	1100.82
674.47	1106.04
674.81	1105.44
675.15	1106.30
675.49	1102.81
675.83	1103.00
676.17	1096.68
676.51	1098.86
676.85	1099.61
677.19	1099.47
677.53	1098.44
677.87	1097.10
678.21	1096.45
678.55	1092.73
678.89	1090.34
679.23	1093.62
679.57	1095.07
679.90	1094.62
680.24	1101.57
680.58	1102.77
680.92	1101.27
681.26	1102.18
681.60	1099.61
681.94	1094.67
682.28	1094.86
682.62	1094.50
682.96	1092.35
683.29	1091.18
683.63	1088.40
683.97	1089.24
684.31	1086.43
684.65	1086.01
684.99	1089.14
685.33	1092.73
685.67	1090.15
686.00	1091.42
686.34	1095.42
686.68	1093.05
687.02	1092.68
687.36	1095.32
687.70	1096.05
688.03	1092.28
688.37	1092.56
688.71	1092.56
689.05	1090.34
689.39	1090.29
689.72	1091.86
690.06	1093.76
690.40	1096.92
690.74	1095.96
691.08	1095.84
691.41	1097.27
691.75	1095.14
692.09	1092.94
692.43	1094.76
692.76	1095.07
693.10	1092.68
693.44	1090.22
693.78	1090.32
694.11	1091.32
694.45	1092.84
694.79	1094.41
695.13	1096.68
695.46	1095.56
695.80	1094.36
696.14	1091.65
696.48	1092.68
696.81	1094.62
697.15	1097.92
697.49	1100.52
697.82	1103.21
698.16	1102.51
698.50	1103.26
698.83	1100.87
699.17	1101.11
699.51	1098.09
699.84	1094.04
700.18	1091.02
700.52	1086.94
700.85	1083.69
701.19	1086.03
701.53	1088.61
701.86	1089.92
702.20	1094.04
702.54	1096.49
702.87	1097.52
703.21	1098.27
703.55	1099.75
703.88	1101.11
704.22	1098.02
704.55	1098.41
704.89	1098.09
705.23	1093.94
705.56	1091.49
705.90	1094.57
706.23	1094.65
706.57	1092.23
706.91	1093.55
707.24	1092.59
707.58	1088.09
707.91	1084.98
708.25	1088.12
708.58	1091.49
708.92	1092.75
709.26	1096.78
709.59	1098.18
709.93	1095.42
710.26	1095.77
710.60	1096.28
710.93	1092.45
711.27	1091.51
711.60	1094.01
711.94	1093.99
712.27	1094.48
712.61	1097.10
712.94	1099.26
713.28	1099.42
713.61	1095.16
713.95	1094.65
714.28	1094.55
714.62	1092.45
714.95	1091.98
715.29	1092.54
715.62	1090.32
715.96	1088.37
716.29	1087.20
716.63	1083.20
716.96	1080.91
717.29	1081.12
717.63	1082.57
717.96	1083.69
718.30	1088.96
718.63	1092.35
718.97	1091.06
719.30	1092.28
719.63	1093.59
719.97	1090.99
720.30	1088.21
720.64	1089.73
720.97	1089.64
721.30	1089.57
721.64	1091.77
721.97	1092.37
722.31	1092.89
722.64	1090.17
722.97	1088.28
723.31	1086.43
723.64	1086.99
723.97	1087.34
724.31	1086.87
724.64	1088.09
724.98	1089.64
725.31	1091.32
725.64	1090.69
725.98	1093.33
726.31	1095.32
726.64	1094.43
726.97	1096.49
727.31	1097.71
727.64	1098.83
727.97	1099.16
728.31	1100.59
728.64	1096.66
728.97	1095.44
729.31	1093.26
729.64	1086.97
729.97	1087.30
730.30	1086.41
730.64	1085.77
730.97	1085.63
731.30	1088.28
731.63	1085.38
731.97	1088.00
732.30	1087.51
732.63	1086.59
732.96	1086.17
733.30	1085.21
733.63	1084.63
733.96	1087.53
734.29	1091.53
734.63	1091.18
734.96	1090.90
735.29	1091.70
735.62	1092.16
735.95	1092.09
736.29	1092.66
736.62	1094.08
736.95	1095.51
737.28	1097.73
737.61	1093.22
737.94	1092.96
738.28	1092.68
738.61	1091.81
738.94	1089.17
739.27	1092.30
739.60	1092.54
739.93	1091.74
740.27	1088.77
740.60	1086.71
740.93	1084.91
741.26	1086.22
741.59	1086.78
741.92	1088.82
742.25	1089.59
742.58	1089.61
742.91	1086.36
743.25	1085.91
743.58	1084.07
743.91	1085.38
744.24	1084.79
744.57	1089.00
744.90	1087.46
745.23	1087.04
745.56	1085.59
745.89	1089.50
746.22	1086.78
746.55	1089.38
746.88	1093.69
747.21	1093.85
747.54	1091.86
747.87	1094.86
748.20	1093.78
748.53	1092.49
748.87	1091.20
749.20	1088.89
749.53	1085.45
749.86	1084.46
750.19	1083.43
750.52	1084.39
750.85	1083.18
751.18	1083.60
751.51	1084.91
751.84	1086.22
752.16	1088.63
752.49	1093.76
752.82	1092.89
753.15	1093.15
753.48	1091.95
753.81	1091.70
754.14	1091.37
754.47	1093.90
754.80	1092.47
755.13	1092.87
755.46	1087.06
755.79	1085.70
756.12	1088.54
756.45	1089.96
756.78	1089.33
757.11	1092.84
757.43	1093.40
757.76	1089.61
758.09	1091.06
758.42	1090.55
758.75	1091.25
759.08	1087.23
759.41	1088.68
759.74	1085.45
760.07	1086.59
760.39	1087.09
760.72	1090.22
761.05	1087.32
761.38	1088.70
761.71	1090.03
762.04	1084.63
762.36	1084.44
762.69	1085.61
