SpectraSuite Data File
++++++++++++++++++++++++++++++++++++
Date: Mon Aug 26 10:26:01 PDT 2019
User: corrico
Dark Spectrum Present: No
Reference Spectrum Present: No
Number of Sampled Component Spectra: 1
Spectrometers: USB2+H06089
Integration Time (usec): 10000 (USB2+H06089)
Spectra Averaged: 2 (USB2+H06089)
Boxcar Smoothing: 2 (USB2+H06089)
Correct for Electrical Dark: No (USB2+H06089)
Strobe/Lamp Enabled: No (USB2+H06089)
Correct for Detector Non-linearity: No (USB2+H06089)
Correct for Stray Light: No (USB2+H06089)
Number of Pixels in Processed Spectrum: 2048
>>>>>Begin Processed Spectral Data<<<<<
339.70	1038.03
340.07	1038.03
340.45	985.60
340.82	956.34
341.19	924.51
341.57	904.62
341.94	893.85
342.31	882.62
342.69	879.57
343.06	889.64
343.43	894.79
343.81	914.45
344.18	925.21
344.55	933.41
344.93	932.24
345.30	920.77
345.67	926.85
346.04	928.49
346.42	933.87
346.79	949.32
347.16	962.43
347.54	962.43
347.91	974.13
348.28	972.73
348.65	971.79
349.03	977.41
349.40	986.07
349.77	995.66
350.14	1010.88
350.52	1020.71
350.89	1027.03
351.26	1034.98
351.63	1049.96
352.01	1060.50
352.38	1062.60
352.75	1070.33
353.12	1070.56
353.50	1066.82
353.87	1067.75
354.24	1064.01
354.61	1067.05
354.98	1061.90
355.36	1064.94
355.73	1063.54
356.10	1067.28
356.47	1068.69
356.84	1069.62
357.22	1067.28
357.59	1070.33
357.96	1077.35
358.33	1083.20
358.70	1092.56
359.08	1087.18
359.45	1086.01
359.82	1097.95
360.19	1091.39
360.56	1087.65
360.94	1081.56
361.31	1081.09
361.68	1068.45
362.05	1068.92
362.42	1064.71
362.79	1078.28
363.16	1067.75
363.54	1068.69
363.91	1067.99
364.28	1075.71
364.65	1078.99
365.02	1087.41
365.39	1079.46
365.76	1085.54
366.14	1080.63
366.51	1075.01
366.88	1074.07
367.25	1083.43
367.62	1069.62
367.99	1067.52
368.36	1064.71
368.73	1068.22
369.10	1060.26
369.48	1069.39
369.85	1074.54
370.22	1075.01
370.59	1063.31
370.96	1063.31
371.33	1054.88
371.70	1059.09
372.07	1062.60
372.44	1069.16
372.81	1068.69
373.18	1060.73
373.55	1053.24
373.93	1058.16
374.30	1053.94
374.67	1059.56
375.04	1078.75
375.41	1080.39
375.78	1069.62
376.15	1076.88
376.52	1077.11
376.89	1071.26
377.26	1072.43
377.63	1076.88
378.00	1089.05
378.37	1073.14
378.74	1066.11
379.11	1061.20
379.48	1053.48
379.85	1055.82
380.22	1064.94
380.59	1066.35
380.96	1077.11
381.33	1081.09
381.70	1056.28
382.07	1070.33
382.44	1070.56
382.81	1061.90
383.18	1071.73
383.55	1079.22
383.92	1071.50
384.29	1073.14
384.66	1071.97
385.03	1063.31
385.40	1070.09
385.77	1068.22
386.14	1068.45
386.51	1073.37
386.88	1082.50
387.25	1081.09
387.62	1081.09
387.99	1083.43
388.36	1080.86
388.73	1067.99
389.10	1069.39
389.46	1064.94
389.83	1068.22
390.20	1064.48
390.57	1074.54
390.94	1078.05
391.31	1077.35
391.68	1066.58
392.05	1075.24
392.42	1069.39
392.79	1063.31
393.16	1058.62
393.53	1059.09
393.89	1057.69
394.26	1059.33
394.63	1061.67
395.00	1069.86
395.37	1081.80
395.74	1074.07
396.11	1065.65
396.48	1064.94
396.84	1068.22
397.21	1064.01
397.58	1070.80
397.95	1077.35
398.32	1074.31
398.69	1069.62
399.06	1063.77
399.42	1054.88
399.79	1055.58
400.16	1059.33
400.53	1067.05
400.90	1066.35
401.27	1073.37
401.64	1072.67
402.00	1078.05
402.37	1086.01
402.74	1093.50
403.11	1088.12
403.48	1086.48
403.84	1078.28
404.21	1076.88
404.58	1078.05
404.95	1086.94
405.32	1088.35
405.68	1091.16
406.05	1082.03
406.42	1078.28
406.79	1074.31
407.16	1078.99
407.52	1078.75
407.89	1082.50
408.26	1076.18
408.63	1075.48
408.99	1075.24
409.36	1066.58
409.73	1062.84
410.10	1078.28
410.47	1080.63
410.83	1076.65
411.20	1079.22
411.57	1076.18
411.94	1069.39
412.30	1071.73
412.67	1072.20
413.04	1084.14
413.40	1082.73
413.77	1087.41
414.14	1093.73
414.51	1091.39
414.87	1085.77
415.24	1088.82
415.61	1070.33
415.97	1060.96
416.34	1065.88
416.71	1071.03
417.08	1067.52
417.44	1079.22
417.81	1080.16
418.18	1079.22
418.54	1057.92
418.91	1060.73
419.28	1056.52
419.64	1054.41
420.01	1047.39
420.38	1056.52
420.74	1056.75
421.11	1056.99
421.48	1058.62
421.84	1064.48
422.21	1067.75
422.58	1066.35
422.94	1067.52
423.31	1069.16
423.68	1069.62
424.04	1079.22
424.41	1070.80
424.77	1064.01
425.14	1061.43
425.51	1060.03
425.87	1044.58
426.24	1061.43
426.61	1077.35
426.97	1081.56
427.34	1078.52
427.70	1083.43
428.07	1086.01
428.44	1072.43
428.80	1073.14
429.17	1075.71
429.53	1088.58
429.90	1071.97
430.27	1089.29
430.63	1085.31
431.00	1080.63
431.36	1076.41
431.73	1088.12
432.09	1076.41
432.46	1075.01
432.83	1072.20
433.19	1064.24
433.56	1052.07
433.92	1051.60
434.29	1052.77
434.65	1059.09
435.02	1059.56
435.38	1058.62
435.75	1062.37
436.11	1056.75
436.48	1064.01
436.84	1065.18
437.21	1078.75
437.57	1076.41
437.94	1083.90
438.30	1080.39
438.67	1079.46
439.03	1076.18
439.40	1077.58
439.76	1069.86
440.13	1074.54
440.49	1072.67
440.86	1070.56
441.22	1068.22
441.59	1075.71
441.95	1071.50
442.32	1079.92
442.68	1080.39
443.05	1071.50
443.41	1069.16
443.78	1067.28
444.14	1061.67
444.51	1063.77
444.87	1069.16
445.24	1062.84
445.60	1063.31
445.96	1062.37
446.33	1061.43
446.69	1070.56
447.06	1082.03
447.42	1084.84
447.79	1087.41
448.15	1086.48
448.51	1071.03
448.88	1062.37
449.24	1063.54
449.61	1054.65
449.97	1058.86
450.33	1075.48
450.70	1073.60
451.06	1063.07
451.43	1071.97
451.79	1073.37
452.15	1070.56
452.52	1086.24
452.88	1088.82
453.24	1094.90
453.61	1083.90
453.97	1083.67
454.34	1072.67
454.70	1078.75
455.06	1067.99
455.43	1069.16
455.79	1072.43
456.15	1074.77
456.52	1077.11
456.88	1083.43
457.24	1090.46
457.61	1075.01
457.97	1074.77
458.33	1071.03
458.70	1080.39
459.06	1080.16
459.42	1085.07
459.79	1088.35
460.15	1082.03
460.51	1069.62
460.88	1071.50
461.24	1078.28
461.60	1075.71
461.96	1078.05
462.33	1088.35
462.69	1072.20
463.05	1071.03
463.42	1062.60
463.78	1067.28
464.14	1055.58
464.50	1060.50
464.87	1058.39
465.23	1065.18
465.59	1058.86
465.95	1061.20
466.32	1073.37
466.68	1089.75
467.04	1079.22
467.40	1076.18
467.77	1070.33
468.13	1065.65
468.49	1056.05
468.85	1067.75
469.22	1080.39
469.58	1089.52
469.94	1095.60
470.30	1086.71
470.66	1084.14
471.03	1078.28
471.39	1073.37
471.75	1064.94
472.11	1063.31
472.47	1067.99
472.84	1064.71
473.20	1072.43
473.56	1065.18
473.92	1073.37
474.28	1079.22
474.65	1080.86
475.01	1077.35
475.37	1087.88
475.73	1089.05
476.09	1069.86
476.45	1074.54
476.81	1085.54
477.18	1081.33
477.54	1078.28
477.90	1086.01
478.26	1084.37
478.62	1069.39
478.98	1071.73
479.34	1069.16
479.71	1070.09
480.07	1059.56
480.43	1055.11
480.79	1060.73
481.15	1066.82
481.51	1076.88
481.87	1098.65
482.23	1102.16
482.59	1094.67
482.96	1087.41
483.32	1079.46
483.68	1069.62
484.04	1073.14
484.40	1071.73
484.76	1074.31
485.12	1068.69
485.48	1071.97
485.84	1070.33
486.20	1071.26
486.56	1075.71
486.92	1082.50
487.28	1075.24
487.64	1073.14
488.00	1078.52
488.37	1080.16
488.73	1082.26
489.09	1086.24
489.45	1088.35
489.81	1093.73
490.17	1086.94
490.53	1078.99
490.89	1075.24
491.25	1073.60
491.61	1064.48
491.97	1066.35
492.33	1077.35
492.69	1080.63
493.05	1084.14
493.41	1086.48
493.77	1086.24
494.13	1078.05
494.49	1082.03
494.85	1079.22
495.21	1075.94
495.57	1077.35
495.93	1078.99
496.29	1076.18
496.64	1080.16
497.00	1082.73
497.36	1081.80
497.72	1087.18
498.08	1085.31
498.44	1088.82
498.80	1086.48
499.16	1091.86
499.52	1092.56
499.88	1093.73
500.24	1087.41
500.60	1081.80
500.96	1070.33
501.32	1054.88
501.68	1049.73
502.03	1046.69
502.39	1057.69
502.75	1062.60
503.11	1069.39
503.47	1077.35
503.83	1076.18
504.19	1073.37
504.55	1072.20
504.91	1069.86
505.26	1056.99
505.62	1067.52
505.98	1068.92
506.34	1069.16
506.70	1073.84
507.06	1075.48
507.42	1071.50
507.78	1073.84
508.13	1082.50
508.49	1087.88
508.85	1094.43
509.21	1090.69
509.57	1084.37
509.93	1078.99
510.28	1085.31
510.64	1090.92
511.00	1098.18
511.36	1106.14
511.72	1104.97
512.07	1090.92
512.43	1082.97
512.79	1074.31
513.15	1060.73
513.51	1067.75
513.86	1073.14
514.22	1071.26
514.58	1085.31
514.94	1084.60
515.30	1087.65
515.65	1089.05
516.01	1090.92
516.37	1080.86
516.73	1086.71
517.08	1096.78
517.44	1099.82
517.80	1112.69
518.16	1116.90
518.51	1130.24
518.87	1117.61
519.23	1112.46
519.59	1107.54
519.94	1113.86
520.30	1114.33
520.66	1108.71
521.01	1111.05
521.37	1103.09
521.73	1091.39
522.09	1083.90
522.44	1091.86
522.80	1093.50
523.16	1106.84
523.51	1115.97
523.87	1114.80
524.23	1107.31
524.58	1105.20
524.94	1093.50
525.30	1087.88
525.65	1087.18
526.01	1082.97
526.37	1086.48
526.72	1089.29
527.08	1087.18
527.44	1090.46
527.79	1095.84
528.15	1091.16
528.51	1093.03
528.86	1099.58
529.22	1099.58
529.58	1098.18
529.93	1095.37
530.29	1090.69
530.65	1085.54
531.00	1082.73
531.36	1089.05
531.71	1087.41
532.07	1091.63
532.43	1092.80
532.78	1086.71
533.14	1073.37
533.49	1082.26
533.85	1078.05
534.21	1074.07
534.56	1081.09
534.92	1096.54
535.27	1091.16
535.63	1097.01
535.98	1103.56
536.34	1101.22
536.69	1090.69
537.05	1089.05
537.41	1087.41
537.76	1083.20
538.12	1085.07
538.47	1096.78
538.83	1099.35
539.18	1098.65
539.54	1099.12
539.89	1098.65
540.25	1092.33
540.60	1092.56
540.96	1092.09
541.31	1094.43
541.67	1091.86
542.02	1088.12
542.38	1094.43
542.73	1101.22
543.09	1095.14
543.44	1104.73
543.80	1112.46
544.15	1125.10
544.51	1117.61
544.86	1123.22
545.22	1121.58
545.57	1117.84
545.93	1100.05
546.28	1100.99
546.64	1102.39
546.99	1104.03
547.35	1100.99
547.70	1102.39
548.05	1098.65
548.41	1099.12
548.76	1087.65
549.12	1089.99
549.47	1091.16
549.83	1088.58
550.18	1082.73
550.53	1084.60
550.89	1080.86
551.24	1077.82
551.60	1089.29
551.95	1086.01
552.30	1090.92
552.66	1088.35
553.01	1089.52
553.37	1079.22
553.72	1082.03
554.07	1069.86
554.43	1073.37
554.78	1067.52
555.13	1075.24
555.49	1066.35
555.84	1076.41
556.19	1067.75
556.55	1067.75
556.90	1053.71
557.26	1065.18
557.61	1055.11
557.96	1078.75
558.32	1081.09
558.67	1094.43
559.02	1099.58
559.37	1107.54
559.73	1088.35
560.08	1084.14
560.43	1079.92
560.79	1070.56
561.14	1066.11
561.49	1056.28
561.85	1056.28
562.20	1056.28
562.55	1057.92
562.90	1053.01
563.26	1065.41
563.61	1061.90
563.96	1065.41
564.32	1069.62
564.67	1077.82
565.02	1083.43
565.37	1095.37
565.73	1099.58
566.08	1089.75
566.43	1093.03
566.78	1083.67
567.14	1073.60
567.49	1059.56
567.84	1068.45
568.19	1065.88
568.54	1080.16
568.90	1090.22
569.25	1100.05
569.60	1087.41
569.95	1082.73
570.31	1075.48
570.66	1061.43
571.01	1056.05
571.36	1071.26
571.71	1071.26
572.06	1077.35
572.42	1091.86
572.77	1091.39
573.12	1083.90
573.47	1087.18
573.82	1081.09
574.18	1074.54
574.53	1082.97
574.88	1079.69
575.23	1079.69
575.58	1074.31
575.93	1080.63
576.28	1077.58
576.64	1074.54
576.99	1074.77
577.34	1069.62
577.69	1072.43
578.04	1072.20
578.39	1077.82
578.74	1086.48
579.09	1095.14
579.44	1095.60
579.80	1095.14
580.15	1091.16
580.50	1082.03
580.85	1070.09
581.20	1064.48
581.55	1064.94
581.90	1065.88
582.25	1069.16
582.60	1081.80
582.95	1085.31
583.30	1080.86
583.65	1085.07
584.00	1081.80
584.35	1080.63
584.71	1073.37
585.06	1076.65
585.41	1082.03
585.76	1083.43
586.11	1086.01
586.46	1097.01
586.81	1095.84
587.16	1088.58
587.51	1093.73
587.86	1094.43
588.21	1087.41
588.56	1079.22
588.91	1085.07
589.26	1082.50
589.61	1082.03
589.96	1076.88
590.31	1082.73
590.66	1089.99
591.01	1084.14
591.36	1081.80
591.71	1085.77
592.06	1100.75
592.41	1101.46
592.76	1108.01
593.10	1106.84
593.45	1098.65
593.80	1088.82
594.15	1082.97
594.50	1079.46
594.85	1075.48
595.20	1082.97
595.55	1078.75
595.90	1080.86
596.25	1096.54
596.60	1098.88
596.95	1104.97
597.30	1105.67
597.64	1156.22
597.99	1144.99
598.34	1146.16
598.69	1139.61
599.04	1128.37
599.39	1064.48
599.74	1061.20
600.09	1071.50
600.44	1076.65
600.78	1087.18
601.13	1097.48
601.48	1096.07
601.83	1089.75
602.18	1090.22
602.53	1093.26
602.88	1093.03
603.22	1095.60
603.57	1103.09
603.92	1103.56
604.27	1105.20
604.62	1102.39
604.97	1097.48
605.31	1089.99
605.66	1086.24
606.01	1087.65
606.36	1084.14
606.71	1080.63
607.05	1078.28
607.40	1077.58
607.75	1078.28
608.10	1076.18
608.44	1081.33
608.79	1085.07
609.14	1081.56
609.49	1081.09
609.84	1081.80
610.18	1091.39
610.53	1099.58
610.88	1105.44
611.23	1105.44
611.57	1113.16
611.92	1115.50
612.27	1096.78
612.62	1098.65
612.96	1100.52
613.31	1102.16
613.66	1102.16
614.00	1112.46
614.35	1106.61
614.70	1109.88
615.05	1108.71
615.39	1103.33
615.74	1102.86
616.09	1106.61
616.43	1108.95
616.78	1101.22
617.13	1104.97
617.47	1109.88
617.82	1105.90
618.17	1090.92
618.51	1096.78
618.86	1086.24
619.21	1087.18
619.55	1095.14
619.90	1099.82
620.25	1094.90
620.59	1100.99
620.94	1087.65
621.29	1078.28
621.63	1075.48
621.98	1081.56
622.32	1072.20
622.67	1078.99
623.02	1078.99
623.36	1082.03
623.71	1079.46
624.05	1085.77
624.40	1066.35
624.75	1065.18
625.09	1064.24
625.44	1067.05
625.78	1067.75
626.13	1088.12
626.48	1092.33
626.82	1095.84
627.17	1096.31
627.51	1089.52
627.86	1082.50
628.20	1081.09
628.55	1071.73
628.89	1072.20
629.24	1075.24
629.58	1077.11
629.93	1070.56
630.28	1084.37
630.62	1084.84
630.97	1089.99
631.31	1095.60
631.66	1102.16
632.00	1092.33
632.35	1081.56
632.69	1075.71
633.04	1063.77
633.38	1066.58
633.73	1075.01
634.07	1088.12
634.42	1093.73
634.76	1106.14
635.11	1092.09
635.45	1079.46
635.79	1076.65
636.14	1072.43
636.48	1066.82
636.83	1071.03
637.17	1075.01
637.52	1067.05
637.86	1069.62
638.21	1070.33
638.55	1067.28
638.89	1069.62
639.24	1072.20
639.58	1070.80
639.93	1065.18
640.27	1077.58
640.61	1071.03
640.96	1071.97
641.30	1067.28
641.65	1075.94
641.99	1074.07
642.33	1087.65
642.68	1090.69
643.02	1100.29
643.37	1097.71
643.71	1090.92
644.05	1083.20
644.40	1086.48
644.74	1077.82
645.08	1086.24
645.43	1089.05
645.77	1088.58
646.11	1075.94
646.46	1077.58
646.80	1075.48
647.14	1075.24
647.49	1075.71
647.83	1079.69
648.17	1089.75
648.52	1074.77
648.86	1075.94
649.20	1076.65
649.55	1084.84
649.89	1075.24
650.23	1082.03
650.57	1088.35
650.92	1091.39
651.26	1083.67
651.60	1082.03
651.95	1080.63
652.29	1082.03
652.63	1073.84
652.97	1077.35
653.32	1088.12
653.66	1098.88
654.00	1088.82
654.34	1093.73
654.69	1100.05
655.03	1088.58
655.37	1072.90
655.71	1080.39
656.05	1087.88
656.40	1080.16
656.74	1087.41
657.08	1096.31
657.42	1094.43
657.76	1075.94
658.11	1074.77
658.45	1063.31
658.79	1054.88
659.13	1049.73
659.47	1057.69
659.82	1059.09
660.16	1073.60
660.50	1080.63
660.84	1082.97
661.18	1089.75
661.52	1091.16
661.87	1081.56
662.21	1081.80
662.55	1082.03
662.89	1073.60
663.23	1068.22
663.57	1076.18
663.91	1078.75
664.25	1078.52
664.60	1086.01
664.94	1085.31
665.28	1076.88
665.62	1078.05
665.96	1071.97
666.30	1069.39
666.64	1075.48
666.98	1076.88
667.32	1071.26
667.66	1083.43
668.01	1077.82
668.35	1083.90
668.69	1079.92
669.03	1081.33
669.37	1075.01
669.71	1074.31
670.05	1060.50
670.39	1063.77
670.73	1067.05
671.07	1075.94
671.41	1088.12
671.75	1091.63
672.09	1100.75
672.43	1099.12
672.77	1098.88
673.11	1089.99
673.45	1082.26
673.79	1071.73
674.13	1079.46
674.47	1075.71
674.81	1080.39
675.15	1101.92
675.49	1103.80
675.83	1088.82
676.17	1087.41
676.51	1085.07
676.85	1068.22
677.19	1073.37
677.53	1081.09
677.87	1078.05
678.21	1069.16
678.55	1077.11
678.89	1067.99
679.23	1065.18
679.57	1064.48
679.90	1072.20
680.24	1067.52
680.58	1074.54
680.92	1080.16
681.26	1072.20
681.60	1073.60
681.94	1077.58
682.28	1075.94
682.62	1077.11
682.96	1081.80
683.29	1078.52
683.63	1069.39
683.97	1066.58
684.31	1055.58
684.65	1054.88
684.99	1057.69
685.33	1063.07
685.67	1073.14
686.00	1084.84
686.34	1081.56
686.68	1077.58
687.02	1073.14
687.36	1065.88
687.70	1057.45
688.03	1061.90
688.37	1066.11
688.71	1070.80
689.05	1065.18
689.39	1069.39
689.72	1071.50
690.06	1073.37
690.40	1068.92
690.74	1070.09
691.08	1071.73
691.41	1065.88
691.75	1068.22
692.09	1074.31
692.43	1078.52
692.76	1076.18
693.10	1086.48
693.44	1081.09
693.78	1076.65
694.11	1083.90
694.45	1083.90
694.79	1082.73
695.13	1085.31
695.46	1087.41
695.80	1081.56
696.14	1077.35
696.48	1080.86
696.81	1080.16
697.15	1093.97
697.49	1099.35
697.82	1094.90
698.16	1099.12
698.50	1097.71
698.83	1093.26
699.17	1085.77
699.51	1088.58
699.84	1072.20
700.18	1071.03
700.52	1064.48
700.85	1067.75
701.19	1066.82
701.53	1076.18
701.86	1082.26
702.20	1079.69
702.54	1081.56
702.87	1093.26
703.21	1094.90
703.55	1090.22
703.88	1092.33
704.22	1093.73
704.55	1080.86
704.89	1083.20
705.23	1086.94
705.56	1085.54
705.90	1086.94
706.23	1092.09
706.57	1088.12
706.91	1083.43
707.24	1076.65
707.58	1077.35
707.91	1069.62
708.25	1070.56
708.58	1071.26
708.92	1086.24
709.26	1074.07
709.59	1080.63
709.93	1069.16
710.26	1059.56
710.60	1048.56
710.93	1051.37
711.27	1050.20
711.60	1064.94
711.94	1080.63
712.27	1084.84
712.61	1088.35
712.94	1090.46
713.28	1082.97
713.61	1073.14
713.95	1071.26
714.28	1076.18
714.62	1076.41
714.95	1081.33
715.29	1088.58
715.62	1087.41
715.96	1085.54
716.29	1093.03
716.63	1101.46
716.96	1098.18
717.29	1100.99
717.63	1097.01
717.96	1089.75
718.30	1086.48
718.63	1084.60
718.97	1084.84
719.30	1086.71
719.63	1090.46
719.97	1074.77
720.30	1082.03
720.64	1086.71
720.97	1087.41
721.30	1079.92
721.64	1078.28
721.97	1071.97
722.31	1057.45
722.64	1056.28
722.97	1055.35
723.31	1057.45
723.64	1053.94
723.97	1062.14
724.31	1057.92
724.64	1058.16
724.98	1065.18
725.31	1071.97
725.64	1077.11
725.98	1084.84
726.31	1089.75
726.64	1088.35
726.97	1086.48
727.31	1085.31
727.64	1071.97
727.97	1073.37
728.31	1072.67
728.64	1063.77
728.97	1062.37
729.31	1074.07
729.64	1081.56
729.97	1085.31
730.30	1099.82
730.64	1091.16
730.97	1092.80
731.30	1085.07
731.63	1081.09
731.97	1080.39
732.30	1088.35
732.63	1085.54
732.96	1093.50
733.30	1095.37
733.63	1093.97
733.96	1093.26
734.29	1086.71
734.63	1080.39
734.96	1082.73
735.29	1078.05
735.62	1088.12
735.95	1098.18
736.29	1096.07
736.62	1089.75
736.95	1088.58
737.28	1084.14
737.61	1076.65
737.94	1070.56
738.28	1075.94
738.61	1079.22
738.94	1066.11
739.27	1068.92
739.60	1074.54
739.93	1069.62
740.27	1063.77
740.60	1068.92
740.93	1067.05
741.26	1071.73
741.59	1068.22
741.92	1074.77
742.25	1081.09
742.58	1083.20
742.91	1081.80
743.25	1087.18
743.58	1075.24
743.91	1076.65
744.24	1065.41
744.57	1069.86
744.90	1063.77
745.23	1087.88
745.56	1086.71
745.89	1098.18
746.22	1080.63
746.55	1079.69
746.88	1069.86
747.21	1069.16
747.54	1066.11
747.87	1070.80
748.20	1079.22
748.53	1072.90
748.87	1079.46
749.20	1090.46
749.53	1096.78
749.86	1093.97
750.19	1100.52
750.52	1085.31
750.85	1081.33
751.18	1083.67
751.51	1090.69
751.84	1082.50
752.16	1091.39
752.49	1082.50
752.82	1079.46
753.15	1080.39
753.48	1086.48
753.81	1086.94
754.14	1084.84
754.47	1080.86
754.80	1077.35
755.13	1071.26
755.46	1067.52
755.79	1072.43
756.12	1081.56
756.45	1084.14
756.78	1092.09
757.11	1093.26
757.43	1095.37
757.76	1095.14
758.09	1104.50
758.42	1102.86
758.75	1101.69
759.08	1105.20
759.41	1111.05
759.74	1099.58
760.07	1091.63
760.39	1096.78
760.72	1083.20
761.05	1069.16
761.38	1063.07
761.71	1070.80
762.04	1063.07
762.36	1067.52
762.69	1073.60
763.02	1085.31
763.35	1087.88
763.68	1093.73
764.01	1096.54
764.33	1097.71
764.66	1088.58
764.99	1080.63
765.32	1074.77
765.65	1079.92
765.97	1071.97
766.30	1079.69
