SpectraSuite Data File
++++++++++++++++++++++++++++++++++++
Date: Mon Aug 26 10:26:14 PDT 2019
User: corrico
Dark Spectrum Present: No
Reference Spectrum Present: No
Number of Sampled Component Spectra: 1
Spectrometers: USB2+H06089
Integration Time (usec): 10000 (USB2+H06089)
Spectra Averaged: 20 (USB2+H06089)
Boxcar Smoothing: 2 (USB2+H06089)
Correct for Electrical Dark: No (USB2+H06089)
Strobe/Lamp Enabled: No (USB2+H06089)
Correct for Detector Non-linearity: No (USB2+H06089)
Correct for Stray Light: No (USB2+H06089)
Number of Pixels in Processed Spectrum: 2048
>>>>>Begin Processed Spectral Data<<<<<
339.70	1040.72
340.07	1040.72
340.45	1005.00
340.82	981.85
341.19	955.34
341.57	928.28
341.94	918.03
342.31	910.26
342.69	904.78
343.06	905.65
343.43	905.60
343.81	906.11
344.18	903.21
344.55	908.06
344.93	909.86
345.30	915.41
345.67	925.38
346.04	935.09
346.42	943.89
346.79	955.59
347.16	964.30
347.54	969.71
347.91	978.13
348.28	985.41
348.65	992.79
349.03	1003.06
349.40	1010.83
349.77	1020.94
350.14	1028.45
350.52	1035.27
350.89	1039.67
351.26	1048.30
351.63	1053.10
352.01	1059.07
352.38	1063.07
352.75	1070.42
353.12	1074.21
353.50	1078.71
353.87	1081.70
354.24	1083.20
354.61	1084.11
354.98	1085.54
355.36	1086.57
355.73	1091.20
356.10	1092.14
356.47	1093.50
356.84	1093.83
357.22	1094.04
357.59	1091.51
357.96	1093.80
358.33	1091.18
358.70	1092.47
359.08	1093.45
359.45	1092.12
359.82	1091.56
360.19	1092.30
360.56	1089.45
360.94	1089.14
361.31	1086.43
361.68	1086.10
362.05	1086.20
362.42	1086.94
362.79	1087.41
363.16	1088.68
363.54	1087.97
363.91	1088.12
364.28	1087.65
364.65	1083.34
365.02	1082.52
365.39	1082.54
365.76	1081.89
366.14	1080.18
366.51	1080.86
366.88	1082.54
367.25	1080.20
367.62	1081.07
367.99	1082.85
368.36	1084.93
368.73	1084.51
369.10	1087.39
369.48	1089.50
369.85	1086.62
370.22	1084.32
370.59	1085.33
370.96	1082.08
371.33	1078.03
371.70	1081.26
372.07	1082.61
372.44	1082.61
372.81	1083.86
373.18	1081.28
373.55	1081.30
373.93	1078.33
374.30	1073.95
374.67	1076.06
375.04	1078.28
375.41	1077.14
375.78	1076.74
376.15	1079.08
376.52	1077.44
376.89	1078.94
377.26	1079.24
377.63	1083.36
378.00	1085.17
378.37	1087.55
378.74	1086.01
379.11	1086.73
379.48	1084.89
379.85	1082.99
380.22	1081.23
380.59	1082.94
380.96	1082.33
381.33	1082.54
381.70	1082.87
382.07	1083.79
382.44	1084.65
382.81	1083.27
383.18	1086.71
383.55	1085.45
383.92	1084.09
384.29	1083.60
384.66	1085.77
385.03	1082.57
385.40	1085.52
385.77	1084.21
386.14	1084.28
386.51	1085.61
386.88	1087.72
387.25	1087.76
387.62	1089.61
387.99	1090.29
388.36	1087.48
388.73	1083.76
389.10	1085.05
389.46	1085.89
389.83	1084.84
390.20	1085.00
390.57	1088.02
390.94	1088.40
391.31	1089.05
391.68	1091.91
392.05	1093.55
392.42	1094.86
392.79	1094.48
393.16	1095.09
393.53	1093.40
393.89	1091.88
394.26	1090.95
394.63	1090.64
395.00	1087.25
395.37	1084.86
395.74	1086.41
396.11	1089.50
396.48	1091.70
396.84	1095.37
397.21	1095.07
397.58	1095.60
397.95	1094.43
398.32	1093.64
398.69	1093.31
399.06	1093.69
399.42	1094.62
399.79	1091.79
400.16	1091.51
400.53	1093.90
400.90	1095.96
401.27	1096.33
401.64	1100.00
402.00	1097.27
402.37	1093.29
402.74	1091.49
403.11	1089.22
403.48	1087.37
403.84	1089.07
404.21	1090.95
404.58	1092.84
404.95	1095.77
405.32	1095.04
405.68	1095.70
406.05	1092.96
406.42	1095.39
406.79	1095.89
407.16	1098.06
407.52	1099.40
407.89	1105.22
408.26	1102.46
408.63	1100.73
408.99	1099.61
409.36	1098.81
409.73	1096.45
410.10	1097.64
410.47	1100.05
410.83	1102.21
411.20	1106.35
411.57	1107.28
411.94	1108.24
412.30	1107.42
412.67	1106.56
413.04	1104.80
413.40	1103.05
413.77	1103.80
414.14	1106.58
414.51	1107.03
414.87	1104.80
415.24	1109.53
415.61	1110.09
415.97	1105.83
416.34	1104.33
416.71	1105.13
417.08	1103.42
417.44	1103.75
417.81	1107.28
418.18	1112.53
418.54	1112.95
418.91	1114.31
419.28	1115.50
419.64	1115.83
420.01	1117.18
420.38	1120.04
420.74	1117.98
421.11	1119.85
421.48	1121.51
421.84	1115.66
422.21	1115.57
422.58	1114.07
422.94	1110.63
423.31	1108.90
423.68	1110.40
424.04	1110.98
424.41	1113.44
424.77	1116.13
425.14	1117.18
425.51	1121.37
425.87	1120.91
426.24	1123.20
426.61	1124.11
426.97	1126.48
427.34	1124.77
427.70	1125.77
428.07	1124.65
428.44	1122.03
428.80	1119.81
429.17	1118.45
429.53	1118.14
429.90	1121.61
430.27	1122.52
430.63	1123.18
431.00	1124.81
431.36	1122.05
431.73	1118.07
432.09	1118.50
432.46	1120.06
432.83	1117.11
433.19	1121.00
433.56	1121.42
433.92	1121.28
434.29	1120.63
434.65	1122.68
435.02	1123.48
435.38	1123.64
435.75	1124.37
436.11	1122.05
436.48	1122.01
436.84	1118.71
437.21	1120.37
437.57	1120.81
437.94	1120.32
438.30	1120.09
438.67	1121.16
439.03	1120.27
439.40	1119.48
439.76	1119.67
440.13	1120.67
440.49	1120.09
440.86	1119.29
441.22	1119.74
441.59	1120.88
441.95	1121.23
442.32	1121.75
442.68	1122.40
443.05	1121.54
443.41	1122.26
443.78	1121.05
444.14	1122.87
444.51	1121.19
444.87	1121.12
445.24	1120.46
445.60	1120.79
445.96	1119.15
446.33	1119.41
446.69	1120.86
447.06	1122.92
447.42	1123.46
447.79	1121.51
448.15	1123.22
448.51	1123.95
448.88	1120.09
449.24	1115.83
449.61	1116.37
449.97	1118.26
450.33	1115.24
450.70	1117.02
451.06	1119.99
451.43	1121.84
451.79	1120.25
452.15	1120.51
452.52	1120.30
452.88	1116.97
453.24	1112.25
453.61	1111.05
453.97	1112.71
454.34	1114.24
454.70	1119.53
455.06	1123.53
455.43	1125.96
455.79	1124.00
456.15	1122.15
456.52	1121.42
456.88	1118.75
457.24	1116.74
457.61	1118.92
457.97	1120.27
458.33	1122.45
458.70	1124.46
459.06	1127.04
459.42	1126.71
459.79	1128.86
460.15	1126.27
460.51	1124.86
460.88	1123.86
461.24	1125.56
461.60	1123.06
461.96	1127.79
462.33	1131.04
462.69	1131.02
463.05	1132.37
463.42	1134.88
463.78	1134.11
464.14	1135.49
464.50	1137.66
464.87	1135.93
465.23	1134.25
465.59	1130.92
465.95	1133.97
466.32	1132.84
466.68	1134.93
467.04	1138.81
467.40	1141.29
467.77	1139.77
468.13	1144.76
468.49	1147.89
468.85	1149.18
469.22	1151.96
469.58	1154.56
469.94	1152.50
470.30	1154.09
470.66	1151.85
471.03	1154.66
471.39	1154.61
471.75	1154.56
472.11	1158.33
472.47	1167.39
472.84	1171.88
473.20	1179.56
473.56	1185.41
473.92	1186.30
474.28	1188.15
474.65	1190.82
475.01	1193.86
475.37	1202.71
475.73	1209.82
476.09	1215.46
476.45	1223.70
476.81	1233.37
477.18	1236.34
477.54	1242.22
477.90	1252.70
478.26	1259.18
478.62	1265.20
478.98	1276.88
479.34	1288.21
479.71	1295.35
480.07	1309.25
480.43	1320.72
480.79	1333.85
481.15	1345.67
481.51	1361.04
481.87	1372.91
482.23	1389.48
482.59	1405.82
482.96	1427.33
483.32	1446.15
483.68	1467.12
484.04	1488.16
484.40	1510.07
484.76	1529.87
485.12	1558.14
485.48	1587.56
485.84	1616.09
486.20	1644.48
486.56	1676.24
486.92	1706.74
487.28	1740.33
487.64	1776.68
488.00	1814.85
488.37	1853.63
488.73	1896.82
489.09	1937.54
489.45	1987.44
489.81	2035.61
490.17	2090.26
490.53	2148.96
490.89	2207.08
491.25	2266.25
491.61	2332.95
491.97	2403.71
492.33	2467.37
492.69	2542.80
493.05	2617.00
493.41	2698.52
493.77	2780.30
494.13	2869.24
494.49	2961.83
494.85	3058.68
495.21	3163.07
495.57	3274.43
495.93	3393.47
496.29	3513.75
496.64	3646.37
497.00	3781.93
497.36	3916.09
497.72	4056.78
498.08	4221.83
498.44	4392.79
498.80	4562.83
499.16	4755.97
499.52	4957.98
499.88	5153.67
500.24	5362.52
500.60	5581.03
500.96	5799.94
501.32	6016.46
501.68	6247.57
502.03	6492.81
502.39	6763.80
502.75	7054.47
503.11	7389.40
503.47	7717.47
503.83	8066.16
504.19	8412.26
504.55	8794.38
504.91	9155.50
505.26	9529.12
505.62	9943.20
505.98	10402.82
506.34	10832.49
506.70	11317.73
507.06	11882.92
507.42	12436.06
507.78	13013.43
508.13	13658.66
508.49	14315.56
508.85	14957.36
509.21	15641.66
509.57	16349.11
509.93	17044.58
510.28	17756.59
510.64	18552.09
511.00	19332.94
511.36	20141.22
511.72	21039.89
512.07	22022.15
512.43	22968.07
512.79	24014.53
513.15	25061.87
513.51	26033.71
513.86	26978.35
514.22	28071.80
514.58	29181.40
514.94	30239.58
515.30	31433.18
515.65	32740.44
516.01	33908.28
516.37	35047.91
516.73	36267.42
517.08	37357.36
517.44	38278.57
517.80	39294.62
518.16	40275.21
518.51	41250.89
518.87	42321.43
519.23	43520.51
519.59	44643.21
519.94	45793.19
520.30	46937.48
520.66	47822.25
521.01	48609.77
521.37	49439.35
521.73	50084.73
522.09	50637.42
522.44	51403.99
522.80	51998.32
523.16	52331.76
523.51	52661.21
523.87	53007.56
524.23	53318.25
524.58	53562.08
524.94	53890.23
525.30	54182.44
525.65	54334.16
526.01	54346.35
526.37	54542.32
526.72	54731.49
527.08	54827.05
527.44	54802.71
527.79	54733.92
528.15	54519.36
528.51	54258.93
528.86	54037.14
529.22	53722.41
529.58	53311.51
529.93	52883.40
530.29	52281.34
530.65	51687.34
531.00	51254.74
531.36	50639.90
531.71	49980.57
532.07	49407.52
532.43	48602.96
532.78	47672.66
533.14	46966.52
533.49	46216.66
533.85	45488.41
534.21	44952.73
534.56	44487.92
534.92	43820.14
535.27	43100.31
535.63	42267.66
535.98	41368.03
536.34	40410.38
536.69	39563.29
537.05	38766.97
537.41	38052.90
537.76	37368.03
538.12	36567.55
538.47	35807.69
538.83	35194.19
539.18	34529.92
539.54	33799.30
539.89	33276.94
540.25	32809.00
540.60	32209.47
540.96	31522.71
541.31	30943.97
541.67	30478.71
542.02	29919.84
542.38	29384.56
542.73	28894.66
543.09	28330.05
543.44	27652.33
543.80	27051.82
544.15	26480.63
544.51	26037.10
544.86	25606.72
545.22	25219.01
545.57	24763.76
545.93	24234.52
546.28	23683.11
546.64	23241.66
546.99	22758.41
547.35	22313.05
547.70	21901.09
548.05	21467.91
548.41	20996.45
548.76	20484.65
549.12	19992.55
549.47	19558.20
549.83	19194.38
550.18	18813.48
550.53	18435.11
550.89	18048.48
551.24	17626.11
551.60	17192.57
551.95	16799.55
552.30	16483.34
552.66	16203.22
553.01	15920.37
553.37	15618.39
553.72	15298.19
554.07	14940.95
554.43	14587.67
554.78	14251.50
555.13	13931.01
555.49	13542.62
555.84	13207.67
556.19	12861.71
556.55	12506.28
556.90	12166.27
557.26	11947.15
557.61	11701.39
557.96	11453.43
558.32	11215.75
558.67	10959.98
559.02	10659.13
559.37	10382.90
559.73	10168.50
560.08	9957.81
560.43	9729.09
560.79	9518.58
561.14	9296.77
561.49	9046.45
561.85	8820.78
562.20	8644.51
562.55	8484.72
562.90	8312.60
563.26	8162.45
563.61	8007.86
563.96	7804.28
564.32	7581.02
564.67	7387.20
565.02	7213.74
565.37	7063.74
565.73	6918.81
566.08	6781.47
566.43	6642.42
566.78	6469.83
567.14	6299.62
567.49	6172.51
567.84	6032.40
568.19	5899.34
568.54	5787.35
568.90	5688.30
569.25	5577.08
569.60	5481.60
569.95	5404.65
570.31	5309.62
570.66	5204.06
571.01	5102.84
571.36	5007.01
571.71	4899.47
572.06	4802.45
572.42	4702.04
572.77	4599.06
573.12	4508.34
573.47	4423.52
573.82	4360.32
574.18	4295.77
574.53	4226.40
574.88	4155.86
575.23	4080.35
575.58	3991.50
575.93	3908.93
576.28	3829.30
576.64	3755.86
576.99	3679.88
577.34	3606.20
577.69	3539.62
578.04	3469.89
578.39	3401.66
578.74	3332.62
579.09	3271.34
579.44	3204.15
579.80	3149.31
580.15	3090.44
580.50	3040.96
580.85	2988.72
581.20	2935.20
581.55	2890.42
581.90	2845.67
582.25	2796.78
582.60	2752.87
582.95	2708.87
583.30	2665.61
583.65	2622.76
584.00	2581.28
584.35	2539.36
584.71	2506.46
585.06	2469.10
585.41	2437.20
585.76	2407.83
586.11	2377.75
586.46	2342.83
586.81	2308.73
587.16	2273.97
587.51	2243.01
587.86	2217.77
588.21	2194.42
588.56	2164.46
588.91	2139.44
589.26	2116.99
589.61	2086.73
589.96	2057.24
590.31	2036.06
590.66	2017.38
591.01	1992.36
591.36	1969.33
591.71	1941.73
592.06	1920.29
592.41	1895.44
592.76	1875.89
593.10	1854.90
593.45	1841.16
593.80	1823.04
594.15	1808.34
594.50	1792.48
594.85	1776.84
595.20	1764.32
595.55	1743.30
595.90	1724.53
596.25	1707.00
596.60	1691.43
596.95	1676.39
597.30	1667.82
597.64	1706.74
597.99	1697.45
598.34	1686.61
598.69	1669.57
599.04	1654.27
599.39	1591.59
599.74	1575.77
600.09	1564.53
600.44	1554.68
600.78	1547.98
601.13	1538.81
601.48	1530.31
601.83	1517.86
602.18	1507.02
602.53	1491.72
602.88	1476.90
603.22	1467.05
603.57	1460.70
603.92	1451.65
604.27	1445.28
604.62	1435.75
604.97	1429.13
605.31	1422.51
605.66	1416.14
606.01	1412.02
606.36	1406.76
606.71	1396.81
607.05	1387.38
607.40	1378.74
607.75	1369.70
608.10	1366.10
608.44	1359.10
608.79	1352.31
609.14	1349.72
609.49	1343.47
609.84	1334.99
610.18	1326.87
610.53	1323.03
610.88	1313.51
611.23	1310.26
611.57	1303.96
611.92	1301.48
612.27	1293.33
612.62	1289.99
612.96	1282.36
613.31	1280.55
613.66	1276.20
614.00	1270.12
614.35	1265.64
614.70	1262.37
615.05	1256.12
615.39	1251.32
615.74	1248.44
616.09	1245.94
616.43	1244.53
616.78	1241.47
617.13	1240.62
617.47	1238.66
617.82	1234.21
618.17	1227.77
618.51	1224.64
618.86	1217.41
619.21	1216.75
619.55	1215.39
619.90	1211.55
620.25	1207.72
620.59	1207.39
620.94	1199.71
621.29	1195.43
621.63	1194.73
621.98	1195.92
622.32	1191.43
622.67	1189.72
623.02	1189.13
623.36	1183.80
623.71	1177.90
624.05	1178.93
624.40	1177.01
624.75	1171.58
625.09	1170.67
625.44	1171.70
625.78	1168.98
626.13	1170.34
626.48	1171.91
626.82	1171.09
627.17	1167.90
627.51	1166.48
627.86	1164.21
628.20	1163.04
628.55	1161.54
628.89	1158.99
629.24	1155.05
629.58	1151.26
629.93	1149.27
630.28	1147.19
630.62	1145.58
630.97	1146.70
631.31	1146.37
631.66	1144.52
632.00	1142.32
632.35	1142.63
632.69	1139.42
633.04	1138.81
633.38	1135.77
633.73	1135.39
634.07	1130.48
634.42	1130.88
634.76	1131.51
635.11	1135.39
635.45	1135.93
635.79	1138.11
636.14	1138.39
636.48	1138.34
636.83	1132.59
637.17	1131.41
637.52	1129.99
637.86	1129.12
638.21	1126.29
638.55	1129.12
638.89	1129.40
639.24	1130.01
639.58	1128.30
639.93	1128.40
640.27	1126.03
640.61	1127.04
640.96	1128.04
641.30	1126.03
641.65	1122.97
641.99	1122.66
642.33	1121.07
642.68	1118.78
643.02	1120.88
643.37	1121.98
643.71	1122.50
644.05	1120.34
644.40	1118.99
644.74	1114.91
645.08	1113.88
645.43	1112.62
645.77	1110.47
646.11	1109.41
646.46	1111.59
646.80	1111.31
647.14	1105.81
647.49	1107.80
647.83	1107.64
648.17	1108.31
648.52	1109.30
648.86	1114.70
649.20	1114.54
649.55	1115.59
649.89	1112.41
650.23	1109.20
650.57	1108.34
650.92	1106.42
651.26	1104.92
651.60	1106.14
651.95	1106.11
652.29	1105.72
652.63	1106.44
652.97	1105.29
653.32	1105.48
653.66	1103.63
654.00	1102.74
654.34	1102.67
654.69	1103.73
655.03	1101.20
655.37	1102.72
655.71	1099.89
656.05	1098.60
656.40	1098.13
656.74	1099.98
657.08	1101.48
657.42	1105.22
657.76	1104.52
658.11	1104.64
658.45	1106.30
658.79	1105.51
659.13	1106.07
659.47	1103.45
659.82	1102.58
660.16	1099.82
660.50	1096.61
660.84	1094.55
661.18	1095.75
661.52	1094.93
661.87	1094.76
662.21	1097.85
662.55	1095.14
662.89	1098.88
663.23	1101.60
663.57	1101.36
663.91	1099.33
664.25	1099.84
664.60	1099.54
664.94	1099.02
665.28	1100.19
665.62	1101.81
665.96	1100.43
666.30	1098.34
666.64	1097.85
666.98	1098.58
667.32	1100.10
667.66	1104.10
668.01	1104.05
668.35	1100.26
668.69	1096.47
669.03	1095.53
669.37	1092.80
669.71	1094.79
670.05	1097.62
670.39	1097.59
670.73	1095.56
671.07	1095.72
671.41	1094.20
671.75	1093.38
672.09	1094.95
672.43	1092.59
672.77	1090.55
673.11	1087.11
673.45	1085.94
673.79	1085.21
674.13	1086.57
674.47	1090.29
674.81	1090.95
675.15	1094.53
675.49	1093.52
675.83	1093.73
676.17	1093.29
676.51	1095.96
676.85	1096.38
677.19	1099.35
677.53	1098.95
677.87	1097.01
678.21	1095.75
678.55	1093.17
678.89	1090.32
679.23	1092.68
679.57	1094.20
679.90	1090.95
680.24	1087.79
680.58	1088.47
680.92	1086.73
681.26	1087.86
681.60	1091.79
681.94	1094.90
682.28	1095.09
682.62	1094.50
682.96	1093.05
683.29	1093.38
683.63	1097.66
683.97	1097.13
684.31	1097.62
684.65	1098.25
684.99	1099.79
685.33	1095.30
685.67	1098.44
686.00	1101.13
686.34	1099.65
686.68	1096.42
687.02	1096.38
687.36	1095.23
687.70	1092.82
688.03	1091.42
688.37	1092.19
688.71	1090.95
689.05	1088.33
689.39	1087.11
689.72	1088.35
690.06	1086.52
690.40	1086.38
690.74	1088.75
691.08	1090.24
691.41	1092.05
691.75	1095.60
692.09	1096.10
692.43	1095.58
692.76	1092.96
693.10	1092.75
693.44	1092.16
693.78	1092.49
694.11	1093.64
694.45	1094.90
694.79	1093.24
695.13	1092.28
695.46	1090.32
695.80	1086.27
696.14	1088.21
696.48	1089.64
696.81	1089.94
697.15	1092.37
697.49	1095.79
697.82	1095.04
698.16	1093.33
698.50	1092.70
698.83	1091.79
699.17	1089.52
699.51	1089.75
699.84	1092.21
700.18	1090.74
700.52	1091.70
700.85	1088.84
701.19	1091.86
701.53	1089.00
701.86	1087.69
702.20	1086.41
702.54	1092.42
702.87	1087.32
703.21	1089.82
703.55	1091.67
703.88	1090.22
704.22	1089.00
704.55	1088.75
704.89	1090.60
705.23	1091.49
705.56	1093.38
705.90	1088.14
706.23	1088.40
706.57	1086.22
706.91	1084.30
707.24	1087.23
707.58	1092.47
707.91	1097.95
708.25	1097.13
708.58	1099.07
708.92	1095.00
709.26	1094.36
709.59	1092.40
709.93	1092.12
710.26	1091.84
710.60	1092.07
710.93	1089.59
711.27	1089.85
711.60	1089.29
711.94	1089.54
712.27	1089.10
712.61	1090.83
712.94	1088.28
713.28	1089.66
713.61	1087.58
713.95	1088.35
714.28	1090.78
714.62	1088.91
714.95	1088.40
715.29	1088.84
715.62	1090.08
715.96	1091.18
716.29	1095.70
716.63	1096.49
716.96	1096.61
717.29	1093.73
717.63	1091.49
717.96	1089.75
718.30	1088.70
718.63	1089.29
718.97	1091.79
719.30	1091.72
719.63	1092.84
719.97	1092.91
720.30	1094.72
720.64	1097.59
720.97	1097.24
721.30	1094.93
721.64	1093.36
721.97	1091.11
722.31	1086.55
722.64	1084.72
722.97	1081.30
723.31	1082.64
723.64	1084.46
723.97	1087.16
724.31	1090.81
724.64	1095.04
724.98	1095.93
725.31	1094.22
725.64	1091.18
725.98	1086.27
726.31	1085.54
726.64	1087.13
726.97	1085.38
727.31	1087.69
727.64	1089.68
727.97	1088.86
728.31	1086.08
728.64	1088.96
728.97	1089.36
729.31	1089.47
729.64	1091.63
729.97	1089.82
730.30	1090.08
730.64	1087.48
730.97	1085.77
731.30	1084.79
731.63	1085.12
731.97	1084.44
732.30	1084.77
732.63	1087.41
732.96	1087.53
733.30	1087.23
733.63	1084.63
733.96	1085.24
734.29	1085.35
734.63	1086.87
734.96	1088.93
735.29	1092.30
735.62	1093.85
735.95	1090.74
736.29	1090.13
736.62	1089.82
736.95	1087.41
737.28	1082.26
737.61	1082.29
737.94	1082.66
738.28	1081.70
738.61	1082.43
738.94	1085.99
739.27	1088.61
739.60	1084.98
739.93	1087.46
740.27	1088.56
740.60	1090.08
740.93	1088.79
741.26	1090.50
741.59	1085.05
741.92	1085.21
742.25	1085.10
742.58	1085.14
742.91	1087.44
743.25	1091.93
743.58	1088.02
743.91	1086.57
744.24	1087.37
744.57	1084.39
744.90	1084.53
745.23	1085.75
745.56	1086.73
745.89	1090.55
746.22	1089.75
746.55	1088.33
746.88	1088.14
747.21	1088.68
747.54	1084.42
747.87	1084.84
748.20	1085.91
748.53	1085.61
748.87	1084.44
749.20	1084.84
749.53	1086.20
749.86	1086.29
750.19	1087.06
750.52	1086.41
750.85	1084.25
751.18	1082.76
751.51	1082.22
751.84	1083.86
752.16	1083.67
752.49	1085.73
752.82	1086.80
753.15	1086.24
753.48	1085.24
753.81	1084.09
754.14	1086.36
754.47	1084.91
754.80	1083.46
755.13	1088.56
755.46	1090.50
755.79	1087.58
756.12	1090.74
756.45	1093.26
756.78	1091.13
757.11	1091.18
757.43	1090.60
757.76	1087.30
758.09	1083.86
758.42	1081.30
758.75	1078.45
759.08	1079.50
759.41	1080.56
759.74	1084.23
760.07	1086.08
760.39	1088.04
760.72	1087.39
761.05	1088.40
761.38	1086.97
761.71	1086.62
762.04	1086.03
762.36	1085.89
762.69	1084.23
763.02	1084.56
