SpectraSuite Data File
++++++++++++++++++++++++++++++++++++
Date: Mon Aug 26 10:26:10 PDT 2019
User: corrico
Dark Spectrum Present: No
Reference Spectrum Present: No
Number of Sampled Component Spectra: 1
Spectrometers: USB2+H06089
Integration Time (usec): 10000 (USB2+H06089)
Spectra Averaged: 20 (USB2+H06089)
Boxcar Smoothing: 2 (USB2+H06089)
Correct for Electrical Dark: No (USB2+H06089)
Strobe/Lamp Enabled: No (USB2+H06089)
Correct for Detector Non-linearity: No (USB2+H06089)
Correct for Stray Light: No (USB2+H06089)
Number of Pixels in Processed Spectrum: 2048
>>>>>Begin Processed Spectral Data<<<<<
339.70	1027.03
340.07	1027.03
340.45	991.99
340.82	972.33
341.19	950.56
341.57	926.90
341.94	921.07
342.31	914.66
342.69	907.82
343.06	904.52
343.43	904.31
343.81	904.99
344.18	910.09
344.55	919.90
344.93	925.99
345.30	933.29
345.67	940.01
346.04	946.40
346.42	950.30
346.79	957.56
347.16	964.79
347.54	972.77
347.91	980.59
348.28	992.04
348.65	1001.21
349.03	1011.70
349.40	1021.64
349.77	1030.05
350.14	1034.98
350.52	1045.40
350.89	1051.30
351.26	1056.68
351.63	1062.93
352.01	1072.34
352.38	1072.55
352.75	1077.14
353.12	1080.67
353.50	1086.48
353.87	1086.08
354.24	1091.86
354.61	1096.68
354.98	1100.38
355.36	1099.07
355.73	1103.59
356.10	1105.90
356.47	1103.66
356.84	1101.34
357.22	1101.81
357.59	1099.54
357.96	1098.90
358.33	1099.98
358.70	1101.01
359.08	1099.07
359.45	1099.70
359.82	1101.20
360.19	1098.69
360.56	1098.65
360.94	1098.04
361.31	1096.19
361.68	1091.46
362.05	1090.08
362.42	1090.76
362.79	1090.90
363.16	1090.88
363.54	1092.35
363.91	1092.75
364.28	1092.73
364.65	1092.89
365.02	1093.03
365.39	1095.04
365.76	1093.52
366.14	1089.57
366.51	1088.16
366.88	1084.84
367.25	1080.44
367.62	1081.35
367.99	1084.02
368.36	1085.21
368.73	1081.63
369.10	1080.34
369.48	1083.41
369.85	1080.84
370.22	1081.51
370.59	1084.46
370.96	1084.60
371.33	1079.03
371.70	1081.77
372.07	1083.04
372.44	1084.67
372.81	1086.97
373.18	1088.82
373.55	1087.58
373.93	1087.11
374.30	1086.71
374.67	1085.89
375.04	1087.79
375.41	1087.86
375.78	1087.11
376.15	1086.64
376.52	1085.17
376.89	1084.35
377.26	1087.02
377.63	1085.99
378.00	1092.42
378.37	1094.86
378.74	1095.02
379.11	1091.13
379.48	1089.92
379.85	1086.57
380.22	1088.07
380.59	1087.72
380.96	1091.18
381.33	1094.27
381.70	1095.49
382.07	1095.46
382.44	1095.32
382.81	1094.43
383.18	1093.24
383.55	1091.32
383.92	1091.25
384.29	1093.78
384.66	1090.92
385.03	1091.60
385.40	1092.66
385.77	1090.99
386.14	1088.82
386.51	1091.32
386.88	1090.27
387.25	1088.61
387.62	1090.50
387.99	1092.40
388.36	1092.66
388.73	1094.08
389.10	1094.29
389.46	1096.94
389.83	1094.69
390.20	1093.45
390.57	1096.89
390.94	1097.83
391.31	1094.25
391.68	1094.67
392.05	1096.92
392.42	1094.43
392.79	1094.53
393.16	1095.79
393.53	1098.20
393.89	1100.96
394.26	1100.43
394.63	1099.98
395.00	1101.32
395.37	1101.74
395.74	1099.51
396.11	1100.10
396.48	1101.08
396.84	1096.87
397.21	1096.24
397.58	1095.09
397.95	1095.02
398.32	1096.07
398.69	1099.75
399.06	1100.03
399.42	1102.44
399.79	1105.01
400.16	1104.71
400.53	1104.85
400.90	1108.08
401.27	1106.42
401.64	1104.45
402.00	1102.65
402.37	1101.36
402.74	1098.74
403.11	1102.11
403.48	1102.60
403.84	1103.38
404.21	1103.49
404.58	1104.66
404.95	1104.33
405.32	1107.10
405.68	1109.65
406.05	1109.69
406.42	1112.41
406.79	1113.67
407.16	1115.66
407.52	1119.64
407.89	1122.61
408.26	1121.40
408.63	1122.52
408.99	1121.28
409.36	1119.36
409.73	1120.88
410.10	1123.18
410.47	1119.17
410.83	1120.81
411.20	1123.20
411.57	1129.50
411.94	1131.25
412.30	1132.63
412.67	1131.98
413.04	1134.55
413.40	1126.85
413.77	1124.86
414.14	1129.78
414.51	1130.08
414.87	1126.03
415.24	1130.99
415.61	1132.56
415.97	1131.60
416.34	1131.60
416.71	1133.57
417.08	1130.39
417.44	1129.94
417.81	1129.54
418.18	1131.86
418.54	1133.17
418.91	1138.53
419.28	1137.80
419.64	1136.66
420.01	1136.75
420.38	1138.93
420.74	1134.83
421.11	1141.78
421.48	1142.35
421.84	1144.52
422.21	1142.67
422.58	1145.53
422.94	1144.05
423.31	1146.65
423.68	1146.39
424.04	1146.68
424.41	1145.69
424.77	1142.28
425.14	1141.50
425.51	1141.95
425.87	1144.22
426.24	1144.40
426.61	1147.07
426.97	1150.89
427.34	1150.30
427.70	1153.16
428.07	1155.41
428.44	1152.90
428.80	1152.41
429.17	1152.76
429.53	1149.02
429.90	1151.17
430.27	1152.11
430.63	1153.53
431.00	1155.19
431.36	1155.59
431.73	1155.38
432.09	1157.16
432.46	1155.03
432.83	1157.35
433.19	1158.12
433.56	1157.65
433.92	1158.12
434.29	1159.55
434.65	1156.95
435.02	1154.49
435.38	1150.63
435.75	1150.49
436.11	1148.76
436.48	1150.40
436.84	1151.29
437.21	1154.52
437.57	1155.27
437.94	1155.31
438.30	1152.71
438.67	1151.57
439.03	1150.09
439.40	1150.68
439.76	1148.83
440.13	1151.94
440.49	1150.75
440.86	1150.21
441.22	1150.40
441.59	1154.68
441.95	1149.25
442.32	1149.69
442.68	1150.07
443.05	1149.25
443.41	1148.59
443.78	1150.94
444.14	1153.14
444.51	1150.16
444.87	1147.45
445.24	1146.23
445.60	1145.06
445.96	1142.70
446.33	1147.85
446.69	1146.82
447.06	1146.16
447.42	1143.19
447.79	1145.58
448.15	1143.77
448.51	1146.68
448.88	1148.38
449.24	1152.90
449.61	1151.82
449.97	1151.57
450.33	1151.24
450.70	1150.54
451.06	1149.69
451.43	1148.76
451.79	1146.82
452.15	1147.54
452.52	1144.76
452.88	1144.57
453.24	1145.62
453.61	1148.59
453.97	1149.76
454.34	1149.25
454.70	1149.23
455.06	1148.90
455.43	1145.36
455.79	1143.45
456.15	1145.93
456.52	1144.45
456.88	1145.93
457.24	1147.96
457.61	1145.90
457.97	1146.53
458.33	1147.63
458.70	1150.00
459.06	1150.68
459.42	1151.82
459.79	1151.24
460.15	1150.05
460.51	1148.20
460.88	1146.56
461.24	1150.23
461.60	1152.50
461.96	1155.05
462.33	1156.79
462.69	1160.44
463.05	1160.25
463.42	1161.00
463.78	1164.95
464.14	1165.98
464.50	1168.98
464.87	1170.85
465.23	1172.51
465.59	1172.07
465.95	1173.36
466.32	1177.64
466.68	1180.99
467.04	1184.17
467.40	1187.52
467.77	1194.35
468.13	1193.72
468.49	1195.48
468.85	1198.87
469.22	1202.80
469.58	1204.11
469.94	1207.60
470.30	1214.18
470.66	1217.55
471.03	1222.32
471.39	1224.69
471.75	1229.34
472.11	1234.87
472.47	1242.08
472.84	1248.04
473.20	1254.18
473.56	1262.46
473.92	1268.94
474.28	1278.59
474.65	1285.56
475.01	1297.69
475.37	1307.19
475.73	1317.82
476.09	1323.43
476.45	1335.06
476.81	1347.12
477.18	1363.48
477.54	1380.61
477.90	1397.49
478.26	1417.92
478.62	1434.75
478.98	1453.80
479.34	1470.54
479.71	1492.96
480.07	1515.01
480.43	1539.98
480.79	1562.05
481.15	1589.01
481.51	1615.41
481.87	1649.59
482.23	1681.32
482.59	1712.99
482.96	1749.08
483.32	1788.59
483.68	1822.62
484.04	1864.07
484.40	1913.53
484.76	1963.12
485.12	2009.56
485.48	2062.08
485.84	2119.54
486.20	2174.78
486.56	2232.45
486.92	2297.03
487.28	2366.56
487.64	2438.35
488.00	2522.21
488.37	2604.45
488.73	2698.54
489.09	2791.25
489.45	2885.69
489.81	2977.28
490.17	3084.10
490.53	3190.45
490.89	3295.85
491.25	3405.81
491.61	3532.48
491.97	3657.48
492.33	3800.02
492.69	3953.52
493.05	4124.16
493.41	4302.91
493.77	4495.58
494.13	4681.66
494.49	4874.82
494.85	5069.97
495.21	5273.34
495.57	5484.06
495.93	5710.86
496.29	5943.63
496.64	6210.07
497.00	6472.52
497.36	6746.15
497.72	7023.25
498.08	7340.51
498.44	7676.16
498.80	8021.32
499.16	8390.54
499.52	8776.80
499.88	9169.19
500.24	9576.49
500.60	9991.16
500.96	10433.13
501.32	10913.57
501.68	11439.60
502.03	11994.61
502.39	12606.13
502.75	13238.82
503.11	13959.63
503.47	14692.39
503.83	15451.54
504.19	16215.23
504.55	16995.85
504.91	17803.03
505.26	18603.23
505.62	19442.10
505.98	20387.38
506.34	21320.83
506.70	22303.20
507.06	23416.03
507.42	24628.40
507.78	25827.09
508.13	27107.83
508.49	28443.20
508.85	29768.90
509.21	31109.42
509.57	32580.84
509.93	34149.07
510.28	35675.80
510.64	37265.99
511.00	38933.01
511.36	40543.56
511.72	42100.99
512.07	43806.68
512.43	45537.39
512.79	47251.25
513.15	49015.01
513.51	50853.97
513.86	52533.42
514.22	54140.87
514.58	55635.68
514.94	57052.20
515.30	58367.58
515.65	59572.70
516.01	60711.76
516.37	61718.24
516.73	62604.74
517.08	63379.23
517.44	64093.39
517.80	64642.23
518.16	65061.74
518.51	65336.05
518.87	65485.73
519.23	65532.52
519.59	65535.00
519.94	65535.00
520.30	65535.00
520.66	65535.00
521.01	65535.00
521.37	65535.00
521.73	65535.00
522.09	65535.00
522.44	65535.00
522.80	65535.00
523.16	65535.00
523.51	65535.00
523.87	65535.00
524.23	65535.00
524.58	65535.00
524.94	65535.00
525.30	65535.00
525.65	65535.00
526.01	65535.00
526.37	65535.00
526.72	65535.00
527.08	65535.00
527.44	65535.00
527.79	65535.00
528.15	65535.00
528.51	65535.00
528.86	65535.00
529.22	65535.00
529.58	65535.00
529.93	65535.00
530.29	65535.00
530.65	65535.00
531.00	65535.00
531.36	65535.00
531.71	65535.00
532.07	65535.00
532.43	65535.00
532.78	65535.00
533.14	65535.00
533.49	65535.00
533.85	65535.00
534.21	65535.00
534.56	65535.00
534.92	65515.13
535.27	65468.34
535.63	65394.83
535.98	65215.17
536.34	64999.74
536.69	64698.16
537.05	64308.40
537.41	63844.76
537.76	63406.33
538.12	62904.00
538.47	62426.30
538.83	61946.14
539.18	61489.20
539.54	60974.23
539.89	60319.77
540.25	59632.66
540.60	58972.75
540.96	58177.32
541.31	57415.42
541.67	56837.05
542.02	56246.82
542.38	55512.50
542.73	54736.73
543.09	53881.52
543.44	52962.63
543.80	51977.82
544.15	51136.23
544.51	50405.45
544.86	49640.07
545.22	48870.29
545.57	48080.67
545.93	47098.32
546.28	46269.21
546.64	45554.34
546.99	44724.92
547.35	43939.44
547.70	43289.96
548.05	42428.04
548.41	41515.46
548.76	40718.49
549.12	39902.67
549.47	39154.96
549.83	38584.53
550.18	37972.22
550.53	37205.11
550.89	36449.58
551.24	35614.79
551.60	34695.59
551.95	33752.91
552.30	32968.11
552.66	32192.78
553.01	31483.67
553.37	30753.80
553.72	30051.82
554.07	29377.89
554.43	28757.02
554.78	28083.55
555.13	27498.70
555.49	26894.39
555.84	26275.46
556.19	25627.02
556.55	24972.37
556.90	24255.04
557.26	23642.62
557.61	23085.78
557.96	22544.04
558.32	22087.59
558.67	21653.65
559.02	21191.61
559.37	20690.78
559.73	20202.83
560.08	19652.52
560.43	19011.45
560.79	18446.77
561.14	17895.57
561.49	17372.91
561.85	16873.60
562.20	16503.52
562.55	16123.88
562.90	15757.75
563.26	15387.50
563.61	15041.10
563.96	14689.97
564.32	14332.79
564.67	13979.08
565.02	13646.75
565.37	13341.03
565.73	12999.55
566.08	12692.33
566.43	12402.17
566.78	12156.37
567.14	11880.89
567.49	11626.42
567.84	11402.88
568.19	11145.94
568.54	10835.77
568.90	10561.29
569.25	10323.92
569.60	10051.92
569.95	9816.46
570.31	9607.81
570.66	9402.21
571.01	9194.49
571.36	9004.04
571.71	8825.83
572.06	8669.91
572.42	8536.50
572.77	8379.68
573.12	8223.24
573.47	8055.40
573.82	7857.20
574.18	7648.75
574.53	7451.54
574.88	7247.70
575.23	7061.12
575.58	6898.42
575.93	6756.00
576.28	6626.27
576.64	6485.41
576.99	6330.17
577.34	6185.22
577.69	6037.90
578.04	5891.99
578.39	5762.12
578.74	5636.15
579.09	5518.33
579.44	5401.44
579.80	5290.41
580.15	5181.97
580.50	5082.92
580.85	4982.79
581.20	4868.57
581.55	4756.46
581.90	4658.02
582.25	4559.81
582.60	4462.44
582.95	4384.15
583.30	4304.06
583.65	4215.98
584.00	4131.65
584.35	4045.29
584.71	3951.29
585.06	3870.31
585.41	3788.84
585.76	3725.03
586.11	3654.72
586.46	3589.38
586.81	3514.97
587.16	3456.18
587.51	3378.17
587.86	3310.36
588.21	3240.03
588.56	3189.49
588.91	3139.71
589.26	3095.94
589.61	3051.61
589.96	3016.11
590.31	2966.68
590.66	2907.11
591.01	2854.42
591.36	2810.07
591.71	2769.30
592.06	2731.41
592.41	2699.04
592.76	2660.65
593.10	2621.66
593.45	2583.67
593.80	2547.32
594.15	2513.17
594.50	2487.10
594.85	2462.01
595.20	2434.44
595.55	2404.92
595.90	2375.57
596.25	2346.18
596.60	2313.41
596.95	2284.83
597.30	2255.13
597.64	2280.57
597.99	2261.00
598.34	2241.37
598.69	2220.68
599.04	2199.71
599.39	2122.98
599.74	2089.37
600.09	2060.40
600.44	2031.28
600.78	2003.36
601.13	1983.37
601.48	1960.36
601.83	1939.88
602.18	1914.91
602.53	1894.62
602.88	1871.80
603.22	1853.03
603.57	1834.35
603.92	1821.01
604.27	1805.98
604.62	1791.40
604.97	1776.37
605.31	1759.59
605.66	1738.64
606.01	1720.67
606.36	1704.45
606.71	1689.28
607.05	1676.08
607.40	1657.94
607.75	1642.66
608.10	1627.87
608.44	1612.75
608.79	1598.63
609.14	1592.20
609.49	1582.34
609.84	1573.10
610.18	1566.50
610.53	1557.14
610.88	1548.99
611.23	1541.55
611.57	1529.40
611.92	1518.56
612.27	1512.29
612.62	1500.49
612.96	1490.43
613.31	1481.86
613.66	1471.92
614.00	1461.64
614.35	1456.26
614.70	1443.67
615.05	1436.27
615.39	1430.98
615.74	1422.93
616.09	1413.38
616.43	1410.64
616.78	1404.04
617.13	1394.61
617.47	1382.39
617.82	1374.43
618.17	1365.75
618.51	1357.18
618.86	1347.91
619.21	1346.58
619.55	1343.37
619.90	1334.67
620.25	1329.82
620.59	1328.91
620.94	1321.58
621.29	1315.36
621.63	1313.70
621.98	1307.21
622.32	1302.23
622.67	1299.09
623.02	1293.10
623.36	1287.72
623.71	1282.43
624.05	1278.66
624.40	1275.64
624.75	1270.02
625.09	1265.88
625.44	1262.51
625.78	1255.67
626.13	1248.28
626.48	1245.56
626.82	1242.57
627.17	1242.31
627.51	1240.13
627.86	1241.28
628.20	1237.77
628.55	1235.64
628.89	1228.76
629.24	1227.87
629.58	1221.69
629.93	1221.67
630.28	1220.54
630.62	1218.88
630.97	1214.27
631.31	1207.90
631.66	1201.94
632.00	1196.04
632.35	1194.00
632.69	1190.23
633.04	1192.06
633.38	1190.44
633.73	1191.31
634.07	1190.30
634.42	1189.83
634.76	1186.65
635.11	1184.55
635.45	1181.34
635.79	1178.27
636.14	1171.60
636.48	1168.23
636.83	1168.63
637.17	1166.08
637.52	1163.97
637.86	1169.05
638.21	1171.11
638.55	1168.77
638.89	1166.76
639.24	1163.25
639.58	1157.61
639.93	1152.57
640.27	1153.88
640.61	1153.25
640.96	1153.16
641.30	1154.49
641.65	1154.59
641.99	1148.52
642.33	1146.82
642.68	1149.30
643.02	1146.63
643.37	1147.35
643.71	1147.03
644.05	1146.09
644.40	1143.66
644.74	1143.68
645.08	1143.21
645.43	1145.01
645.77	1148.34
646.11	1146.14
646.46	1144.71
646.80	1143.14
647.14	1139.61
647.49	1137.52
647.83	1136.49
648.17	1135.00
648.52	1131.65
648.86	1131.25
649.20	1130.62
649.55	1129.19
649.89	1128.09
650.23	1128.68
650.57	1126.69
650.92	1125.12
651.26	1125.10
651.60	1125.14
651.95	1126.08
652.29	1128.02
652.63	1124.25
652.97	1123.88
653.32	1124.28
653.66	1125.94
654.00	1125.87
654.34	1126.78
654.69	1125.52
655.03	1124.98
655.37	1122.97
655.71	1124.63
656.05	1124.37
656.40	1126.83
656.74	1127.76
657.08	1124.46
657.42	1115.57
657.76	1111.57
658.11	1111.54
658.45	1108.57
658.79	1107.78
659.13	1112.71
659.47	1113.16
659.82	1110.42
660.16	1111.22
660.50	1112.20
660.84	1111.15
661.18	1113.81
661.52	1112.97
661.87	1109.23
662.21	1109.91
662.55	1109.41
662.89	1109.46
663.23	1110.54
663.57	1110.44
663.91	1109.27
664.25	1110.65
664.60	1109.41
664.94	1105.76
665.28	1105.72
665.62	1106.93
665.96	1107.33
666.30	1104.73
666.64	1106.32
666.98	1106.84
667.32	1105.69
667.66	1101.36
668.01	1104.08
668.35	1103.96
668.69	1103.40
669.03	1101.92
669.37	1103.45
669.71	1100.08
670.05	1101.71
670.39	1102.35
670.73	1100.92
671.07	1102.72
671.41	1107.35
671.75	1106.84
672.09	1107.82
672.43	1110.49
672.77	1109.13
673.11	1106.37
673.45	1103.63
673.79	1103.45
674.13	1096.52
674.47	1099.02
674.81	1101.50
675.15	1103.35
675.49	1102.23
675.83	1107.12
676.17	1104.57
676.51	1100.26
676.85	1099.47
677.19	1100.57
677.53	1102.86
677.87	1102.42
678.21	1102.88
678.55	1104.99
678.89	1101.50
679.23	1100.05
679.57	1099.91
679.90	1102.77
680.24	1103.42
680.58	1106.28
680.92	1104.26
681.26	1103.84
681.60	1102.46
681.94	1099.96
682.28	1101.25
682.62	1102.18
682.96	1104.08
683.29	1103.77
683.63	1102.32
683.97	1100.03
684.31	1102.02
684.65	1103.56
684.99	1103.26
685.33	1106.61
685.67	1105.08
686.00	1104.33
686.34	1101.15
686.68	1100.15
687.02	1095.02
687.36	1097.15
687.70	1097.66
688.03	1095.86
688.37	1098.88
688.71	1104.76
689.05	1103.61
689.39	1104.05
689.72	1106.23
690.06	1105.44
690.40	1102.42
690.74	1099.96
691.08	1095.56
691.41	1093.80
691.75	1092.89
692.09	1096.89
692.43	1098.69
692.76	1104.10
693.10	1103.45
693.44	1104.78
693.78	1104.64
694.11	1103.66
694.45	1098.44
694.79	1101.20
695.13	1100.03
695.46	1094.76
695.80	1096.05
696.14	1099.82
696.48	1100.31
696.81	1100.08
697.15	1104.48
697.49	1105.08
697.82	1103.54
698.16	1101.36
698.50	1096.31
698.83	1089.40
699.17	1091.13
699.51	1090.64
699.84	1091.51
700.18	1095.00
700.52	1096.85
700.85	1095.44
701.19	1097.66
701.53	1096.35
701.86	1098.11
702.20	1100.59
702.54	1100.45
702.87	1100.66
703.21	1099.07
703.55	1097.57
703.88	1096.26
704.22	1094.32
704.55	1092.12
704.89	1094.20
705.23	1093.36
705.56	1099.65
705.90	1100.26
706.23	1101.01
706.57	1101.55
706.91	1099.63
707.24	1095.00
707.58	1092.54
707.91	1093.83
708.25	1094.36
708.58	1099.58
708.92	1098.95
709.26	1102.84
709.59	1101.01
709.93	1101.78
710.26	1098.62
710.60	1098.98
710.93	1100.45
711.27	1099.49
711.60	1100.59
711.94	1102.46
712.27	1100.80
712.61	1098.18
712.94	1099.96
713.28	1098.62
713.61	1096.89
713.95	1097.90
714.28	1097.50
714.62	1095.72
714.95	1095.63
715.29	1095.30
715.62	1095.09
715.96	1095.72
716.29	1093.85
716.63	1092.00
716.96	1091.98
717.29	1090.95
717.63	1092.26
717.96	1092.68
718.30	1095.04
718.63	1092.82
718.97	1090.95
719.30	1088.30
719.63	1089.64
719.97	1085.03
720.30	1089.19
720.64	1092.84
720.97	1092.07
721.30	1094.69
721.64	1097.99
721.97	1098.74
722.31	1096.52
722.64	1097.27
722.97	1094.36
723.31	1091.86
723.64	1090.92
723.97	1091.74
724.31	1093.22
724.64	1092.37
724.98	1094.90
725.31	1093.99
725.64	1093.94
725.98	1097.73
726.31	1098.86
726.64	1099.05
726.97	1097.66
727.31	1093.40
727.64	1091.84
727.97	1094.36
728.31	1094.57
728.64	1095.49
728.97	1100.26
729.31	1097.15
729.64	1095.44
729.97	1091.27
730.30	1090.53
730.64	1089.68
730.97	1087.90
731.30	1089.61
731.63	1093.62
731.97	1092.00
732.30	1090.34
732.63	1092.89
732.96	1087.62
733.30	1086.08
733.63	1089.68
733.96	1091.74
734.29	1092.91
734.63	1097.48
734.96	1098.04
735.29	1096.21
735.62	1095.11
735.95	1094.43
736.29	1091.02
736.62	1089.61
736.95	1089.92
737.28	1087.27
737.61	1087.60
737.94	1089.68
738.28	1091.60
738.61	1091.53
738.94	1096.17
739.27	1093.36
739.60	1096.40
739.93	1095.07
740.27	1093.24
740.60	1095.21
740.93	1099.44
741.26	1095.32
741.59	1097.36
741.92	1099.40
742.25	1096.19
742.58	1092.56
742.91	1094.01
743.25	1089.45
743.58	1088.51
743.91	1087.41
744.24	1085.96
744.57	1082.61
744.90	1084.93
745.23	1086.45
745.56	1088.72
745.89	1093.78
746.22	1097.27
746.55	1098.51
746.88	1097.34
747.21	1094.60
747.54	1091.91
747.87	1091.79
748.20	1089.96
748.53	1093.19
748.87	1093.10
749.20	1092.12
749.53	1090.99
749.86	1091.23
750.19	1088.37
750.52	1087.90
750.85	1087.88
751.18	1088.63
751.51	1088.37
751.84	1085.28
752.16	1088.68
752.49	1091.11
752.82	1092.02
753.15	1091.37
753.48	1096.05
753.81	1094.88
754.14	1095.75
754.47	1094.74
754.80	1095.30
755.13	1093.01
755.46	1090.88
755.79	1089.96
756.12	1089.92
756.45	1088.30
756.78	1087.76
757.11	1089.07
757.43	1088.84
757.76	1088.65
758.09	1091.88
758.42	1094.43
758.75	1095.49
759.08	1095.02
759.41	1096.99
759.74	1095.23
760.07	1095.42
760.39	1093.80
760.72	1095.39
761.05	1094.13
761.38	1096.19
761.71	1095.16
762.04	1097.66
762.36	1095.72
