SpectraSuite Data File
++++++++++++++++++++++++++++++++++++
Date: Mon Aug 26 10:26:09 PDT 2019
User: corrico
Dark Spectrum Present: No
Reference Spectrum Present: No
Number of Sampled Component Spectra: 1
Spectrometers: USB2+H06089
Integration Time (usec): 10000 (USB2+H06089)
Spectra Averaged: 20 (USB2+H06089)
Boxcar Smoothing: 2 (USB2+H06089)
Correct for Electrical Dark: No (USB2+H06089)
Strobe/Lamp Enabled: No (USB2+H06089)
Correct for Detector Non-linearity: No (USB2+H06089)
Correct for Stray Light: No (USB2+H06089)
Number of Pixels in Processed Spectrum: 2048
>>>>>Begin Processed Spectral Data<<<<<
339.70	1023.17
340.07	1023.17
340.45	992.62
340.82	971.18
341.19	949.46
341.57	927.84
341.94	912.69
342.31	906.04
342.69	901.41
343.06	894.95
343.43	895.07
343.81	898.53
344.18	902.53
344.55	907.43
344.93	918.80
345.30	923.06
345.67	929.80
346.04	939.98
346.42	948.29
346.79	954.31
347.16	961.84
347.54	970.97
347.91	975.02
348.28	983.75
348.65	993.63
349.03	1003.18
349.40	1010.90
349.77	1020.92
350.14	1030.82
350.52	1035.06
350.89	1041.05
351.26	1048.00
351.63	1053.57
352.01	1057.43
352.38	1066.00
352.75	1071.36
353.12	1072.74
353.50	1076.76
353.87	1079.41
354.24	1079.64
354.61	1079.31
354.98	1083.76
355.36	1080.86
355.73	1081.28
356.10	1083.74
356.47	1085.80
356.84	1085.24
357.22	1092.05
357.59	1091.02
357.96	1088.33
358.33	1086.10
358.70	1083.20
359.08	1077.63
359.45	1078.26
359.82	1079.08
360.19	1082.40
360.56	1085.21
360.94	1085.49
361.31	1084.49
361.68	1084.79
362.05	1080.79
362.42	1079.64
362.79	1078.05
363.16	1076.76
363.54	1073.51
363.91	1072.22
364.28	1072.13
364.65	1074.77
365.02	1075.64
365.39	1071.92
365.76	1070.51
366.14	1068.67
366.51	1066.35
366.88	1066.25
367.25	1071.33
367.62	1077.61
367.99	1077.35
368.36	1077.21
368.73	1076.46
369.10	1075.90
369.48	1072.83
369.85	1072.67
370.22	1073.65
370.59	1071.43
370.96	1070.89
371.33	1071.94
371.70	1070.91
372.07	1073.32
372.44	1077.33
372.81	1073.98
373.18	1070.77
373.55	1072.90
373.93	1069.18
374.30	1067.87
374.67	1072.81
375.04	1075.45
375.41	1077.42
375.78	1079.03
376.15	1079.88
376.52	1081.42
376.89	1079.92
377.26	1077.00
377.63	1076.55
378.00	1077.09
378.37	1074.82
378.74	1074.33
379.11	1072.62
379.48	1069.81
379.85	1068.52
380.22	1065.72
380.59	1068.06
380.96	1073.02
381.33	1076.34
381.70	1075.38
382.07	1074.40
382.44	1073.86
382.81	1070.56
383.18	1067.14
383.55	1065.97
383.92	1070.87
384.29	1070.68
384.66	1074.89
385.03	1079.95
385.40	1083.50
385.77	1085.03
386.14	1086.94
386.51	1084.30
386.88	1083.74
387.25	1083.76
387.62	1079.78
387.99	1077.35
388.36	1080.37
388.73	1077.11
389.10	1074.40
389.46	1077.40
389.83	1079.62
390.20	1076.44
390.57	1078.99
390.94	1080.30
391.31	1078.73
391.68	1078.03
392.05	1077.65
392.42	1077.91
392.79	1079.17
393.16	1077.51
393.53	1076.76
393.89	1078.33
394.26	1074.98
394.63	1073.88
395.00	1076.41
395.37	1078.54
395.74	1079.27
396.11	1080.91
396.48	1083.48
396.84	1082.78
397.21	1081.42
397.58	1081.98
397.95	1087.67
398.32	1085.63
398.69	1084.21
399.06	1083.53
399.42	1083.08
399.79	1078.12
400.16	1076.58
400.53	1076.32
400.90	1075.31
401.27	1074.77
401.64	1076.72
402.00	1075.03
402.37	1078.14
402.74	1078.00
403.11	1080.65
403.48	1078.05
403.84	1084.81
404.21	1085.10
404.58	1087.55
404.95	1084.96
405.32	1086.29
405.68	1085.07
406.05	1086.03
406.42	1087.44
406.79	1087.09
407.16	1088.28
407.52	1086.45
407.89	1083.11
408.26	1083.88
408.63	1085.07
408.99	1083.48
409.36	1082.26
409.73	1085.35
410.10	1085.38
410.47	1084.25
410.83	1087.02
411.20	1090.48
411.57	1091.30
411.94	1090.90
412.30	1091.02
412.67	1090.43
413.04	1088.98
413.40	1088.19
413.77	1086.85
414.14	1087.13
414.51	1089.87
414.87	1089.50
415.24	1090.27
415.61	1087.60
415.97	1089.75
416.34	1086.94
416.71	1085.33
417.08	1086.03
417.44	1087.02
417.81	1085.66
418.18	1087.53
418.54	1091.74
418.91	1089.00
419.28	1091.06
419.64	1092.16
420.01	1091.81
420.38	1090.53
420.74	1092.94
421.11	1094.60
421.48	1092.61
421.84	1090.99
422.21	1090.67
422.58	1090.60
422.94	1087.83
423.31	1086.52
423.68	1084.58
424.04	1084.84
424.41	1082.19
424.77	1082.99
425.14	1085.26
425.51	1087.34
425.87	1087.86
426.24	1090.20
426.61	1092.84
426.97	1098.06
427.34	1097.15
427.70	1099.09
428.07	1096.52
428.44	1093.69
428.80	1087.04
429.17	1090.17
429.53	1087.02
429.90	1087.90
430.27	1093.31
430.63	1093.80
431.00	1090.97
431.36	1090.24
431.73	1094.22
432.09	1089.00
432.46	1091.53
432.83	1094.36
433.19	1096.33
433.56	1092.21
433.92	1093.19
434.29	1090.78
434.65	1091.37
435.02	1090.69
435.38	1091.39
435.75	1090.90
436.11	1091.16
436.48	1090.36
436.84	1091.70
437.21	1090.39
437.57	1087.04
437.94	1088.47
438.30	1089.73
438.67	1090.95
439.03	1093.59
439.40	1096.87
439.76	1095.32
440.13	1093.33
440.49	1091.32
440.86	1091.18
441.22	1090.13
441.59	1091.77
441.95	1090.90
442.32	1091.46
442.68	1089.92
443.05	1087.34
443.41	1088.58
443.78	1087.72
444.14	1089.96
444.51	1092.80
444.87	1100.19
445.24	1098.06
445.60	1099.02
445.96	1097.85
446.33	1096.80
446.69	1094.55
447.06	1095.32
447.42	1096.21
447.79	1093.71
448.15	1092.26
448.51	1090.36
448.88	1092.30
449.24	1095.07
449.61	1096.89
449.97	1097.17
450.33	1097.69
450.70	1094.27
451.06	1089.17
451.43	1085.00
451.79	1088.86
452.15	1088.61
452.52	1090.95
452.88	1092.35
453.24	1097.24
453.61	1094.76
453.97	1097.20
454.34	1098.23
454.70	1097.13
455.06	1097.36
455.43	1097.41
455.79	1095.65
456.15	1090.60
456.52	1091.23
456.88	1087.44
457.24	1085.35
457.61	1082.12
457.97	1087.20
458.33	1085.59
458.70	1086.50
459.06	1085.47
459.42	1088.47
459.79	1087.32
460.15	1090.88
460.51	1090.46
460.88	1094.55
461.24	1093.92
461.60	1093.08
461.96	1093.83
462.33	1096.99
462.69	1096.33
463.05	1095.91
463.42	1094.97
463.78	1090.29
464.14	1092.89
464.50	1092.52
464.87	1092.73
465.23	1097.71
465.59	1101.11
465.95	1097.17
466.32	1095.51
466.68	1097.15
467.04	1095.18
467.40	1094.74
467.77	1095.75
468.13	1099.23
468.49	1102.53
468.85	1104.08
469.22	1106.51
469.58	1108.64
469.94	1108.36
470.30	1108.83
470.66	1106.11
471.03	1105.97
471.39	1104.15
471.75	1109.02
472.11	1107.99
472.47	1110.47
472.84	1111.92
473.20	1112.53
473.56	1110.07
473.92	1113.70
474.28	1113.28
474.65	1114.10
475.01	1117.11
475.37	1117.40
475.73	1117.77
476.09	1120.18
476.45	1124.56
476.81	1128.09
477.18	1128.93
477.54	1126.59
477.90	1127.90
478.26	1126.90
478.62	1126.10
478.98	1128.79
479.34	1132.70
479.71	1135.79
480.07	1140.03
480.43	1144.40
480.79	1146.98
481.15	1149.25
481.51	1156.88
481.87	1156.67
482.23	1161.19
482.59	1166.87
482.96	1173.12
483.32	1172.35
483.68	1181.55
484.04	1184.57
484.40	1192.15
484.76	1200.48
485.12	1208.37
485.48	1215.35
485.84	1223.44
486.20	1228.01
486.56	1233.18
486.92	1243.41
487.28	1251.09
487.64	1258.01
488.00	1269.09
488.37	1278.75
488.73	1287.72
489.09	1297.31
489.45	1312.10
489.81	1323.67
490.17	1340.89
490.53	1355.54
490.89	1369.73
491.25	1382.18
491.61	1397.37
491.97	1407.43
492.33	1425.50
492.69	1442.87
493.05	1462.37
493.41	1487.41
493.77	1508.87
494.13	1534.20
494.49	1560.86
494.85	1584.78
495.21	1608.37
495.57	1636.69
495.93	1664.07
496.29	1690.55
496.64	1728.46
497.00	1759.33
497.36	1797.11
497.72	1826.81
498.08	1867.26
498.44	1900.42
498.80	1940.63
499.16	1984.42
499.52	2029.99
499.88	2082.05
500.24	2139.83
500.60	2198.86
500.96	2255.81
501.32	2317.62
501.68	2370.82
502.03	2427.30
502.39	2488.43
502.75	2552.40
503.11	2627.49
503.47	2709.45
503.83	2791.91
504.19	2883.00
504.55	2981.09
504.91	3072.26
505.26	3165.79
505.62	3273.19
505.98	3379.17
506.34	3486.18
506.70	3610.96
507.06	3744.13
507.42	3879.37
507.78	4011.37
508.13	4159.11
508.49	4307.03
508.85	4456.38
509.21	4611.79
509.57	4789.20
509.93	4952.92
510.28	5126.59
510.64	5321.58
511.00	5520.36
511.36	5723.31
511.72	5951.54
512.07	6193.03
512.43	6418.97
512.79	6651.36
513.15	6873.33
513.51	7091.28
513.86	7319.96
514.22	7559.06
514.58	7821.09
514.94	8120.00
515.30	8416.92
515.65	8696.71
516.01	8979.65
516.37	9240.39
516.73	9486.78
517.08	9730.52
517.44	9968.79
517.80	10236.50
518.16	10521.20
518.51	10794.43
518.87	11088.66
519.23	11417.72
519.59	11706.87
519.94	11976.76
520.30	12206.85
520.66	12410.20
521.01	12624.22
521.37	12863.42
521.73	13073.69
522.09	13279.94
522.44	13505.36
522.80	13687.41
523.16	13830.69
523.51	13937.38
523.87	14106.64
524.23	14220.77
524.58	14251.17
524.94	14296.55
525.30	14387.34
525.65	14408.43
526.01	14405.41
526.37	14418.43
526.72	14397.62
527.08	14327.73
527.44	14287.71
527.79	14290.63
528.15	14294.03
528.51	14261.33
528.86	14236.10
529.22	14165.39
529.58	14040.69
529.93	13908.52
530.29	13765.32
530.65	13605.86
531.00	13459.72
531.36	13323.41
531.71	13171.39
532.07	13036.97
532.43	12905.06
532.78	12736.91
533.14	12569.24
533.49	12416.33
533.85	12237.77
534.21	12039.48
534.56	11817.65
534.92	11582.00
535.27	11355.25
535.63	11168.33
535.98	10980.88
536.34	10815.87
536.69	10648.06
537.05	10463.18
537.41	10248.90
537.76	10051.83
538.12	9864.21
538.47	9679.71
538.83	9492.86
539.18	9329.94
539.54	9187.70
539.89	9036.60
540.25	8868.43
540.60	8720.86
540.96	8555.10
541.31	8363.60
541.67	8188.55
542.02	8048.63
542.38	7885.97
542.73	7732.66
543.09	7596.77
543.44	7473.28
543.80	7345.72
544.15	7246.81
544.51	7165.92
544.86	7077.41
545.22	6965.18
545.57	6860.06
545.93	6738.57
546.28	6612.62
546.64	6480.80
546.99	6376.13
547.35	6273.71
547.70	6183.41
548.05	6077.44
548.41	5994.67
548.76	5895.36
549.12	5791.21
549.47	5692.18
549.83	5597.18
550.18	5479.55
550.53	5369.70
550.89	5278.28
551.24	5177.29
551.60	5092.58
551.95	5022.18
552.30	4951.78
552.66	4873.35
553.01	4808.98
553.37	4727.23
553.72	4645.92
554.07	4573.31
554.43	4494.13
554.78	4391.15
555.13	4290.83
555.49	4197.56
555.84	4104.22
556.19	4016.76
556.55	3943.15
556.90	3885.10
557.26	3825.58
557.61	3764.54
557.96	3695.07
558.32	3639.56
558.67	3573.69
559.02	3506.66
559.37	3447.87
559.73	3391.58
560.08	3337.60
560.43	3284.64
560.79	3233.68
561.14	3174.33
561.49	3127.73
561.85	3072.19
562.20	3025.03
562.55	2979.41
562.90	2931.52
563.26	2878.06
563.61	2824.28
563.96	2778.45
564.32	2733.68
564.67	2693.39
565.02	2652.67
565.37	2621.00
565.73	2582.29
566.08	2543.11
566.43	2508.26
566.78	2480.50
567.14	2444.95
567.49	2406.87
567.84	2378.45
568.19	2348.10
568.54	2319.28
568.90	2290.73
569.25	2264.44
569.60	2232.26
569.95	2204.71
570.31	2173.19
570.66	2143.88
571.01	2114.84
571.36	2087.34
571.71	2058.69
572.06	2029.99
572.42	2005.11
572.77	1983.63
573.12	1965.72
573.47	1942.64
573.82	1919.43
574.18	1902.41
574.53	1882.24
574.88	1859.34
575.23	1839.29
575.58	1827.49
575.93	1810.40
576.28	1790.14
576.64	1766.71
576.99	1752.24
577.34	1730.17
577.69	1711.12
578.04	1699.32
578.39	1690.55
578.74	1674.82
579.09	1663.91
579.44	1648.32
579.80	1629.69
580.15	1612.70
580.50	1598.89
580.85	1584.43
581.20	1575.81
581.55	1565.65
581.90	1551.26
582.25	1536.61
582.60	1524.84
582.95	1508.64
583.30	1496.75
583.65	1489.56
584.00	1483.85
584.35	1468.15
584.71	1454.67
585.06	1442.28
585.41	1432.90
585.76	1418.55
586.11	1413.85
586.46	1408.14
586.81	1402.89
587.16	1392.78
587.51	1384.97
587.86	1379.11
588.21	1371.30
588.56	1360.90
588.91	1354.63
589.26	1349.76
589.61	1339.25
589.96	1331.27
590.31	1327.01
590.66	1318.85
591.01	1311.29
591.36	1305.04
591.71	1299.25
592.06	1292.09
592.41	1285.54
592.76	1278.96
593.10	1277.39
593.45	1273.86
593.80	1270.40
594.15	1267.45
594.50	1262.84
594.85	1254.74
595.20	1251.62
595.55	1247.76
595.90	1246.38
596.25	1242.73
596.60	1241.56
596.95	1237.53
597.30	1231.03
597.64	1273.79
597.99	1277.02
598.34	1276.46
598.69	1273.86
599.04	1270.75
599.39	1220.78
599.74	1215.96
600.09	1208.79
600.44	1203.99
600.78	1202.26
601.13	1195.43
601.48	1190.26
601.83	1189.09
602.18	1187.61
602.53	1187.47
602.88	1185.76
603.22	1184.31
603.57	1181.03
603.92	1177.52
604.27	1173.83
604.62	1173.17
604.97	1168.77
605.31	1168.09
605.66	1167.27
606.01	1167.86
606.36	1164.65
606.71	1161.63
607.05	1158.94
607.40	1153.51
607.75	1147.63
608.10	1149.76
608.44	1150.51
608.79	1146.51
609.14	1146.42
609.49	1146.49
609.84	1144.94
610.18	1145.22
610.53	1147.19
610.88	1147.03
611.23	1144.57
611.57	1142.30
611.92	1137.38
612.27	1132.75
612.62	1132.68
612.96	1131.79
613.31	1128.37
613.66	1126.08
614.00	1128.04
614.35	1125.21
614.70	1124.77
615.05	1124.28
615.39	1127.01
615.74	1126.80
616.09	1128.70
616.43	1131.46
616.78	1129.47
617.13	1126.31
617.47	1121.63
617.82	1117.30
618.17	1111.87
618.51	1112.71
618.86	1112.76
619.21	1112.11
619.55	1113.88
619.90	1115.20
620.25	1113.81
620.59	1111.29
620.94	1113.88
621.29	1114.77
621.63	1113.16
621.98	1115.17
622.32	1117.30
622.67	1117.02
623.02	1115.55
623.36	1117.14
623.71	1111.40
624.05	1110.49
624.40	1105.90
624.75	1102.72
625.09	1099.51
625.44	1100.08
625.78	1102.93
626.13	1107.03
626.48	1109.48
626.82	1108.24
627.17	1108.31
627.51	1104.94
627.86	1099.02
628.20	1094.15
628.55	1096.28
628.89	1096.19
629.24	1098.76
629.58	1099.47
629.93	1098.65
630.28	1098.37
630.62	1098.37
630.97	1095.30
631.31	1098.53
631.66	1101.85
632.00	1098.98
632.35	1100.05
632.69	1098.53
633.04	1095.21
633.38	1096.07
633.73	1095.67
634.07	1091.93
634.42	1092.52
634.76	1094.20
635.11	1093.24
635.45	1095.00
635.79	1096.05
636.14	1094.06
636.48	1094.48
636.83	1092.21
637.17	1090.06
637.52	1088.16
637.86	1089.05
638.21	1088.42
638.55	1091.23
638.89	1090.64
639.24	1090.60
639.58	1092.73
639.93	1090.78
640.27	1089.47
640.61	1089.26
640.96	1091.60
641.30	1090.57
641.65	1094.72
641.99	1093.29
642.33	1094.95
642.68	1095.04
643.02	1093.55
643.37	1089.03
643.71	1089.45
644.05	1090.36
644.40	1092.37
644.74	1090.95
645.08	1091.13
645.43	1091.16
645.77	1091.13
646.11	1085.87
646.46	1088.93
646.80	1090.32
647.14	1087.34
647.49	1087.04
647.83	1091.25
648.17	1089.94
648.52	1087.53
648.86	1089.31
649.20	1089.14
649.55	1088.04
649.89	1087.79
650.23	1090.08
650.57	1089.75
650.92	1090.01
651.26	1088.89
651.60	1090.55
651.95	1089.78
652.29	1091.16
652.63	1090.36
652.97	1092.00
653.32	1089.36
653.66	1086.73
654.00	1088.04
654.34	1086.73
654.69	1085.75
655.03	1086.06
655.37	1089.24
655.71	1086.50
656.05	1087.69
656.40	1088.21
656.74	1088.30
657.08	1084.93
657.42	1084.28
657.76	1081.77
658.11	1077.58
658.45	1075.08
658.79	1077.23
659.13	1077.79
659.47	1081.77
659.82	1083.22
660.16	1083.90
660.50	1082.80
660.84	1084.93
661.18	1082.87
661.52	1084.30
661.87	1083.36
662.21	1087.83
662.55	1086.64
662.89	1088.44
663.23	1088.65
663.57	1091.63
663.91	1088.61
664.25	1090.29
664.60	1089.54
664.94	1091.20
665.28	1090.64
665.62	1090.83
665.96	1090.03
666.30	1090.29
666.64	1089.57
666.98	1091.77
667.32	1091.51
667.66	1088.82
668.01	1087.04
668.35	1084.02
668.69	1081.94
669.03	1080.04
669.37	1081.63
669.71	1081.70
670.05	1085.59
670.39	1084.21
670.73	1085.21
671.07	1084.70
671.41	1083.71
671.75	1082.08
672.09	1084.18
672.43	1083.62
672.77	1083.20
673.11	1085.14
673.45	1087.16
673.79	1085.77
674.13	1085.45
674.47	1085.42
674.81	1084.02
675.15	1080.44
675.49	1080.79
675.83	1082.45
676.17	1083.11
676.51	1084.11
676.85	1089.59
677.19	1088.89
677.53	1087.30
677.87	1086.48
678.21	1089.10
678.55	1086.24
678.89	1088.21
679.23	1091.02
679.57	1092.12
679.90	1089.59
680.24	1090.29
680.58	1091.58
680.92	1088.77
681.26	1088.35
681.60	1085.31
681.94	1082.64
682.28	1077.82
682.62	1082.43
682.96	1083.62
683.29	1085.35
683.63	1084.58
683.97	1084.77
684.31	1080.53
684.65	1081.70
684.99	1084.02
685.33	1084.74
685.67	1086.52
686.00	1091.74
686.34	1092.33
686.68	1091.56
687.02	1091.63
687.36	1090.29
687.70	1085.24
688.03	1080.09
688.37	1080.48
688.71	1080.27
689.05	1082.83
689.39	1084.00
689.72	1083.04
690.06	1081.07
690.40	1080.06
690.74	1079.20
691.08	1080.34
691.41	1085.07
691.75	1086.03
692.09	1089.00
692.43	1088.82
692.76	1089.22
693.10	1086.80
693.44	1086.64
693.78	1083.29
694.11	1085.47
694.45	1085.05
694.79	1085.56
695.13	1085.75
695.46	1091.79
695.80	1091.32
696.14	1089.52
696.48	1090.27
696.81	1089.36
697.15	1085.49
697.49	1084.14
697.82	1084.04
698.16	1082.40
698.50	1083.55
698.83	1085.10
699.17	1083.79
699.51	1083.48
699.84	1086.80
700.18	1087.67
700.52	1087.18
700.85	1088.07
701.19	1090.88
701.53	1089.47
701.86	1088.72
702.20	1085.63
702.54	1087.13
702.87	1082.12
703.21	1082.92
703.55	1081.12
703.88	1083.76
704.22	1080.72
704.55	1083.39
704.89	1083.36
705.23	1085.38
705.56	1083.97
705.90	1086.31
706.23	1083.97
706.57	1081.28
706.91	1083.20
707.24	1084.63
707.58	1083.76
707.91	1085.75
708.25	1089.45
708.58	1084.44
708.92	1086.20
709.26	1087.55
709.59	1088.30
709.93	1085.89
710.26	1089.57
710.60	1086.03
710.93	1084.18
711.27	1084.74
711.60	1087.06
711.94	1087.04
712.27	1087.55
712.61	1089.03
712.94	1086.34
713.28	1084.51
713.61	1081.02
713.95	1079.24
714.28	1079.60
714.62	1083.93
714.95	1082.31
715.29	1081.75
715.62	1085.52
715.96	1086.69
716.29	1082.19
716.63	1080.72
716.96	1082.90
717.29	1082.29
717.63	1079.22
717.96	1083.81
718.30	1088.51
718.63	1088.84
718.97	1087.44
719.30	1086.76
719.63	1085.52
719.97	1083.41
720.30	1083.43
720.64	1084.42
720.97	1085.73
721.30	1082.73
721.64	1085.35
721.97	1083.22
722.31	1081.94
722.64	1081.40
722.97	1079.55
723.31	1076.25
723.64	1080.25
723.97	1081.54
724.31	1082.64
724.64	1087.93
724.98	1090.81
725.31	1091.60
725.64	1088.86
725.98	1085.19
726.31	1084.44
726.64	1082.12
726.97	1078.73
727.31	1081.61
727.64	1084.63
727.97	1084.04
728.31	1087.16
728.64	1086.59
728.97	1084.63
729.31	1085.54
729.64	1085.99
729.97	1083.50
730.30	1083.13
730.64	1084.18
730.97	1083.90
731.30	1083.39
731.63	1082.15
731.97	1084.72
732.30	1084.07
732.63	1081.87
732.96	1080.30
733.30	1082.50
733.63	1082.36
733.96	1083.55
734.29	1087.06
734.63	1086.27
734.96	1083.64
735.29	1082.03
735.62	1079.34
735.95	1078.19
736.29	1078.87
736.62	1078.28
736.95	1079.38
737.28	1079.99
737.61	1080.74
737.94	1079.38
738.28	1080.51
738.61	1078.00
738.94	1082.54
739.27	1082.38
739.60	1087.27
739.93	1086.57
740.27	1088.04
740.60	1085.00
740.93	1082.26
741.26	1082.05
741.59	1079.67
741.92	1079.13
742.25	1079.01
742.58	1080.25
742.91	1076.76
743.25	1079.27
743.58	1080.70
743.91	1082.85
744.24	1082.26
744.57	1083.69
744.90	1085.49
745.23	1085.54
745.56	1084.30
745.89	1088.42
746.22	1089.17
746.55	1087.02
746.88	1090.20
747.21	1089.05
747.54	1084.04
747.87	1084.39
748.20	1086.13
748.53	1082.64
748.87	1081.98
749.20	1082.24
749.53	1079.31
749.86	1078.61
750.19	1078.80
750.52	1080.86
750.85	1083.67
751.18	1082.08
751.51	1083.32
751.84	1085.35
752.16	1083.67
752.49	1080.86
752.82	1082.50
753.15	1081.80
753.48	1076.34
753.81	1077.02
754.14	1077.54
754.47	1081.23
754.80	1082.47
755.13	1083.95
755.46	1084.72
755.79	1087.81
756.12	1090.17
756.45	1089.64
756.78	1092.63
757.11	1092.02
757.43	1092.28
757.76	1087.93
758.09	1084.25
758.42	1083.48
758.75	1081.82
759.08	1079.99
759.41	1082.90
759.74	1085.75
760.07	1083.88
760.39	1086.66
760.72	1087.86
761.05	1085.40
761.38	1084.70
761.71	1087.76
762.04	1087.18
762.36	1084.21
762.69	1084.56
763.02	1084.37
763.35	1082.19
763.68	1085.33
764.01	1088.61
764.33	1090.81
764.66	1091.51
764.99	1091.32
