SpectraSuite Data File
++++++++++++++++++++++++++++++++++++
Date: Mon Aug 26 10:26:06 PDT 2019
User: corrico
Dark Spectrum Present: No
Reference Spectrum Present: No
Number of Sampled Component Spectra: 1
Spectrometers: USB2+H06089
Integration Time (usec): 10000 (USB2+H06089)
Spectra Averaged: 20 (USB2+H06089)
Boxcar Smoothing: 2 (USB2+H06089)
Correct for Electrical Dark: No (USB2+H06089)
Strobe/Lamp Enabled: No (USB2+H06089)
Correct for Detector Non-linearity: No (USB2+H06089)
Correct for Stray Light: No (USB2+H06089)
Number of Pixels in Processed Spectrum: 2048
>>>>>Begin Processed Spectral Data<<<<<
339.70	1032.53
340.07	1032.53
340.45	997.75
340.82	972.31
341.19	948.83
341.57	923.13
341.94	911.03
342.31	903.38
342.69	904.03
343.06	898.23
343.43	896.21
343.81	900.64
344.18	902.81
344.55	903.52
344.93	912.25
345.30	919.29
345.67	926.99
346.04	938.27
346.42	946.16
346.79	953.00
347.16	964.79
347.54	973.01
347.91	976.10
348.28	982.93
348.65	992.86
349.03	997.68
349.40	1005.03
349.77	1009.26
350.14	1019.21
350.52	1024.69
350.89	1032.01
351.26	1037.21
351.63	1049.61
352.01	1053.59
352.38	1055.65
352.75	1059.72
353.12	1062.98
353.50	1066.16
353.87	1071.19
354.24	1075.80
354.61	1075.87
354.98	1077.30
355.36	1076.32
355.73	1075.22
356.10	1078.92
356.47	1079.97
356.84	1079.36
357.22	1076.88
357.59	1077.44
357.96	1073.00
358.33	1073.88
358.70	1075.27
359.08	1075.85
359.45	1077.37
359.82	1080.09
360.19	1080.09
360.56	1076.86
360.94	1079.13
361.31	1074.96
361.68	1071.73
362.05	1068.74
362.42	1071.38
362.79	1070.21
363.16	1070.68
363.54	1070.91
363.91	1072.78
364.28	1070.44
364.65	1067.28
365.02	1068.22
365.39	1071.54
365.76	1072.34
366.14	1071.03
366.51	1072.41
366.88	1072.46
367.25	1068.90
367.62	1069.46
367.99	1069.04
368.36	1068.62
368.73	1066.23
369.10	1066.82
369.48	1065.60
369.85	1067.92
370.22	1063.82
370.59	1065.55
370.96	1063.09
371.33	1061.20
371.70	1058.58
372.07	1063.35
372.44	1064.50
372.81	1064.90
373.18	1069.51
373.55	1071.38
373.93	1070.14
374.30	1070.00
374.67	1071.66
375.04	1067.92
375.41	1070.16
375.78	1074.19
376.15	1074.52
376.52	1074.84
376.89	1072.69
377.26	1070.23
377.63	1068.85
378.00	1068.15
378.37	1068.45
378.74	1067.12
379.11	1066.98
379.48	1068.64
379.85	1066.51
380.22	1067.10
380.59	1068.29
380.96	1067.24
381.33	1063.45
381.70	1064.87
382.07	1064.17
382.44	1064.55
382.81	1066.63
383.18	1069.60
383.55	1068.57
383.92	1067.26
384.29	1068.67
384.66	1069.04
385.03	1065.58
385.40	1067.57
385.77	1068.36
386.14	1068.27
386.51	1069.60
386.88	1071.52
387.25	1069.30
387.62	1073.56
387.99	1075.15
388.36	1072.50
388.73	1070.94
389.10	1072.06
389.46	1073.14
389.83	1072.53
390.20	1072.11
390.57	1074.66
390.94	1074.40
391.31	1068.81
391.68	1069.62
392.05	1071.64
392.42	1074.19
392.79	1075.94
393.16	1076.11
393.53	1072.90
393.89	1073.23
394.26	1069.93
394.63	1069.41
395.00	1069.18
395.37	1074.33
395.74	1075.78
396.11	1076.37
396.48	1078.28
396.84	1078.28
397.21	1079.48
397.58	1079.64
397.95	1079.36
398.32	1076.13
398.69	1078.38
399.06	1073.91
399.42	1072.71
399.79	1068.99
400.16	1070.44
400.53	1067.28
400.90	1068.15
401.27	1068.36
401.64	1072.15
402.00	1072.64
402.37	1075.90
402.74	1076.83
403.11	1076.34
403.48	1076.62
403.84	1075.41
404.21	1075.57
404.58	1074.24
404.95	1073.28
405.32	1071.52
405.68	1073.98
406.05	1068.85
406.42	1068.69
406.79	1069.51
407.16	1072.53
407.52	1074.35
407.89	1082.31
408.26	1082.64
408.63	1082.61
408.99	1081.12
409.36	1078.03
409.73	1074.00
410.10	1072.55
410.47	1075.01
410.83	1072.20
411.20	1070.58
411.57	1069.98
411.94	1071.73
412.30	1070.44
412.67	1072.97
413.04	1074.52
413.40	1073.65
413.77	1075.78
414.14	1074.70
414.51	1075.15
414.87	1073.32
415.24	1073.84
415.61	1071.40
415.97	1071.99
416.34	1069.93
416.71	1072.62
417.08	1076.06
417.44	1073.35
417.81	1071.73
418.18	1073.28
418.54	1071.73
418.91	1071.05
419.28	1075.38
419.64	1076.06
420.01	1079.22
420.38	1081.37
420.74	1080.58
421.11	1081.82
421.48	1081.09
421.84	1078.50
422.21	1075.76
422.58	1076.67
422.94	1075.76
423.31	1078.05
423.68	1079.13
424.04	1078.47
424.41	1076.62
424.77	1074.89
425.14	1074.75
425.51	1072.29
425.87	1074.40
426.24	1073.72
426.61	1075.41
426.97	1074.24
427.34	1076.27
427.70	1075.80
428.07	1079.90
428.44	1076.15
428.80	1077.28
429.17	1076.69
429.53	1076.79
429.90	1074.26
430.27	1076.62
430.63	1074.52
431.00	1072.97
431.36	1073.67
431.73	1075.13
432.09	1077.25
432.46	1079.43
432.83	1079.24
433.19	1080.09
433.56	1075.55
433.92	1074.70
434.29	1075.38
434.65	1079.34
435.02	1081.16
435.38	1084.04
435.75	1083.97
436.11	1085.21
436.48	1082.73
436.84	1079.57
437.21	1078.85
437.57	1075.52
437.94	1074.21
438.30	1074.61
438.67	1075.24
439.03	1075.45
439.40	1077.75
439.76	1078.40
440.13	1079.81
440.49	1077.63
440.86	1079.55
441.22	1080.37
441.59	1079.24
441.95	1075.13
442.32	1075.62
442.68	1076.72
443.05	1078.85
443.41	1078.92
443.78	1078.57
444.14	1078.96
444.51	1075.73
444.87	1074.42
445.24	1073.58
445.60	1076.30
445.96	1075.83
446.33	1077.75
446.69	1076.60
447.06	1079.67
447.42	1080.13
447.79	1078.59
448.15	1079.99
448.51	1078.61
448.88	1075.76
449.24	1076.32
449.61	1079.53
449.97	1075.83
450.33	1076.37
450.70	1077.35
451.06	1076.01
451.43	1077.28
451.79	1081.19
452.15	1083.88
452.52	1081.49
452.88	1083.08
453.24	1080.98
453.61	1078.31
453.97	1076.60
454.34	1080.16
454.70	1075.97
455.06	1076.53
455.43	1073.53
455.79	1073.95
456.15	1072.83
456.52	1075.83
456.88	1077.16
457.24	1080.41
457.61	1077.00
457.97	1074.10
458.33	1075.15
458.70	1075.76
459.06	1075.62
459.42	1077.82
459.79	1080.34
460.15	1082.66
460.51	1082.90
460.88	1080.25
461.24	1079.81
461.60	1081.02
461.96	1079.71
462.33	1076.97
462.69	1079.50
463.05	1081.05
463.42	1079.81
463.78	1076.90
464.14	1078.64
464.50	1078.50
464.87	1078.45
465.23	1077.86
465.59	1076.25
465.95	1074.47
466.32	1076.37
466.68	1073.18
467.04	1072.53
467.40	1076.44
467.77	1077.18
468.13	1075.05
468.49	1077.35
468.85	1077.82
469.22	1074.94
469.58	1074.94
469.94	1075.66
470.30	1076.04
470.66	1076.11
471.03	1077.37
471.39	1077.42
471.75	1075.83
472.11	1076.30
472.47	1076.01
472.84	1077.28
473.20	1079.53
473.56	1081.51
473.92	1081.94
474.28	1083.76
474.65	1082.12
475.01	1080.93
475.37	1082.50
475.73	1084.51
476.09	1082.47
476.45	1084.00
476.81	1083.67
477.18	1079.55
477.54	1077.30
477.90	1077.93
478.26	1074.17
478.62	1075.13
478.98	1074.28
479.34	1074.80
479.71	1074.45
480.07	1076.04
480.43	1074.47
480.79	1077.21
481.15	1077.51
481.51	1077.07
481.87	1078.28
482.23	1077.07
482.59	1078.38
482.96	1078.26
483.32	1080.09
483.68	1081.58
484.04	1083.88
484.40	1081.94
484.76	1080.27
485.12	1079.60
485.48	1081.05
485.84	1081.09
486.20	1080.02
486.56	1081.61
486.92	1082.47
487.28	1082.78
487.64	1082.64
488.00	1085.68
488.37	1085.47
488.73	1085.56
489.09	1084.23
489.45	1084.09
489.81	1084.28
490.17	1086.17
490.53	1086.29
490.89	1085.84
491.25	1087.18
491.61	1084.72
491.97	1081.63
492.33	1080.48
492.69	1081.30
493.05	1080.37
493.41	1081.80
493.77	1084.65
494.13	1085.54
494.49	1085.00
494.85	1083.18
495.21	1079.95
495.57	1077.47
495.93	1073.98
496.29	1075.31
496.64	1077.21
497.00	1079.01
497.36	1080.56
497.72	1081.09
498.08	1076.37
498.44	1076.69
498.80	1077.96
499.16	1075.15
499.52	1078.24
499.88	1081.40
500.24	1081.21
500.60	1082.08
500.96	1082.94
501.32	1081.49
501.68	1082.61
502.03	1082.31
502.39	1082.76
502.75	1082.10
503.11	1083.76
503.47	1083.25
503.83	1081.75
504.19	1079.85
504.55	1083.18
504.91	1082.22
505.26	1082.73
505.62	1087.09
505.98	1088.82
506.34	1085.68
506.70	1085.63
507.06	1083.76
507.42	1081.84
507.78	1082.50
508.13	1084.25
508.49	1084.86
508.85	1085.00
509.21	1083.01
509.57	1077.79
509.93	1076.34
510.28	1076.76
510.64	1078.54
511.00	1078.92
511.36	1083.69
511.72	1083.64
512.07	1081.37
512.43	1080.46
512.79	1083.93
513.15	1082.50
513.51	1084.44
513.86	1087.81
514.22	1084.89
514.58	1085.24
514.94	1086.66
515.30	1086.38
515.65	1083.32
516.01	1085.91
516.37	1078.54
516.73	1079.15
517.08	1081.56
517.44	1083.27
517.80	1083.01
518.16	1088.14
518.51	1088.28
518.87	1085.94
519.23	1086.48
519.59	1087.23
519.94	1086.29
520.30	1084.98
520.66	1087.16
521.01	1085.10
521.37	1085.61
521.73	1088.40
522.09	1085.80
522.44	1084.65
522.80	1090.06
523.16	1091.91
523.51	1088.70
523.87	1090.50
524.23	1089.50
524.58	1085.94
524.94	1085.31
525.30	1085.82
525.65	1088.84
526.01	1089.61
526.37	1089.38
526.72	1088.47
527.08	1089.03
527.44	1087.41
527.79	1087.72
528.15	1086.36
528.51	1086.80
528.86	1087.93
529.22	1086.03
529.58	1085.19
529.93	1088.84
530.29	1090.43
530.65	1086.08
531.00	1086.15
531.36	1087.46
531.71	1085.70
532.07	1081.47
532.43	1083.86
532.78	1082.64
533.14	1080.84
533.49	1077.21
533.85	1080.34
534.21	1082.69
534.56	1082.78
534.92	1083.74
535.27	1087.67
535.63	1087.83
535.98	1086.55
536.34	1088.42
536.69	1086.57
537.05	1086.31
537.41	1083.71
537.76	1081.33
538.12	1081.30
538.47	1079.88
538.83	1080.46
539.18	1079.24
539.54	1079.83
539.89	1081.66
540.25	1085.96
540.60	1085.87
540.96	1090.76
541.31	1093.99
541.67	1093.87
542.02	1094.74
542.38	1093.71
542.73	1092.70
543.09	1091.70
543.44	1092.19
543.80	1088.44
544.15	1088.26
544.51	1088.79
544.86	1089.96
545.22	1091.34
545.57	1094.90
545.93	1096.42
546.28	1094.01
546.64	1095.02
546.99	1094.32
547.35	1093.50
547.70	1094.41
548.05	1094.53
548.41	1090.64
548.76	1088.75
549.12	1088.44
549.47	1086.71
549.83	1087.34
550.18	1087.76
550.53	1086.38
550.89	1087.97
551.24	1087.93
551.60	1087.30
551.95	1085.19
552.30	1087.25
552.66	1086.43
553.01	1086.29
553.37	1087.25
553.72	1089.52
554.07	1087.48
554.43	1088.02
554.78	1085.75
555.13	1082.52
555.49	1081.77
555.84	1081.51
556.19	1077.35
556.55	1078.45
556.90	1081.58
557.26	1080.74
557.61	1079.31
557.96	1080.84
558.32	1080.70
558.67	1080.98
559.02	1082.92
559.37	1082.85
559.73	1083.22
560.08	1083.71
560.43	1081.82
560.79	1077.72
561.14	1080.16
561.49	1080.56
561.85	1081.26
562.20	1081.56
562.55	1085.47
562.90	1084.30
563.26	1086.22
563.61	1085.89
563.96	1085.52
564.32	1084.98
564.67	1087.25
565.02	1084.79
565.37	1081.61
565.73	1081.80
566.08	1083.60
566.43	1083.41
566.78	1083.64
567.14	1084.74
567.49	1085.89
567.84	1083.25
568.19	1080.86
568.54	1079.92
568.90	1082.10
569.25	1082.36
569.60	1082.31
569.95	1084.79
570.31	1084.21
570.66	1085.17
571.01	1083.53
571.36	1080.93
571.71	1079.53
572.06	1079.38
572.42	1077.09
572.77	1076.13
573.12	1081.33
573.47	1080.72
573.82	1082.29
574.18	1084.74
574.53	1083.11
574.88	1078.45
575.23	1077.54
575.58	1077.04
575.93	1075.99
576.28	1080.58
576.64	1084.25
576.99	1087.27
577.34	1087.83
577.69	1087.11
578.04	1086.22
578.39	1084.58
578.74	1084.74
579.09	1083.46
579.44	1085.94
579.80	1082.97
580.15	1083.93
580.50	1080.81
580.85	1082.59
581.20	1081.28
581.55	1084.72
581.90	1084.21
582.25	1087.95
582.60	1086.45
582.95	1085.49
583.30	1082.59
583.65	1082.71
584.00	1079.10
584.35	1078.28
584.71	1080.02
585.06	1080.41
585.41	1080.74
585.76	1083.11
586.11	1082.71
586.46	1081.54
586.81	1083.60
587.16	1083.69
587.51	1086.94
587.86	1089.40
588.21	1089.94
588.56	1088.77
588.91	1089.22
589.26	1083.83
589.61	1085.12
589.96	1085.14
590.31	1086.64
590.66	1087.55
591.01	1089.00
591.36	1085.05
591.71	1084.16
592.06	1084.79
592.41	1085.73
592.76	1086.29
593.10	1090.69
593.45	1091.70
593.80	1091.60
594.15	1087.53
594.50	1084.67
594.85	1082.36
595.20	1080.91
595.55	1079.97
595.90	1081.91
596.25	1083.76
596.60	1084.35
596.95	1085.47
597.30	1084.14
597.64	1134.69
597.99	1140.31
598.34	1136.87
598.69	1133.31
599.04	1133.85
599.39	1083.32
599.74	1076.60
600.09	1078.21
600.44	1080.44
600.78	1080.53
601.13	1079.22
601.48	1083.48
601.83	1084.42
602.18	1085.26
602.53	1085.07
602.88	1086.22
603.22	1083.67
603.57	1085.33
603.92	1087.62
604.27	1090.10
604.62	1088.35
604.97	1091.49
605.31	1089.78
605.66	1089.33
606.01	1087.55
606.36	1091.93
606.71	1090.90
607.05	1090.53
607.40	1090.90
607.75	1090.95
608.10	1088.86
608.44	1089.78
608.79	1091.02
609.14	1089.61
609.49	1089.61
609.84	1090.48
610.18	1091.81
610.53	1092.37
610.88	1092.00
611.23	1093.97
611.57	1095.58
611.92	1096.47
612.27	1097.15
612.62	1099.77
612.96	1098.39
613.31	1094.83
613.66	1092.73
614.00	1090.76
614.35	1087.20
614.70	1087.27
615.05	1089.80
615.39	1085.24
615.74	1086.57
616.09	1088.70
616.43	1086.24
616.78	1084.23
617.13	1084.65
617.47	1083.81
617.82	1083.32
618.17	1083.86
618.51	1084.42
618.86	1083.06
619.21	1083.60
619.55	1081.19
619.90	1083.04
620.25	1080.11
620.59	1078.64
620.94	1078.03
621.29	1079.83
621.63	1076.69
621.98	1080.02
622.32	1082.31
622.67	1085.80
623.02	1085.59
623.36	1089.85
623.71	1091.09
624.05	1096.31
624.40	1092.89
624.75	1091.04
625.09	1089.92
625.44	1088.77
625.78	1083.86
626.13	1084.02
626.48	1084.04
626.82	1083.06
627.17	1080.65
627.51	1081.70
627.86	1080.86
628.20	1081.89
628.55	1081.00
628.89	1082.36
629.24	1082.66
629.58	1082.05
629.93	1081.14
630.28	1081.89
630.62	1082.45
630.97	1083.76
631.31	1084.53
631.66	1084.74
632.00	1086.99
632.35	1086.36
632.69	1085.61
633.04	1084.84
633.38	1084.11
633.73	1081.61
634.07	1083.25
634.42	1083.08
634.76	1083.06
635.11	1083.74
635.45	1084.91
635.79	1082.85
636.14	1084.81
636.48	1083.13
636.83	1081.30
637.17	1079.46
637.52	1078.80
637.86	1075.03
638.21	1082.10
638.55	1083.55
638.89	1082.22
639.24	1084.00
639.58	1086.38
639.93	1082.29
640.27	1084.00
640.61	1084.18
640.96	1080.81
641.30	1079.13
641.65	1075.97
641.99	1077.11
642.33	1081.37
642.68	1084.21
643.02	1085.33
643.37	1085.96
643.71	1084.21
644.05	1081.00
644.40	1080.51
644.74	1078.96
645.08	1077.98
645.43	1079.48
645.77	1080.67
646.11	1080.11
646.46	1079.83
646.80	1083.74
647.14	1081.21
647.49	1079.74
647.83	1079.92
648.17	1078.10
648.52	1076.27
648.86	1077.14
649.20	1079.48
649.55	1079.34
649.89	1081.56
650.23	1082.36
650.57	1082.05
650.92	1080.46
651.26	1080.11
651.60	1081.94
651.95	1081.61
652.29	1083.29
652.63	1082.92
652.97	1084.09
653.32	1081.87
653.66	1083.83
654.00	1083.27
654.34	1085.73
654.69	1086.69
655.03	1087.13
655.37	1086.22
655.71	1086.17
656.05	1081.82
656.40	1080.79
656.74	1081.23
657.08	1081.63
657.42	1079.55
657.76	1078.33
658.11	1078.52
658.45	1078.75
658.79	1078.71
659.13	1079.76
659.47	1084.00
659.82	1084.25
660.16	1080.79
660.50	1077.51
660.84	1075.97
661.18	1073.93
661.52	1071.01
661.87	1074.19
662.21	1078.21
662.55	1079.13
662.89	1079.85
663.23	1083.76
663.57	1085.05
663.91	1086.97
664.25	1089.92
664.60	1090.50
664.94	1087.69
665.28	1083.76
665.62	1081.14
665.96	1076.69
666.30	1076.18
666.64	1076.53
666.98	1080.53
667.32	1080.41
667.66	1085.94
668.01	1085.54
668.35	1087.11
668.69	1085.82
669.03	1084.46
669.37	1081.02
669.71	1081.00
670.05	1080.16
670.39	1081.12
670.73	1082.80
671.07	1082.03
671.41	1082.40
671.75	1085.70
672.09	1085.99
672.43	1083.81
672.77	1083.55
673.11	1081.33
673.45	1077.40
673.79	1079.24
674.13	1082.43
674.47	1084.07
674.81	1087.69
675.15	1089.66
675.49	1084.32
675.83	1084.09
676.17	1085.00
676.51	1083.81
676.85	1080.09
677.19	1081.54
677.53	1079.74
677.87	1079.06
678.21	1076.48
678.55	1079.55
678.89	1080.95
679.23	1080.11
679.57	1079.85
679.90	1082.57
680.24	1080.37
680.58	1077.04
680.92	1077.89
681.26	1079.22
681.60	1078.87
681.94	1081.09
682.28	1085.14
682.62	1082.78
682.96	1082.52
683.29	1083.18
683.63	1081.28
683.97	1078.45
684.31	1082.22
684.65	1081.56
684.99	1083.50
685.33	1083.29
685.67	1084.44
686.00	1083.81
686.34	1083.04
686.68	1081.40
687.02	1082.52
687.36	1082.97
687.70	1082.97
688.03	1080.34
688.37	1076.67
688.71	1078.73
689.05	1077.35
689.39	1073.91
689.72	1077.07
690.06	1077.75
690.40	1076.30
690.74	1075.52
691.08	1079.10
691.41	1076.58
691.75	1079.60
692.09	1076.30
692.43	1075.08
692.76	1073.44
693.10	1076.79
693.44	1078.68
693.78	1081.26
694.11	1085.80
694.45	1086.94
694.79	1087.20
695.13	1084.23
695.46	1086.78
695.80	1087.23
696.14	1085.87
696.48	1086.99
696.81	1088.86
697.15	1085.52
697.49	1083.86
697.82	1084.04
698.16	1080.53
698.50	1079.38
698.83	1080.48
699.17	1078.80
699.51	1082.12
699.84	1083.46
700.18	1085.21
700.52	1087.13
700.85	1088.07
701.19	1085.77
701.53	1084.39
701.86	1080.44
702.20	1081.19
702.54	1082.64
702.87	1081.40
703.21	1082.43
703.55	1082.33
703.88	1081.80
704.22	1079.15
704.55	1079.99
704.89	1079.43
705.23	1080.63
705.56	1079.60
705.90	1081.07
706.23	1080.63
706.57	1080.02
706.91	1079.38
707.24	1076.48
707.58	1076.27
707.91	1072.97
708.25	1073.28
708.58	1073.46
708.92	1077.70
709.26	1079.01
709.59	1081.16
709.93	1083.48
710.26	1087.48
710.60	1085.63
710.93	1085.17
711.27	1088.30
711.60	1086.24
711.94	1081.91
712.27	1081.23
712.61	1084.07
712.94	1082.36
713.28	1082.29
713.61	1085.38
713.95	1084.74
714.28	1081.40
714.62	1080.02
714.95	1078.66
715.29	1076.27
715.62	1080.84
715.96	1078.96
716.29	1077.65
716.63	1079.76
716.96	1080.81
717.29	1076.27
717.63	1077.96
717.96	1080.60
718.30	1078.85
718.63	1079.64
718.97	1079.76
719.30	1079.88
719.63	1078.40
719.97	1081.58
720.30	1080.72
720.64	1083.39
720.97	1083.41
721.30	1081.44
721.64	1077.98
721.97	1077.98
722.31	1076.06
722.64	1077.11
722.97	1082.26
723.31	1083.62
723.64	1086.38
723.97	1086.38
724.31	1087.44
724.64	1086.41
724.98	1088.68
725.31	1085.03
725.64	1084.77
725.98	1084.07
726.31	1083.32
726.64	1081.21
726.97	1081.37
727.31	1082.33
727.64	1080.27
727.97	1080.02
728.31	1079.43
728.64	1077.23
728.97	1076.11
729.31	1075.64
729.64	1075.71
729.97	1075.45
730.30	1080.39
730.64	1081.12
730.97	1081.19
731.30	1079.29
731.63	1078.75
731.97	1075.59
732.30	1075.78
732.63	1073.81
732.96	1074.28
733.30	1074.31
733.63	1075.20
733.96	1074.84
734.29	1076.81
734.63	1077.30
734.96	1078.71
735.29	1078.82
735.62	1079.01
735.95	1080.11
736.29	1082.03
736.62	1080.25
736.95	1078.17
737.28	1079.27
737.61	1078.47
737.94	1074.35
738.28	1072.83
738.61	1072.81
738.94	1072.29
739.27	1071.31
739.60	1076.55
739.93	1081.16
740.27	1082.05
740.60	1084.21
740.93	1088.63
741.26	1088.16
741.59	1087.65
741.92	1089.99
742.25	1085.61
742.58	1082.38
742.91	1080.32
743.25	1078.31
743.58	1074.61
743.91	1074.82
744.24	1076.30
744.57	1078.66
744.90	1077.49
745.23	1081.73
745.56	1082.83
745.89	1081.77
746.22	1080.84
746.55	1085.24
746.88	1081.56
747.21	1081.00
747.54	1082.31
747.87	1079.71
748.20	1078.57
748.53	1078.52
748.87	1081.35
749.20	1081.98
749.53	1084.37
749.86	1084.77
750.19	1086.22
750.52	1084.00
750.85	1084.25
751.18	1084.91
751.51	1083.41
751.84	1081.96
752.16	1083.06
752.49	1080.65
752.82	1078.89
753.15	1076.93
753.48	1080.63
753.81	1079.20
754.14	1080.37
754.47	1081.16
754.80	1083.57
755.13	1078.45
755.46	1078.57
755.79	1074.68
756.12	1074.94
756.45	1074.14
756.78	1077.72
757.11	1076.97
757.43	1078.85
757.76	1075.55
758.09	1074.89
758.42	1073.60
758.75	1075.71
759.08	1077.33
759.41	1080.98
759.74	1084.60
760.07	1087.81
760.39	1089.19
760.72	1085.17
761.05	1085.00
761.38	1084.65
761.71	1080.44
762.04	1075.50
762.36	1081.49
762.69	1080.30
763.02	1078.61
763.35	1078.17
763.68	1080.04
764.01	1077.68
764.33	1078.38
764.66	1080.67
764.99	1082.36
765.32	1082.40
765.65	1080.58
765.97	1079.48
766.30	1080.93
