SpectraSuite Data File
++++++++++++++++++++++++++++++++++++
Date: Mon Aug 26 10:26:02 PDT 2019
User: corrico
Dark Spectrum Present: No
Reference Spectrum Present: No
Number of Sampled Component Spectra: 1
Spectrometers: USB2+H06089
Integration Time (usec): 10000 (USB2+H06089)
Spectra Averaged: 2 (USB2+H06089)
Boxcar Smoothing: 2 (USB2+H06089)
Correct for Electrical Dark: No (USB2+H06089)
Strobe/Lamp Enabled: No (USB2+H06089)
Correct for Detector Non-linearity: No (USB2+H06089)
Correct for Stray Light: No (USB2+H06089)
Number of Pixels in Processed Spectrum: 2048
>>>>>Begin Processed Spectral Data<<<<<
339.70	1031.01
340.07	1031.01
340.45	984.43
340.82	965.00
341.19	949.32
341.57	937.62
341.94	942.77
342.31	944.64
342.69	924.28
343.06	913.04
343.43	913.75
343.81	924.98
344.18	916.79
344.55	935.75
344.93	942.77
345.30	940.43
345.67	940.90
346.04	955.64
346.42	966.41
346.79	977.88
347.16	981.85
347.54	974.83
347.91	976.71
348.28	983.96
348.65	986.54
349.03	987.24
349.40	1005.49
349.77	1017.20
350.14	1024.69
350.52	1029.84
350.89	1045.99
351.26	1050.43
351.63	1053.24
352.01	1054.41
352.38	1068.45
352.75	1064.71
353.12	1067.75
353.50	1066.35
353.87	1075.48
354.24	1066.11
354.61	1062.60
354.98	1064.71
355.36	1065.88
355.73	1067.75
356.10	1068.45
356.47	1069.86
356.84	1071.73
357.22	1075.94
357.59	1067.28
357.96	1076.88
358.33	1078.99
358.70	1074.77
359.08	1079.46
359.45	1074.07
359.82	1064.24
360.19	1068.45
360.56	1069.39
360.94	1063.31
361.31	1069.86
361.68	1074.07
362.05	1074.31
362.42	1070.80
362.79	1078.75
363.16	1074.77
363.54	1076.65
363.91	1085.54
364.28	1084.84
364.65	1070.33
365.02	1072.20
365.39	1065.18
365.76	1057.22
366.14	1060.50
366.51	1069.39
366.88	1067.75
367.25	1071.50
367.62	1073.37
367.99	1071.73
368.36	1076.88
368.73	1074.31
369.10	1081.09
369.48	1079.46
369.85	1077.11
370.22	1071.97
370.59	1077.11
370.96	1073.37
371.33	1075.48
371.70	1077.82
372.07	1077.11
372.44	1079.69
372.81	1076.65
373.18	1074.54
373.55	1072.67
373.93	1072.20
374.30	1071.26
374.67	1072.20
375.04	1079.92
375.41	1079.92
375.78	1076.18
376.15	1075.48
376.52	1084.14
376.89	1064.48
377.26	1068.45
377.63	1076.65
378.00	1066.82
378.37	1052.07
378.74	1064.24
379.11	1061.43
379.48	1053.71
379.85	1069.86
380.22	1071.73
380.59	1068.69
380.96	1059.09
381.33	1064.71
381.70	1057.69
382.07	1064.71
382.44	1071.73
382.81	1079.22
383.18	1071.50
383.55	1067.75
383.92	1073.14
384.29	1057.45
384.66	1058.86
385.03	1069.16
385.40	1072.20
385.77	1075.71
386.14	1083.90
386.51	1086.24
386.88	1078.99
387.25	1077.11
387.62	1061.90
387.99	1063.31
388.36	1060.73
388.73	1061.90
389.10	1062.60
389.46	1066.11
389.83	1070.56
390.20	1078.28
390.57	1078.52
390.94	1081.09
391.31	1076.65
391.68	1076.65
392.05	1067.05
392.42	1064.94
392.79	1066.58
393.16	1067.99
393.53	1069.39
393.89	1072.67
394.26	1073.14
394.63	1065.41
395.00	1064.71
395.37	1062.37
395.74	1058.39
396.11	1067.28
396.48	1078.28
396.84	1076.65
397.21	1066.11
397.58	1081.33
397.95	1083.43
398.32	1076.88
398.69	1086.01
399.06	1098.18
399.42	1075.01
399.79	1057.92
400.16	1053.48
400.53	1045.28
400.90	1039.20
401.27	1051.37
401.64	1049.96
402.00	1056.05
402.37	1068.45
402.74	1070.56
403.11	1073.37
403.48	1082.26
403.84	1075.71
404.21	1073.37
404.58	1065.88
404.95	1071.03
405.32	1068.45
405.68	1075.71
406.05	1071.26
406.42	1081.80
406.79	1068.45
407.16	1072.67
407.52	1066.11
407.89	1067.05
408.26	1056.05
408.63	1063.54
408.99	1063.54
409.36	1074.31
409.73	1068.69
410.10	1085.07
410.47	1083.90
410.83	1074.31
411.20	1064.94
411.57	1069.86
411.94	1064.01
412.30	1060.26
412.67	1069.62
413.04	1069.86
413.40	1062.84
413.77	1059.79
414.14	1071.50
414.51	1069.39
414.87	1077.58
415.24	1076.65
415.61	1080.16
415.97	1061.67
416.34	1066.58
416.71	1060.50
417.08	1060.03
417.44	1059.56
417.81	1066.58
418.18	1061.43
418.54	1064.48
418.91	1076.41
419.28	1068.45
419.64	1072.20
420.01	1069.62
420.38	1058.62
420.74	1046.92
421.11	1052.07
421.48	1039.20
421.84	1040.84
422.21	1054.18
422.58	1060.73
422.94	1057.45
423.31	1061.90
423.68	1071.97
424.04	1063.07
424.41	1067.05
424.77	1065.65
425.14	1070.09
425.51	1065.41
425.87	1076.41
426.24	1065.88
426.61	1061.43
426.97	1068.92
427.34	1067.28
427.70	1060.50
428.07	1071.50
428.44	1080.39
428.80	1081.80
429.17	1084.60
429.53	1094.90
429.90	1093.03
430.27	1090.22
430.63	1083.67
431.00	1075.24
431.36	1055.82
431.73	1062.37
432.09	1070.33
432.46	1075.71
432.83	1082.50
433.19	1089.99
433.56	1080.39
433.92	1075.94
434.29	1070.56
434.65	1066.11
435.02	1067.52
435.38	1063.54
435.75	1068.92
436.11	1062.14
436.48	1066.35
436.84	1068.22
437.21	1079.69
437.57	1069.62
437.94	1083.20
438.30	1081.56
438.67	1083.67
439.03	1092.33
439.40	1094.43
439.76	1092.56
440.13	1091.39
440.49	1086.48
440.86	1071.97
441.22	1075.01
441.59	1062.14
441.95	1061.20
442.32	1065.18
442.68	1063.77
443.05	1066.58
443.41	1076.41
443.78	1076.88
444.14	1076.18
444.51	1077.11
444.87	1078.28
445.24	1073.60
445.60	1070.33
445.96	1061.20
446.33	1053.48
446.69	1052.54
447.06	1058.39
447.42	1064.71
447.79	1078.52
448.15	1083.67
448.51	1087.88
448.88	1084.84
449.24	1080.16
449.61	1071.97
449.97	1075.24
450.33	1065.41
450.70	1066.35
451.06	1071.73
451.43	1076.65
451.79	1080.39
452.15	1088.12
452.52	1093.50
452.88	1094.67
453.24	1090.69
453.61	1087.65
453.97	1084.37
454.34	1076.65
454.70	1073.84
455.06	1077.82
455.43	1069.16
455.79	1058.62
456.15	1064.48
456.52	1067.52
456.88	1067.99
457.24	1078.99
457.61	1088.12
457.97	1081.33
458.33	1077.82
458.70	1082.97
459.06	1084.37
459.42	1078.05
459.79	1085.54
460.15	1084.14
460.51	1079.22
460.88	1069.39
461.24	1080.86
461.60	1082.26
461.96	1085.54
462.33	1084.60
462.69	1092.80
463.05	1092.80
463.42	1099.58
463.78	1089.75
464.14	1084.60
464.50	1087.65
464.87	1081.80
465.23	1073.60
465.59	1081.80
465.95	1098.41
466.32	1086.01
466.68	1083.67
467.04	1077.82
467.40	1074.07
467.77	1064.94
468.13	1065.41
468.49	1064.48
468.85	1083.43
469.22	1092.33
469.58	1086.48
469.94	1101.46
470.30	1113.86
470.66	1100.99
471.03	1102.86
471.39	1105.20
471.75	1102.86
472.11	1104.03
472.47	1106.84
472.84	1092.80
473.20	1087.65
473.56	1084.60
473.92	1073.84
474.28	1067.99
474.65	1072.43
475.01	1079.22
475.37	1075.01
475.73	1074.54
476.09	1078.28
476.45	1070.33
476.81	1071.03
477.18	1062.14
477.54	1067.75
477.90	1068.69
478.26	1080.39
478.62	1080.39
478.98	1086.71
479.34	1084.37
479.71	1079.22
480.07	1080.63
480.43	1080.39
480.79	1077.82
481.15	1071.97
481.51	1062.84
481.87	1057.69
482.23	1055.58
482.59	1073.60
482.96	1075.24
483.32	1084.37
483.68	1090.22
484.04	1085.07
484.40	1069.16
484.76	1066.58
485.12	1065.65
485.48	1065.88
485.84	1075.71
486.20	1077.11
486.56	1084.37
486.92	1089.99
487.28	1090.46
487.64	1088.12
488.00	1094.67
488.37	1096.31
488.73	1089.99
489.09	1078.75
489.45	1073.84
489.81	1071.03
490.17	1068.45
490.53	1066.82
490.89	1082.03
491.25	1089.29
491.61	1079.92
491.97	1084.14
492.33	1089.99
492.69	1085.54
493.05	1086.24
493.41	1090.22
493.77	1084.84
494.13	1078.28
494.49	1074.07
494.85	1073.14
495.21	1087.18
495.57	1091.63
495.93	1095.14
496.29	1101.69
496.64	1100.05
497.00	1088.12
497.36	1081.33
497.72	1084.37
498.08	1081.80
498.44	1080.86
498.80	1074.77
499.16	1070.56
499.52	1066.35
499.88	1060.26
500.24	1055.11
500.60	1068.92
500.96	1078.75
501.32	1087.88
501.68	1093.50
502.03	1104.73
502.39	1105.20
502.75	1101.22
503.11	1093.26
503.47	1089.29
503.83	1082.73
504.19	1067.99
504.55	1064.94
504.91	1074.31
505.26	1076.18
505.62	1070.33
505.98	1077.35
506.34	1082.26
506.70	1068.45
507.06	1071.50
507.42	1078.99
507.78	1077.11
508.13	1072.90
508.49	1085.07
508.85	1084.84
509.21	1088.35
509.57	1092.80
509.93	1100.75
510.28	1096.31
510.64	1092.33
511.00	1094.43
511.36	1097.95
511.72	1097.24
512.07	1103.09
512.43	1102.86
512.79	1101.22
513.15	1097.01
513.51	1091.39
513.86	1082.26
514.22	1089.29
514.58	1078.99
514.94	1088.82
515.30	1092.09
515.65	1089.99
516.01	1086.94
516.37	1093.03
516.73	1085.54
517.08	1087.41
517.44	1084.60
517.80	1084.84
518.16	1094.90
518.51	1097.48
518.87	1101.46
519.23	1112.46
519.59	1116.90
519.94	1117.61
520.30	1105.20
520.66	1096.54
521.01	1097.01
521.37	1094.20
521.73	1085.54
522.09	1091.86
522.44	1092.80
522.80	1097.95
523.16	1098.41
523.51	1099.12
523.87	1089.05
524.23	1102.63
524.58	1097.71
524.94	1092.33
525.30	1080.39
525.65	1098.18
526.01	1084.60
526.37	1083.20
526.72	1083.20
527.08	1087.41
527.44	1083.90
527.79	1085.07
528.15	1089.75
528.51	1099.58
528.86	1107.31
529.22	1107.31
529.58	1111.99
529.93	1108.71
530.29	1103.56
530.65	1104.97
531.00	1112.22
531.36	1115.50
531.71	1117.14
532.07	1107.31
532.43	1093.97
532.78	1095.84
533.14	1086.94
533.49	1089.52
533.85	1092.33
534.21	1096.31
534.56	1093.73
534.92	1097.01
535.27	1096.78
535.63	1097.95
535.98	1090.69
536.34	1081.56
536.69	1077.82
537.05	1076.41
537.41	1075.48
537.76	1087.41
538.12	1095.60
538.47	1108.24
538.83	1105.20
539.18	1110.35
539.54	1116.90
539.89	1115.73
540.25	1100.75
540.60	1101.92
540.96	1100.75
541.31	1086.94
541.67	1081.33
542.02	1087.65
542.38	1086.94
542.73	1090.69
543.09	1097.95
543.44	1091.63
543.80	1085.77
544.15	1082.50
544.51	1072.20
544.86	1070.09
545.22	1073.84
545.57	1082.26
545.93	1087.18
546.28	1102.86
546.64	1107.54
546.99	1116.20
547.35	1106.84
547.70	1107.07
548.05	1099.58
548.41	1086.94
548.76	1075.24
549.12	1080.39
549.47	1064.94
549.83	1067.28
550.18	1074.07
550.53	1070.33
550.89	1067.52
551.24	1072.90
551.60	1062.37
551.95	1065.65
552.30	1075.24
552.66	1074.77
553.01	1083.20
553.37	1098.41
553.72	1097.71
554.07	1104.50
554.43	1109.88
554.78	1103.56
555.13	1090.46
555.49	1092.80
555.84	1084.60
556.19	1079.69
556.55	1086.94
556.90	1089.05
557.26	1086.94
557.61	1089.99
557.96	1092.33
558.32	1096.54
558.67	1094.90
559.02	1100.99
559.37	1097.24
559.73	1098.88
560.08	1096.54
560.43	1101.92
560.79	1094.67
561.14	1101.46
561.49	1098.41
561.85	1089.52
562.20	1086.24
562.55	1086.24
562.90	1081.56
563.26	1067.52
563.61	1069.39
563.96	1066.11
564.32	1066.11
564.67	1071.73
565.02	1081.33
565.37	1087.18
565.73	1104.50
566.08	1100.75
566.43	1100.99
566.78	1108.48
567.14	1111.52
567.49	1099.12
567.84	1096.54
568.19	1096.31
568.54	1097.01
568.90	1077.82
569.25	1079.92
569.60	1085.07
569.95	1078.99
570.31	1076.65
570.66	1077.82
571.01	1072.43
571.36	1075.01
571.71	1073.37
572.06	1065.88
572.42	1078.05
572.77	1078.05
573.12	1079.22
573.47	1085.31
573.82	1087.65
574.18	1082.73
574.53	1089.75
574.88	1083.20
575.23	1073.14
575.58	1079.46
575.93	1085.31
576.28	1077.35
576.64	1079.22
576.99	1080.16
577.34	1078.05
577.69	1072.67
578.04	1070.56
578.39	1071.73
578.74	1071.97
579.09	1073.84
579.44	1080.39
579.80	1092.33
580.15	1103.80
580.50	1109.18
580.85	1102.39
581.20	1100.05
581.55	1084.84
581.90	1067.99
582.25	1069.39
582.60	1082.97
582.95	1076.41
583.30	1086.71
583.65	1088.82
584.00	1087.18
584.35	1075.48
584.71	1069.16
585.06	1068.22
585.41	1070.80
585.76	1078.28
586.11	1078.05
586.46	1081.09
586.81	1073.37
587.16	1078.05
587.51	1069.62
587.86	1074.07
588.21	1077.35
588.56	1086.94
588.91	1085.07
589.26	1094.20
589.61	1100.29
589.96	1098.88
590.31	1093.26
590.66	1086.24
591.01	1074.31
591.36	1070.80
591.71	1078.28
592.06	1079.46
592.41	1092.33
592.76	1096.54
593.10	1088.12
593.45	1079.69
593.80	1074.77
594.15	1075.24
594.50	1071.26
594.85	1082.03
595.20	1093.97
595.55	1113.16
595.90	1103.33
596.25	1101.46
596.60	1091.86
596.95	1085.54
597.30	1067.52
597.64	1119.01
597.99	1127.90
598.34	1129.78
598.69	1132.35
599.04	1137.27
599.39	1089.75
599.74	1086.01
600.09	1086.94
600.44	1093.50
600.78	1099.12
601.13	1104.26
601.48	1101.46
601.83	1100.29
602.18	1089.29
602.53	1083.43
602.88	1072.67
603.22	1069.16
603.57	1066.11
603.92	1061.20
604.27	1072.43
604.62	1080.16
604.97	1086.71
605.31	1097.95
605.66	1110.58
606.01	1104.97
606.36	1108.71
606.71	1106.14
607.05	1104.03
607.40	1097.48
607.75	1086.48
608.10	1076.41
608.44	1074.77
608.79	1070.33
609.14	1068.92
609.49	1093.03
609.84	1096.31
610.18	1097.71
610.53	1093.97
610.88	1089.52
611.23	1079.22
611.57	1076.88
611.92	1069.86
612.27	1072.90
612.62	1082.50
612.96	1067.99
613.31	1060.03
613.66	1066.82
614.00	1065.65
614.35	1062.37
614.70	1064.71
615.05	1067.99
615.39	1071.26
615.74	1076.18
616.09	1078.28
616.43	1092.33
616.78	1097.01
617.13	1097.71
617.47	1101.22
617.82	1091.63
618.17	1082.26
618.51	1082.97
618.86	1084.60
619.21	1078.52
619.55	1083.90
619.90	1082.73
620.25	1074.07
620.59	1064.24
620.94	1057.92
621.29	1069.16
621.63	1072.43
621.98	1075.71
622.32	1080.16
622.67	1087.65
623.02	1075.01
623.36	1080.39
623.71	1078.99
624.05	1082.26
624.40	1074.77
624.75	1076.65
625.09	1061.20
625.44	1063.54
625.78	1049.26
626.13	1046.92
626.48	1040.37
626.82	1047.62
627.17	1058.86
627.51	1073.37
627.86	1078.52
628.20	1089.75
628.55	1087.88
628.89	1078.75
629.24	1074.31
629.58	1082.50
629.93	1080.63
630.28	1087.18
630.62	1086.48
630.97	1093.03
631.31	1093.73
631.66	1095.14
632.00	1094.20
632.35	1098.65
632.69	1099.58
633.04	1099.82
633.38	1097.71
633.73	1087.88
634.07	1088.12
634.42	1086.71
634.76	1083.20
635.11	1086.48
635.45	1094.20
635.79	1090.46
636.14	1084.84
636.48	1083.90
636.83	1081.56
637.17	1084.60
637.52	1084.60
637.86	1078.75
638.21	1078.05
638.55	1065.65
638.89	1061.20
639.24	1059.56
639.58	1069.86
639.93	1068.22
640.27	1070.33
640.61	1077.58
640.96	1080.86
641.30	1069.62
641.65	1066.35
641.99	1074.54
642.33	1069.86
642.68	1067.52
643.02	1082.03
643.37	1086.48
643.71	1086.01
644.05	1081.33
644.40	1075.48
644.74	1068.69
645.08	1063.07
645.43	1063.07
645.77	1068.45
646.11	1077.82
646.46	1078.52
646.80	1084.37
647.14	1091.39
647.49	1094.67
647.83	1095.84
648.17	1088.82
648.52	1092.33
648.86	1083.20
649.20	1078.75
649.55	1078.52
649.89	1084.60
650.23	1082.50
650.57	1088.35
650.92	1090.22
651.26	1086.01
651.60	1084.14
651.95	1080.63
652.29	1072.90
652.63	1071.73
652.97	1071.26
653.32	1082.50
653.66	1084.84
654.00	1088.82
654.34	1087.65
654.69	1090.92
655.03	1080.39
655.37	1076.65
655.71	1085.54
656.05	1089.05
656.40	1087.41
656.74	1081.56
657.08	1085.31
657.42	1078.99
657.76	1078.99
658.11	1080.63
658.45	1085.31
658.79	1079.69
659.13	1080.16
659.47	1071.26
659.82	1067.99
660.16	1070.56
660.50	1067.75
660.84	1070.33
661.18	1074.54
661.52	1075.24
661.87	1067.99
662.21	1061.67
662.55	1060.96
662.89	1063.54
663.23	1071.73
663.57	1082.26
663.91	1100.52
664.25	1089.29
664.60	1085.07
664.94	1068.22
665.28	1061.90
665.62	1046.45
665.96	1059.79
666.30	1063.54
666.64	1066.82
666.98	1062.84
667.32	1071.73
667.66	1067.52
668.01	1066.11
668.35	1070.80
668.69	1072.67
669.03	1069.86
669.37	1070.80
669.71	1071.50
670.05	1082.73
670.39	1089.05
670.73	1093.97
671.07	1093.97
671.41	1099.82
671.75	1097.48
672.09	1100.29
672.43	1099.58
672.77	1097.95
673.11	1093.03
673.45	1089.52
673.79	1085.31
674.13	1079.92
674.47	1074.31
674.81	1070.09
675.15	1065.88
675.49	1062.84
675.83	1073.60
676.17	1080.63
676.51	1080.86
676.85	1082.97
677.19	1088.58
677.53	1078.52
677.87	1080.86
678.21	1086.24
678.55	1072.20
678.89	1064.01
679.23	1065.41
679.57	1053.24
679.90	1039.90
680.24	1051.84
680.58	1058.16
680.92	1063.07
681.26	1062.14
681.60	1066.11
681.94	1069.86
682.28	1063.77
682.62	1075.24
682.96	1085.07
683.29	1099.12
683.63	1098.88
683.97	1100.52
684.31	1088.58
684.65	1086.48
684.99	1072.90
685.33	1081.33
685.67	1083.20
686.00	1079.46
686.34	1075.94
686.68	1087.88
687.02	1074.31
687.36	1077.58
687.70	1079.46
688.03	1084.14
688.37	1070.09
688.71	1073.14
689.05	1073.37
689.39	1073.37
689.72	1075.24
690.06	1083.90
690.40	1081.56
690.74	1076.18
691.08	1078.28
691.41	1077.11
691.75	1063.77
692.09	1058.39
692.43	1064.01
692.76	1060.73
693.10	1045.52
693.44	1068.92
693.78	1083.90
694.11	1082.26
694.45	1079.69
694.79	1094.43
695.13	1089.29
695.46	1082.73
695.80	1075.48
696.14	1069.86
696.48	1072.67
696.81	1064.94
697.15	1068.69
697.49	1084.37
697.82	1094.67
698.16	1096.78
698.50	1094.67
698.83	1090.22
699.17	1077.58
699.51	1082.26
699.84	1078.99
700.18	1083.90
700.52	1078.05
700.85	1075.48
701.19	1071.03
701.53	1065.18
701.86	1062.84
702.20	1079.22
702.54	1087.88
702.87	1084.84
703.21	1088.35
703.55	1088.12
703.88	1080.16
704.22	1070.56
704.55	1079.92
704.89	1089.52
705.23	1096.78
705.56	1095.60
705.90	1108.48
706.23	1102.63
706.57	1090.46
706.91	1089.75
707.24	1089.05
707.58	1095.60
707.91	1097.24
708.25	1107.07
708.58	1095.60
708.92	1093.50
709.26	1085.07
709.59	1086.01
709.93	1079.22
710.26	1089.75
710.60	1083.67
710.93	1087.88
711.27	1082.26
711.60	1084.60
711.94	1077.82
712.27	1087.18
712.61	1082.97
712.94	1082.26
713.28	1077.11
713.61	1073.14
713.95	1068.45
714.28	1065.18
714.62	1065.18
714.95	1072.90
715.29	1082.73
715.62	1089.75
715.96	1095.37
716.29	1090.92
716.63	1082.97
716.96	1082.50
717.29	1069.16
717.63	1060.96
717.96	1064.94
718.30	1070.09
718.63	1063.07
718.97	1069.39
719.30	1074.54
719.63	1074.77
719.97	1073.37
720.30	1070.33
720.64	1074.77
720.97	1066.58
721.30	1064.71
721.64	1064.94
721.97	1070.80
722.31	1061.20
722.64	1064.94
722.97	1070.80
723.31	1065.65
723.64	1059.56
723.97	1074.07
724.31	1080.63
724.64	1089.05
724.98	1093.26
725.31	1094.20
725.64	1094.20
725.98	1091.16
726.31	1083.20
726.64	1078.28
726.97	1090.22
727.31	1089.75
727.64	1088.58
727.97	1081.33
728.31	1079.22
728.64	1073.60
728.97	1063.07
729.31	1069.16
729.64	1072.90
729.97	1082.50
730.30	1075.01
730.64	1075.24
730.97	1077.35
731.30	1078.28
731.63	1072.20
731.97	1072.67
732.30	1071.73
732.63	1064.24
732.96	1054.41
733.30	1052.30
733.63	1058.62
733.96	1061.20
734.29	1054.41
734.63	1068.92
734.96	1075.48
735.29	1072.90
735.62	1075.94
735.95	1082.26
736.29	1085.31
736.62	1086.71
736.95	1096.07
737.28	1100.29
737.61	1094.43
737.94	1087.18
738.28	1091.63
738.61	1084.60
738.94	1084.14
739.27	1095.84
739.60	1098.88
739.93	1088.12
740.27	1082.03
740.60	1073.60
740.93	1056.52
741.26	1062.37
741.59	1067.99
741.92	1072.90
742.25	1078.75
742.58	1089.29
742.91	1076.41
743.25	1076.65
743.58	1077.58
743.91	1072.20
744.24	1071.26
744.57	1074.54
744.90	1071.26
745.23	1075.94
745.56	1079.46
745.89	1085.54
746.22	1089.75
746.55	1084.84
746.88	1083.67
747.21	1081.56
747.54	1071.97
747.87	1068.45
748.20	1081.56
748.53	1078.05
748.87	1088.12
749.20	1094.90
749.53	1088.12
749.86	1080.86
750.19	1080.86
750.52	1067.99
750.85	1067.75
751.18	1068.22
751.51	1065.88
751.84	1064.48
752.16	1070.56
752.49	1070.56
752.82	1077.11
753.15	1088.12
753.48	1086.94
753.81	1075.24
754.14	1075.01
754.47	1074.07
754.80	1071.26
755.13	1079.46
755.46	1096.78
755.79	1100.52
756.12	1111.75
756.45	1106.84
756.78	1107.54
757.11	1099.58
757.43	1098.41
757.76	1087.41
758.09	1077.11
758.42	1064.24
758.75	1062.14
759.08	1060.50
759.41	1060.50
759.74	1067.75
760.07	1079.22
760.39	1077.82
760.72	1070.33
761.05	1067.99
761.38	1062.37
761.71	1058.86
762.04	1064.94
762.36	1072.67
762.69	1069.62
763.02	1086.48
763.35	1082.73
763.68	1091.16
764.01	1094.90
764.33	1100.75
764.66	1089.52
764.99	1101.69
765.32	1096.78
765.65	1091.86
765.97	1089.29
766.30	1092.56
