SpectraSuite Data File
++++++++++++++++++++++++++++++++++++
Date: Mon Aug 26 10:26:01 PDT 2019
User: corrico
Dark Spectrum Present: No
Reference Spectrum Present: No
Number of Sampled Component Spectra: 1
Spectrometers: USB2+H06089
Integration Time (usec): 10000 (USB2+H06089)
Spectra Averaged: 2 (USB2+H06089)
Boxcar Smoothing: 2 (USB2+H06089)
Correct for Electrical Dark: No (USB2+H06089)
Strobe/Lamp Enabled: No (USB2+H06089)
Correct for Detector Non-linearity: No (USB2+H06089)
Correct for Stray Light: No (USB2+H06089)
Number of Pixels in Processed Spectrum: 2048
>>>>>Begin Processed Spectral Data<<<<<
339.70	998.24
340.07	998.24
340.45	956.81
340.82	943.00
341.19	923.11
341.57	903.91
341.94	905.79
342.31	906.96
342.69	899.00
343.06	895.25
343.43	893.62
343.81	901.81
344.18	908.83
344.55	919.60
344.93	926.15
345.30	923.81
345.67	909.77
346.04	913.98
346.42	917.96
346.79	937.15
347.16	953.77
347.54	969.22
347.91	981.15
348.28	985.37
348.65	981.85
349.03	982.79
349.40	1000.11
349.77	1004.79
350.14	1024.69
350.52	1028.67
350.89	1048.09
351.26	1039.90
351.63	1045.99
352.01	1040.13
352.38	1060.73
352.75	1061.67
353.12	1076.41
353.50	1067.05
353.87	1073.14
354.24	1060.73
354.61	1065.65
354.98	1063.07
355.36	1070.80
355.73	1063.77
356.10	1066.11
356.47	1061.20
356.84	1065.88
357.22	1074.31
357.59	1080.39
357.96	1080.86
358.33	1085.77
358.70	1080.63
359.08	1084.60
359.45	1092.33
359.82	1089.99
360.19	1085.54
360.56	1086.71
360.94	1075.48
361.31	1070.33
361.68	1076.41
362.05	1069.16
362.42	1074.54
362.79	1077.35
363.16	1075.48
363.54	1075.24
363.91	1075.48
364.28	1069.62
364.65	1068.45
365.02	1071.97
365.39	1077.58
365.76	1083.43
366.14	1080.63
366.51	1083.90
366.88	1073.60
367.25	1067.52
367.62	1063.31
367.99	1066.82
368.36	1066.82
368.73	1075.94
369.10	1074.07
369.48	1074.54
369.85	1077.11
370.22	1077.82
370.59	1070.33
370.96	1062.37
371.33	1071.97
371.70	1065.18
372.07	1064.48
372.44	1071.26
372.81	1079.22
373.18	1073.14
373.55	1073.60
373.93	1058.86
374.30	1056.52
374.67	1052.77
375.04	1045.75
375.41	1053.71
375.78	1064.01
376.15	1063.54
376.52	1064.24
376.89	1077.35
377.26	1076.65
377.63	1079.46
378.00	1068.69
378.37	1072.20
378.74	1068.45
379.11	1059.56
379.48	1060.50
379.85	1071.50
380.22	1065.18
380.59	1067.99
380.96	1072.20
381.33	1067.28
381.70	1065.18
382.07	1065.41
382.44	1055.58
382.81	1059.79
383.18	1062.84
383.55	1062.60
383.92	1065.41
384.29	1086.71
384.66	1091.16
385.03	1086.01
385.40	1086.71
385.77	1093.50
386.14	1075.24
386.51	1065.65
386.88	1071.03
387.25	1073.84
387.62	1072.43
387.99	1078.52
388.36	1082.03
388.73	1085.07
389.10	1093.26
389.46	1092.33
389.83	1087.88
390.20	1083.90
390.57	1086.01
390.94	1080.63
391.31	1080.16
391.68	1086.24
392.05	1080.39
392.42	1074.31
392.79	1066.35
393.16	1062.14
393.53	1050.20
393.89	1056.05
394.26	1052.54
394.63	1049.50
395.00	1051.60
395.37	1052.30
395.74	1057.92
396.11	1062.37
396.48	1064.01
396.84	1064.24
397.21	1067.28
397.58	1066.58
397.95	1061.67
398.32	1070.80
398.69	1070.33
399.06	1065.65
399.42	1058.62
399.79	1060.50
400.16	1047.86
400.53	1046.92
400.90	1052.07
401.27	1064.24
401.64	1077.11
402.00	1081.56
402.37	1075.48
402.74	1079.46
403.11	1076.18
403.48	1056.28
403.84	1056.99
404.21	1073.84
404.58	1074.31
404.95	1069.39
405.32	1082.03
405.68	1082.03
406.05	1074.31
406.42	1074.77
406.79	1076.65
407.16	1080.39
407.52	1081.80
407.89	1077.58
408.26	1078.75
408.63	1075.71
408.99	1076.65
409.36	1074.77
409.73	1079.92
410.10	1083.43
410.47	1083.20
410.83	1080.63
411.20	1082.97
411.57	1085.31
411.94	1075.94
412.30	1083.67
412.67	1085.77
413.04	1082.97
413.40	1082.03
413.77	1077.82
414.14	1070.33
414.51	1068.92
414.87	1073.14
415.24	1070.33
415.61	1075.48
415.97	1075.01
416.34	1065.41
416.71	1068.92
417.08	1078.52
417.44	1080.16
417.81	1082.97
418.18	1088.35
418.54	1092.09
418.91	1088.35
419.28	1097.71
419.64	1107.78
420.01	1110.12
420.38	1097.48
420.74	1093.73
421.11	1083.90
421.48	1076.41
421.84	1081.80
422.21	1090.92
422.58	1091.16
422.94	1090.69
423.31	1089.52
423.68	1083.90
424.04	1076.41
424.41	1080.39
424.77	1075.94
425.14	1068.45
425.51	1060.96
425.87	1064.24
426.24	1062.37
426.61	1067.99
426.97	1071.73
427.34	1079.22
427.70	1083.67
428.07	1088.35
428.44	1083.90
428.80	1095.37
429.17	1086.48
429.53	1082.03
429.90	1073.84
430.27	1082.03
430.63	1071.03
431.00	1072.90
431.36	1070.56
431.73	1063.31
432.09	1052.54
432.46	1055.82
432.83	1062.14
433.19	1067.28
433.56	1076.41
433.92	1084.84
434.29	1082.73
434.65	1078.99
435.02	1080.39
435.38	1073.84
435.75	1061.43
436.11	1069.39
436.48	1064.71
436.84	1066.82
437.21	1065.41
437.57	1075.71
437.94	1069.16
438.30	1078.05
438.67	1070.80
439.03	1073.14
439.40	1075.01
439.76	1073.84
440.13	1071.97
440.49	1075.24
440.86	1075.24
441.22	1071.03
441.59	1071.26
441.95	1076.88
442.32	1066.11
442.68	1070.33
443.05	1074.77
443.41	1074.07
443.78	1071.97
444.14	1079.92
444.51	1068.22
444.87	1070.80
445.24	1072.20
445.60	1066.35
445.96	1071.03
446.33	1089.29
446.69	1082.97
447.06	1085.54
447.42	1086.48
447.79	1071.97
448.15	1063.77
448.51	1072.67
448.88	1062.14
449.24	1068.69
449.61	1072.67
449.97	1079.22
450.33	1067.75
450.70	1080.86
451.06	1079.92
451.43	1073.14
451.79	1062.60
452.15	1075.01
452.52	1067.05
452.88	1064.48
453.24	1081.33
453.61	1088.58
453.97	1074.07
454.34	1079.92
454.70	1089.52
455.06	1088.12
455.43	1086.24
455.79	1095.14
456.15	1088.82
456.52	1078.52
456.88	1078.28
457.24	1074.54
457.61	1068.22
457.97	1075.24
458.33	1071.73
458.70	1069.39
459.06	1069.62
459.42	1067.05
459.79	1059.09
460.15	1060.50
460.51	1066.35
460.88	1057.92
461.24	1063.07
461.60	1064.24
461.96	1066.11
462.33	1063.77
462.69	1068.45
463.05	1078.28
463.42	1080.63
463.78	1081.80
464.14	1081.56
464.50	1092.33
464.87	1086.48
465.23	1092.09
465.59	1084.37
465.95	1089.75
466.32	1090.46
466.68	1089.75
467.04	1083.67
467.40	1091.86
467.77	1088.35
468.13	1080.16
468.49	1071.97
468.85	1071.50
469.22	1068.92
469.58	1053.94
469.94	1057.45
470.30	1064.24
470.66	1064.01
471.03	1063.77
471.39	1078.28
471.75	1082.26
472.11	1089.29
472.47	1098.41
472.84	1103.09
473.20	1098.88
473.56	1098.88
473.92	1091.86
474.28	1085.77
474.65	1078.28
475.01	1076.41
475.37	1075.48
475.73	1076.41
476.09	1072.67
476.45	1085.77
476.81	1086.01
477.18	1073.60
477.54	1077.35
477.90	1081.56
478.26	1073.37
478.62	1070.09
478.98	1070.80
479.34	1063.31
479.71	1052.54
480.07	1055.11
480.43	1064.48
480.79	1073.14
481.15	1073.84
481.51	1082.97
481.87	1080.16
482.23	1074.31
482.59	1072.43
482.96	1079.46
483.32	1079.22
483.68	1078.52
484.04	1075.24
484.40	1079.46
484.76	1067.99
485.12	1074.54
485.48	1073.37
485.84	1083.67
486.20	1082.50
486.56	1086.94
486.92	1080.16
487.28	1092.56
487.64	1086.71
488.00	1083.43
488.37	1091.16
488.73	1082.50
489.09	1069.86
489.45	1067.05
489.81	1067.75
490.17	1056.28
490.53	1074.77
490.89	1081.33
491.25	1081.33
491.61	1063.54
491.97	1070.80
492.33	1063.54
492.69	1062.60
493.05	1067.52
493.41	1084.37
493.77	1079.46
494.13	1065.88
494.49	1066.58
494.85	1062.84
495.21	1067.99
495.57	1073.14
495.93	1093.73
496.29	1094.90
496.64	1094.43
497.00	1100.29
497.36	1095.14
497.72	1096.07
498.08	1087.65
498.44	1089.52
498.80	1080.86
499.16	1096.78
499.52	1092.80
499.88	1095.60
500.24	1095.84
500.60	1097.24
500.96	1092.80
501.32	1080.39
501.68	1083.67
502.03	1095.37
502.39	1093.50
502.75	1089.52
503.11	1092.33
503.47	1097.71
503.83	1101.92
504.19	1099.12
504.55	1093.73
504.91	1096.31
505.26	1082.03
505.62	1064.01
505.98	1062.60
506.34	1062.37
506.70	1064.48
507.06	1071.03
507.42	1079.46
507.78	1088.82
508.13	1100.29
508.49	1088.82
508.85	1096.31
509.21	1092.33
509.57	1076.65
509.93	1070.56
510.28	1070.09
510.64	1064.48
511.00	1062.14
511.36	1068.69
511.72	1054.88
512.07	1068.45
512.43	1068.45
512.79	1074.54
513.15	1071.73
513.51	1074.07
513.86	1068.92
514.22	1062.84
514.58	1053.48
514.94	1054.41
515.30	1061.43
515.65	1068.22
516.01	1080.16
516.37	1080.16
516.73	1099.12
517.08	1095.14
517.44	1092.80
517.80	1084.84
518.16	1091.86
518.51	1079.69
518.87	1092.56
519.23	1100.52
519.59	1102.39
519.94	1100.52
520.30	1100.75
520.66	1100.99
521.01	1093.97
521.37	1092.80
521.73	1097.95
522.09	1093.73
522.44	1089.05
522.80	1091.63
523.16	1095.14
523.51	1087.65
523.87	1101.69
524.23	1107.07
524.58	1105.20
524.94	1102.63
525.30	1098.65
525.65	1086.94
526.01	1088.35
526.37	1079.69
526.72	1080.86
527.08	1088.35
527.44	1090.46
527.79	1086.24
528.15	1098.88
528.51	1107.31
528.86	1104.73
529.22	1110.12
529.58	1108.24
529.93	1106.84
530.29	1094.90
530.65	1099.35
531.00	1093.73
531.36	1096.31
531.71	1093.03
532.07	1104.26
532.43	1094.67
532.78	1094.90
533.14	1090.69
533.49	1089.75
533.85	1080.86
534.21	1088.35
534.56	1088.12
534.92	1087.18
535.27	1089.99
535.63	1089.52
535.98	1076.41
536.34	1086.71
536.69	1089.75
537.05	1085.54
537.41	1089.52
537.76	1104.03
538.12	1089.29
538.47	1085.77
538.83	1085.54
539.18	1076.88
539.54	1081.09
539.89	1080.16
540.25	1079.92
540.60	1081.33
540.96	1086.94
541.31	1087.65
541.67	1100.52
542.02	1100.05
542.38	1105.67
542.73	1104.03
543.09	1088.12
543.44	1085.07
543.80	1083.20
544.15	1073.37
544.51	1063.31
544.86	1068.22
545.22	1062.37
545.57	1065.88
545.93	1065.88
546.28	1076.65
546.64	1084.84
546.99	1089.52
547.35	1087.41
547.70	1092.09
548.05	1091.63
548.41	1076.88
548.76	1082.26
549.12	1083.67
549.47	1081.56
549.83	1086.71
550.18	1094.90
550.53	1093.50
550.89	1095.84
551.24	1089.29
551.60	1082.73
551.95	1090.22
552.30	1090.22
552.66	1094.20
553.01	1101.22
553.37	1101.69
553.72	1108.24
554.07	1102.86
554.43	1088.82
554.78	1086.01
555.13	1088.82
555.49	1073.60
555.84	1072.20
556.19	1076.88
556.55	1083.43
556.90	1082.73
557.26	1086.24
557.61	1091.16
557.96	1093.73
558.32	1094.20
558.67	1084.84
559.02	1086.01
559.37	1083.90
559.73	1086.71
560.08	1075.94
560.43	1092.09
560.79	1087.65
561.14	1083.67
561.49	1079.69
561.85	1086.24
562.20	1080.39
562.55	1083.67
562.90	1079.22
563.26	1072.43
563.61	1082.03
563.96	1083.20
564.32	1093.03
564.67	1098.65
565.02	1107.07
565.37	1093.03
565.73	1081.33
566.08	1071.50
566.43	1066.82
566.78	1063.31
567.14	1066.11
567.49	1085.54
567.84	1078.28
568.19	1085.54
568.54	1095.84
568.90	1101.69
569.25	1088.82
569.60	1101.92
569.95	1095.37
570.31	1086.24
570.66	1085.54
571.01	1087.41
571.36	1078.28
571.71	1089.52
572.06	1085.77
572.42	1076.88
572.77	1067.05
573.12	1065.41
573.47	1069.86
573.82	1075.24
574.18	1079.69
574.53	1087.41
574.88	1093.50
575.23	1090.69
575.58	1084.14
575.93	1078.05
576.28	1080.39
576.64	1071.97
576.99	1060.73
577.34	1065.65
577.69	1072.20
578.04	1061.90
578.39	1070.09
578.74	1065.18
579.09	1077.35
579.44	1089.52
579.80	1102.16
580.15	1101.22
580.50	1111.99
580.85	1106.61
581.20	1094.20
581.55	1084.37
581.90	1083.90
582.25	1083.43
582.60	1074.77
582.95	1074.77
583.30	1078.28
583.65	1075.94
584.00	1074.07
584.35	1079.69
584.71	1079.92
585.06	1076.18
585.41	1074.31
585.76	1071.26
586.11	1067.75
586.46	1073.60
586.81	1075.01
587.16	1070.33
587.51	1070.80
587.86	1078.28
588.21	1065.65
588.56	1067.52
588.91	1081.80
589.26	1082.50
589.61	1071.50
589.96	1077.82
590.31	1083.67
590.66	1073.14
591.01	1071.73
591.36	1073.84
591.71	1068.45
592.06	1059.09
592.41	1062.37
592.76	1072.67
593.10	1078.99
593.45	1085.54
593.80	1092.56
594.15	1098.18
594.50	1088.58
594.85	1082.50
595.20	1073.37
595.55	1073.37
595.90	1070.09
596.25	1067.99
596.60	1081.33
596.95	1093.26
597.30	1088.12
597.64	1137.97
597.99	1143.35
598.34	1131.18
598.69	1128.14
599.04	1136.10
599.39	1083.90
599.74	1073.84
600.09	1079.92
600.44	1077.11
600.78	1075.71
601.13	1077.11
601.48	1086.01
601.83	1079.46
602.18	1086.71
602.53	1080.86
602.88	1074.07
603.22	1071.26
603.57	1076.65
603.92	1065.88
604.27	1067.52
604.62	1070.56
604.97	1076.18
605.31	1075.24
605.66	1082.03
606.01	1071.50
606.36	1067.75
606.71	1066.35
607.05	1067.05
607.40	1066.82
607.75	1079.46
608.10	1083.90
608.44	1081.56
608.79	1075.94
609.14	1077.35
609.49	1085.77
609.84	1093.97
610.18	1089.05
610.53	1097.24
610.88	1099.35
611.23	1099.82
611.57	1105.44
611.92	1109.88
612.27	1110.12
612.62	1103.09
612.96	1092.09
613.31	1078.52
613.66	1085.54
614.00	1086.24
614.35	1085.54
614.70	1095.84
615.05	1109.88
615.39	1111.05
615.74	1105.44
616.09	1117.14
616.43	1108.01
616.78	1099.82
617.13	1094.20
617.47	1101.46
617.82	1093.26
618.17	1092.56
618.51	1089.99
618.86	1080.16
619.21	1080.39
619.55	1077.82
619.90	1080.63
620.25	1090.46
620.59	1101.69
620.94	1086.71
621.29	1082.50
621.63	1081.09
621.98	1073.84
622.32	1070.80
622.67	1080.86
623.02	1085.54
623.36	1093.50
623.71	1085.54
624.05	1094.67
624.40	1086.94
624.75	1079.69
625.09	1075.94
625.44	1079.69
625.78	1071.03
626.13	1075.48
626.48	1080.16
626.82	1072.67
627.17	1064.94
627.51	1073.84
627.86	1070.80
628.20	1073.60
628.55	1072.90
628.89	1080.16
629.24	1061.20
629.58	1071.26
629.93	1074.31
630.28	1081.33
630.62	1077.58
630.97	1083.90
631.31	1069.62
631.66	1075.71
632.00	1077.58
632.35	1087.41
632.69	1094.90
633.04	1094.67
633.38	1099.12
633.73	1094.90
634.07	1086.94
634.42	1083.43
634.76	1096.07
635.11	1087.41
635.45	1081.56
635.79	1080.16
636.14	1082.03
636.48	1073.84
636.83	1062.14
637.17	1064.48
637.52	1063.77
637.86	1061.67
638.21	1057.69
638.55	1064.24
638.89	1067.52
639.24	1071.50
639.58	1080.86
639.93	1089.29
640.27	1095.37
640.61	1107.78
640.96	1111.05
641.30	1102.39
641.65	1099.82
641.99	1093.97
642.33	1089.29
642.68	1083.20
643.02	1080.86
643.37	1083.20
643.71	1084.84
644.05	1070.80
644.40	1077.58
644.74	1073.60
645.08	1075.24
645.43	1083.43
645.77	1089.29
646.11	1094.43
646.46	1104.03
646.80	1095.84
647.14	1095.60
647.49	1092.80
647.83	1089.05
648.17	1082.97
648.52	1095.84
648.86	1088.35
649.20	1093.03
649.55	1086.24
649.89	1088.58
650.23	1076.41
650.57	1083.43
650.92	1078.99
651.26	1079.92
651.60	1080.86
651.95	1082.97
652.29	1060.73
652.63	1077.11
652.97	1067.75
653.32	1058.16
653.66	1052.07
654.00	1076.18
654.34	1063.07
654.69	1077.82
655.03	1078.99
655.37	1082.03
655.71	1068.45
656.05	1063.54
656.40	1060.50
656.74	1060.96
657.08	1062.84
657.42	1061.20
657.76	1065.41
658.11	1054.88
658.45	1057.45
658.79	1061.90
659.13	1062.60
659.47	1075.71
659.82	1086.48
660.16	1089.99
660.50	1089.05
660.84	1093.97
661.18	1077.35
661.52	1077.35
661.87	1070.56
662.21	1067.28
662.55	1063.07
662.89	1056.99
663.23	1062.37
663.57	1075.94
663.91	1081.56
664.25	1088.35
664.60	1096.31
664.94	1082.03
665.28	1076.65
665.62	1078.05
665.96	1078.99
666.30	1083.90
666.64	1081.33
666.98	1076.65
667.32	1074.31
667.66	1068.69
668.01	1071.03
668.35	1080.16
668.69	1081.80
669.03	1082.26
669.37	1084.14
669.71	1081.80
670.05	1086.01
670.39	1088.35
670.73	1082.97
671.07	1078.05
671.41	1081.33
671.75	1072.90
672.09	1068.92
672.43	1073.37
672.77	1077.35
673.11	1072.20
673.45	1075.48
673.79	1079.22
674.13	1073.14
674.47	1073.60
674.81	1076.41
675.15	1078.28
675.49	1089.99
675.83	1090.22
676.17	1087.41
676.51	1074.07
676.85	1076.41
677.19	1064.24
677.53	1065.41
677.87	1068.22
678.21	1081.80
678.55	1074.07
678.89	1072.67
679.23	1071.03
679.57	1069.86
679.90	1068.92
680.24	1079.22
680.58	1078.28
680.92	1077.11
681.26	1083.90
681.60	1080.63
681.94	1071.73
682.28	1079.46
682.62	1090.22
682.96	1083.20
683.29	1086.01
683.63	1073.84
683.97	1064.24
684.31	1059.79
684.65	1056.52
684.99	1051.84
685.33	1076.41
685.67	1084.14
686.00	1085.77
686.34	1089.52
686.68	1093.97
687.02	1088.82
687.36	1086.71
687.70	1082.97
688.03	1084.14
688.37	1091.86
688.71	1084.14
689.05	1085.07
689.39	1089.29
689.72	1089.05
690.06	1080.86
690.40	1080.63
690.74	1080.63
691.08	1081.56
691.41	1074.54
691.75	1073.60
692.09	1072.67
692.43	1070.56
692.76	1070.80
693.10	1070.09
693.44	1065.41
693.78	1073.14
694.11	1073.14
694.45	1077.82
694.79	1083.20
695.13	1082.03
695.46	1085.54
695.80	1088.12
696.14	1086.01
696.48	1081.09
696.81	1086.48
697.15	1080.39
697.49	1065.41
697.82	1058.39
698.16	1064.94
698.50	1066.35
698.83	1069.16
699.17	1078.28
699.51	1078.52
699.84	1079.46
700.18	1074.07
700.52	1078.05
700.85	1084.14
701.19	1084.84
701.53	1081.33
701.86	1085.54
702.20	1083.67
702.54	1078.52
702.87	1077.82
703.21	1083.43
703.55	1081.33
703.88	1090.46
704.22	1092.33
704.55	1098.88
704.89	1097.01
705.23	1100.75
705.56	1080.63
705.90	1090.46
706.23	1094.20
706.57	1094.20
706.91	1096.78
707.24	1105.90
707.58	1094.20
707.91	1084.84
708.25	1082.26
708.58	1082.73
708.92	1079.22
709.26	1086.71
709.59	1091.63
709.93	1101.22
710.26	1092.09
710.60	1086.94
710.93	1091.86
711.27	1088.82
711.60	1083.67
711.94	1090.69
712.27	1103.09
712.61	1092.80
712.94	1088.82
713.28	1094.67
713.61	1095.60
713.95	1086.01
714.28	1089.29
714.62	1089.75
714.95	1087.41
715.29	1085.07
715.62	1092.56
715.96	1085.31
716.29	1082.97
716.63	1074.54
716.96	1066.35
717.29	1070.09
717.63	1064.24
717.96	1067.99
718.30	1078.52
718.63	1089.52
718.97	1089.05
719.30	1105.90
719.63	1108.24
719.97	1097.01
720.30	1097.48
720.64	1092.33
720.97	1080.86
721.30	1084.14
721.64	1086.94
721.97	1078.75
722.31	1080.63
722.64	1095.84
722.97	1093.73
723.31	1093.97
723.64	1092.09
723.97	1089.05
724.31	1091.63
724.64	1087.88
724.98	1093.03
725.31	1103.56
725.64	1097.71
725.98	1082.03
726.31	1081.33
726.64	1077.58
726.97	1069.62
727.31	1072.20
727.64	1072.90
727.97	1069.86
728.31	1071.50
728.64	1072.20
728.97	1078.75
729.31	1078.75
729.64	1083.90
729.97	1074.77
730.30	1087.88
730.64	1086.01
730.97	1088.58
731.30	1085.07
731.63	1091.63
731.97	1079.46
732.30	1091.86
732.63	1087.88
732.96	1095.37
733.30	1093.50
733.63	1096.31
733.96	1078.52
734.29	1079.46
734.63	1075.71
734.96	1078.75
735.29	1074.31
735.62	1084.84
735.95	1085.31
736.29	1093.97
736.62	1091.86
736.95	1096.07
737.28	1091.63
737.61	1089.05
737.94	1088.35
738.28	1099.12
738.61	1097.48
738.94	1092.33
739.27	1094.90
739.60	1086.01
739.93	1076.65
740.27	1080.39
740.60	1085.31
740.93	1086.01
741.26	1083.90
741.59	1073.84
741.92	1073.84
742.25	1068.45
742.58	1066.11
742.91	1070.80
743.25	1081.09
743.58	1078.99
743.91	1077.58
744.24	1082.50
744.57	1078.52
744.90	1070.80
745.23	1072.20
745.56	1071.97
745.89	1069.16
746.22	1074.54
746.55	1078.05
746.88	1066.82
747.21	1075.48
747.54	1077.11
747.87	1075.94
748.20	1087.18
748.53	1089.75
748.87	1082.26
749.20	1081.09
749.53	1077.35
749.86	1072.90
750.19	1081.80
750.52	1086.01
750.85	1087.18
751.18	1087.65
751.51	1074.54
751.84	1071.50
752.16	1065.41
752.49	1066.11
752.82	1065.65
753.15	1075.71
753.48	1071.97
753.81	1082.03
754.14	1082.50
754.47	1086.24
754.80	1087.65
755.13	1100.75
755.46	1104.03
755.79	1101.22
756.12	1093.97
756.45	1101.46
756.78	1089.29
757.11	1082.73
757.43	1083.20
757.76	1082.26
758.09	1071.97
758.42	1080.86
758.75	1085.07
759.08	1080.39
759.41	1086.48
759.74	1090.92
760.07	1082.03
760.39	1079.92
760.72	1081.33
761.05	1086.48
761.38	1079.92
761.71	1081.33
762.04	1075.94
762.36	1085.07
762.69	1080.16
763.02	1078.05
763.35	1080.63
763.68	1084.37
764.01	1079.69
764.33	1079.92
764.66	1091.63
764.99	1093.73
765.32	1095.37
765.65	1106.84
765.97	1105.90
766.30	1097.24
