SpectraSuite Data File
++++++++++++++++++++++++++++++++++++
Date: Mon Aug 26 10:26:06 PDT 2019
User: corrico
Dark Spectrum Present: No
Reference Spectrum Present: No
Number of Sampled Component Spectra: 1
Spectrometers: USB2+H06089
Integration Time (usec): 10000 (USB2+H06089)
Spectra Averaged: 20 (USB2+H06089)
Boxcar Smoothing: 2 (USB2+H06089)
Correct for Electrical Dark: No (USB2+H06089)
Strobe/Lamp Enabled: No (USB2+H06089)
Correct for Detector Non-linearity: No (USB2+H06089)
Correct for Stray Light: No (USB2+H06089)
Number of Pixels in Processed Spectrum: 2048
>>>>>Begin Processed Spectral Data<<<<<
339.70	1031.24
340.07	1031.24
340.45	994.94
340.82	973.10
341.19	949.72
341.57	922.90
341.94	910.73
342.31	902.56
342.69	894.48
343.06	891.91
343.43	894.06
343.81	896.47
344.18	901.93
344.55	909.93
344.93	913.25
345.30	919.01
345.67	925.87
346.04	930.55
346.42	936.94
346.79	942.88
347.16	951.40
347.54	962.69
347.91	971.44
348.28	979.68
348.65	993.30
349.03	997.84
349.40	1004.11
349.77	1011.21
350.14	1017.57
350.52	1021.64
350.89	1031.61
351.26	1037.93
351.63	1045.73
352.01	1053.87
352.38	1061.90
352.75	1065.41
353.12	1067.73
353.50	1067.19
353.87	1070.70
354.24	1071.40
354.61	1074.26
354.98	1081.21
355.36	1085.70
355.73	1088.98
356.10	1087.65
356.47	1087.46
356.84	1084.07
357.22	1082.38
357.59	1078.14
357.96	1079.83
358.33	1079.41
358.70	1080.02
359.08	1080.93
359.45	1083.06
359.82	1083.06
360.19	1081.61
360.56	1079.78
360.94	1079.36
361.31	1073.28
361.68	1070.49
362.05	1070.09
362.42	1071.19
362.79	1072.43
363.16	1073.86
363.54	1074.40
363.91	1074.63
364.28	1072.04
364.65	1068.41
365.02	1068.43
365.39	1067.85
365.76	1067.21
366.14	1069.44
366.51	1073.14
366.88	1069.65
367.25	1068.64
367.62	1069.27
367.99	1068.52
368.36	1066.21
368.73	1070.80
369.10	1071.47
369.48	1072.01
369.85	1070.94
370.22	1068.88
370.59	1069.37
370.96	1068.99
371.33	1067.33
371.70	1069.32
372.07	1072.48
372.44	1071.12
372.81	1072.29
373.18	1069.46
373.55	1066.96
373.93	1067.42
374.30	1063.77
374.67	1060.73
375.04	1063.21
375.41	1065.90
375.78	1063.47
376.15	1067.24
376.52	1069.81
376.89	1068.43
377.26	1065.37
377.63	1064.78
378.00	1064.36
378.37	1064.31
378.74	1065.08
379.11	1065.60
379.48	1065.44
379.85	1065.51
380.22	1064.85
380.59	1066.23
380.96	1065.46
381.33	1066.21
381.70	1067.61
382.07	1068.08
382.44	1065.76
382.81	1065.13
383.18	1066.49
383.55	1066.96
383.92	1065.04
384.29	1066.16
384.66	1068.08
385.03	1066.16
385.40	1066.98
385.77	1071.59
386.14	1073.58
386.51	1075.52
386.88	1078.43
387.25	1077.61
387.62	1075.64
387.99	1073.00
388.36	1072.43
388.73	1075.66
389.10	1077.58
389.46	1078.12
389.83	1081.96
390.20	1079.62
390.57	1076.67
390.94	1074.05
391.31	1071.85
391.68	1072.76
392.05	1073.72
392.42	1070.54
392.79	1070.49
393.16	1070.61
393.53	1070.05
393.89	1071.29
394.26	1074.35
394.63	1073.21
395.00	1077.28
395.37	1076.37
395.74	1075.59
396.11	1074.03
396.48	1073.79
396.84	1069.60
397.21	1067.99
397.58	1068.57
397.95	1070.30
398.32	1071.57
398.69	1072.76
399.06	1071.78
399.42	1070.70
399.79	1069.51
400.16	1068.52
400.53	1072.71
400.90	1073.65
401.27	1075.52
401.64	1075.27
402.00	1076.86
402.37	1073.91
402.74	1077.65
403.11	1078.31
403.48	1078.24
403.84	1074.75
404.21	1075.97
404.58	1071.99
404.95	1070.54
405.32	1071.57
405.68	1074.07
406.05	1071.87
406.42	1072.92
406.79	1071.12
407.16	1071.61
407.52	1072.85
407.89	1075.73
408.26	1077.33
408.63	1080.04
408.99	1077.56
409.36	1078.24
409.73	1076.51
410.10	1073.86
410.47	1072.04
410.83	1076.32
411.20	1074.70
411.57	1074.84
411.94	1077.86
412.30	1080.37
412.67	1078.14
413.04	1082.57
413.40	1083.13
413.77	1083.53
414.14	1084.46
414.51	1083.46
414.87	1078.21
415.24	1074.94
415.61	1073.00
415.97	1070.68
416.34	1071.40
416.71	1072.04
417.08	1075.85
417.44	1076.08
417.81	1072.90
418.18	1073.53
418.54	1073.25
418.91	1074.26
419.28	1073.63
419.64	1078.10
420.01	1078.12
420.38	1080.46
420.74	1079.85
421.11	1082.94
421.48	1077.72
421.84	1075.76
422.21	1075.15
422.58	1071.08
422.94	1068.55
423.31	1071.73
423.68	1072.39
424.04	1073.35
424.41	1075.59
424.77	1076.25
425.14	1075.27
425.51	1074.77
425.87	1074.28
426.24	1074.45
426.61	1072.90
426.97	1076.62
427.34	1076.97
427.70	1077.30
428.07	1077.16
428.44	1076.90
428.80	1073.98
429.17	1075.22
429.53	1074.77
429.90	1075.08
430.27	1073.16
430.63	1076.88
431.00	1077.61
431.36	1077.56
431.73	1078.64
432.09	1079.83
432.46	1078.80
432.83	1076.37
433.19	1073.58
433.56	1072.27
433.92	1077.72
434.29	1073.00
434.65	1073.60
435.02	1077.23
435.38	1076.83
435.75	1071.36
436.11	1074.03
436.48	1076.69
436.84	1076.06
437.21	1078.14
437.57	1079.10
437.94	1078.40
438.30	1075.17
438.67	1071.59
439.03	1071.19
439.40	1072.95
439.76	1076.58
440.13	1076.86
440.49	1081.89
440.86	1081.44
441.22	1081.51
441.59	1080.23
441.95	1083.46
442.32	1081.68
442.68	1079.34
443.05	1080.70
443.41	1079.50
443.78	1077.96
444.14	1078.36
444.51	1079.64
444.87	1077.93
445.24	1077.72
445.60	1078.45
445.96	1079.74
446.33	1082.90
446.69	1083.25
447.06	1081.87
447.42	1081.98
447.79	1078.47
448.15	1079.64
448.51	1080.88
448.88	1083.76
449.24	1080.86
449.61	1083.34
449.97	1078.75
450.33	1076.58
450.70	1075.52
451.06	1078.71
451.43	1077.07
451.79	1078.03
452.15	1081.16
452.52	1084.58
452.88	1083.27
453.24	1084.18
453.61	1084.44
453.97	1082.99
454.34	1081.56
454.70	1079.83
455.06	1079.97
455.43	1080.98
455.79	1079.88
456.15	1079.55
456.52	1081.07
456.88	1077.47
457.24	1074.03
457.61	1072.06
457.97	1070.02
458.33	1071.47
458.70	1074.31
459.06	1077.02
459.42	1075.03
459.79	1074.54
460.15	1074.82
460.51	1073.74
460.88	1073.72
461.24	1076.97
461.60	1078.07
461.96	1075.71
462.33	1078.71
462.69	1078.68
463.05	1080.02
463.42	1077.75
463.78	1077.98
464.14	1078.75
464.50	1076.58
464.87	1076.23
465.23	1077.86
465.59	1077.09
465.95	1074.80
466.32	1077.00
466.68	1077.44
467.04	1078.92
467.40	1080.67
467.77	1078.59
468.13	1077.58
468.49	1079.38
468.85	1080.02
469.22	1081.40
469.58	1084.89
469.94	1085.40
470.30	1082.69
470.66	1080.44
471.03	1079.38
471.39	1079.22
471.75	1078.73
472.11	1079.90
472.47	1080.63
472.84	1078.78
473.20	1080.09
473.56	1081.44
473.92	1080.11
474.28	1080.16
474.65	1080.77
475.01	1077.61
475.37	1074.56
475.73	1076.90
476.09	1076.97
476.45	1078.57
476.81	1076.86
477.18	1077.21
477.54	1074.54
477.90	1076.06
478.26	1074.63
478.62	1078.61
478.98	1080.46
479.34	1082.61
479.71	1079.88
480.07	1080.37
480.43	1079.62
480.79	1079.95
481.15	1080.88
481.51	1080.93
481.87	1084.42
482.23	1082.90
482.59	1081.68
482.96	1082.99
483.32	1086.64
483.68	1083.93
484.04	1085.10
484.40	1085.17
484.76	1081.16
485.12	1080.67
485.48	1077.40
485.84	1075.41
486.20	1075.43
486.56	1076.79
486.92	1073.95
487.28	1076.04
487.64	1076.30
488.00	1079.88
488.37	1079.76
488.73	1080.67
489.09	1079.97
489.45	1083.55
489.81	1081.77
490.17	1081.30
490.53	1082.83
490.89	1084.93
491.25	1079.81
491.61	1081.16
491.97	1079.83
492.33	1076.69
492.69	1075.85
493.05	1080.34
493.41	1079.24
493.77	1081.23
494.13	1082.52
494.49	1081.02
494.85	1078.85
495.21	1077.35
495.57	1073.79
495.93	1074.26
496.29	1075.83
496.64	1079.13
497.00	1078.00
497.36	1081.40
497.72	1082.19
498.08	1083.55
498.44	1081.54
498.80	1083.95
499.16	1085.56
499.52	1086.20
499.88	1085.70
500.24	1087.37
500.60	1086.24
500.96	1083.71
501.32	1086.22
501.68	1084.46
502.03	1079.38
502.39	1079.62
502.75	1076.18
503.11	1069.91
503.47	1069.91
503.83	1074.56
504.19	1072.81
504.55	1078.40
504.91	1080.77
505.26	1080.91
505.62	1079.03
505.98	1080.20
506.34	1081.26
506.70	1082.36
507.06	1084.30
507.42	1084.51
507.78	1084.60
508.13	1082.54
508.49	1081.07
508.85	1079.78
509.21	1078.07
509.57	1082.80
509.93	1079.95
510.28	1083.62
510.64	1085.38
511.00	1088.21
511.36	1088.77
511.72	1091.86
512.07	1087.46
512.43	1084.30
512.79	1081.91
513.15	1078.87
513.51	1077.02
513.86	1077.93
514.22	1077.72
514.58	1079.64
514.94	1078.43
515.30	1078.50
515.65	1077.75
516.01	1079.10
516.37	1077.02
516.73	1078.17
517.08	1080.58
517.44	1081.33
517.80	1082.38
518.16	1083.34
518.51	1081.75
518.87	1080.41
519.23	1080.25
519.59	1079.01
519.94	1081.09
520.30	1081.09
520.66	1080.65
521.01	1082.73
521.37	1082.92
521.73	1084.63
522.09	1085.03
522.44	1085.14
522.80	1083.74
523.16	1086.15
523.51	1081.87
523.87	1082.52
524.23	1081.21
524.58	1082.29
524.94	1078.71
525.30	1082.15
525.65	1082.05
526.01	1084.65
526.37	1084.23
526.72	1085.56
527.08	1083.04
527.44	1083.62
527.79	1082.99
528.15	1084.77
528.51	1085.94
528.86	1087.39
529.22	1086.62
529.58	1088.33
529.93	1083.90
530.29	1083.76
530.65	1082.64
531.00	1084.37
531.36	1083.71
531.71	1089.29
532.07	1089.22
532.43	1089.22
532.78	1087.04
533.14	1086.03
533.49	1081.35
533.85	1082.43
534.21	1081.94
534.56	1082.97
534.92	1082.85
535.27	1084.42
535.63	1084.25
535.98	1083.13
536.34	1081.84
536.69	1079.46
537.05	1076.90
537.41	1077.18
537.76	1079.24
538.12	1080.48
538.47	1084.46
538.83	1086.55
539.18	1087.18
539.54	1086.69
539.89	1088.21
540.25	1087.23
540.60	1089.00
540.96	1088.23
541.31	1088.82
541.67	1089.26
542.02	1088.40
542.38	1088.54
542.73	1087.69
543.09	1089.73
543.44	1088.79
543.80	1091.39
544.15	1089.33
544.51	1090.22
544.86	1090.24
545.22	1090.22
545.57	1091.81
545.93	1095.67
546.28	1098.16
546.64	1096.92
546.99	1097.34
547.35	1093.19
547.70	1088.56
548.05	1084.18
548.41	1082.10
548.76	1080.30
549.12	1081.07
549.47	1080.79
549.83	1081.19
550.18	1078.38
550.53	1080.02
550.89	1079.10
551.24	1082.52
551.60	1084.53
551.95	1090.55
552.30	1088.28
552.66	1091.27
553.01	1089.33
553.37	1087.39
553.72	1082.94
554.07	1084.14
554.43	1082.76
554.78	1082.87
555.13	1081.37
555.49	1082.10
555.84	1081.09
556.19	1079.34
556.55	1079.38
556.90	1082.61
557.26	1085.03
557.61	1086.27
557.96	1089.71
558.32	1089.50
558.67	1083.62
559.02	1082.80
559.37	1082.33
559.73	1079.48
560.08	1080.25
560.43	1085.31
560.79	1084.84
561.14	1084.16
561.49	1083.34
561.85	1082.17
562.20	1079.64
562.55	1078.73
562.90	1076.32
563.26	1079.74
563.61	1079.85
563.96	1082.54
564.32	1082.83
564.67	1086.59
565.02	1081.49
565.37	1079.50
565.73	1078.54
566.08	1078.73
566.43	1081.28
566.78	1084.44
567.14	1087.04
567.49	1088.93
567.84	1088.68
568.19	1083.71
568.54	1084.00
568.90	1082.90
569.25	1077.86
569.60	1079.99
569.95	1081.14
570.31	1081.58
570.66	1080.98
571.01	1081.51
571.36	1077.58
571.71	1079.22
572.06	1077.30
572.42	1077.63
572.77	1081.09
573.12	1084.93
573.47	1083.64
573.82	1085.77
574.18	1086.13
574.53	1082.92
574.88	1083.53
575.23	1083.79
575.58	1081.28
575.93	1080.86
576.28	1083.11
576.64	1083.46
576.99	1083.29
577.34	1081.98
577.69	1081.49
578.04	1081.66
578.39	1079.17
578.74	1079.43
579.09	1079.15
579.44	1081.09
579.80	1080.86
580.15	1080.98
580.50	1078.99
580.85	1080.25
581.20	1076.41
581.55	1078.38
581.90	1079.85
582.25	1081.58
582.60	1083.22
582.95	1084.02
583.30	1083.20
583.65	1082.99
584.00	1082.38
584.35	1082.90
584.71	1083.60
585.06	1084.42
585.41	1084.30
585.76	1084.56
586.11	1083.15
586.46	1087.79
586.81	1085.33
587.16	1084.21
587.51	1080.88
587.86	1081.19
588.21	1078.54
588.56	1078.52
588.91	1080.58
589.26	1083.50
589.61	1085.19
589.96	1084.72
590.31	1085.75
590.66	1083.83
591.01	1085.00
591.36	1082.76
591.71	1082.31
592.06	1081.35
592.41	1082.87
592.76	1082.45
593.10	1081.49
593.45	1082.05
593.80	1083.50
594.15	1082.01
594.50	1083.18
594.85	1083.95
595.20	1085.99
595.55	1081.91
595.90	1078.61
596.25	1077.09
596.60	1075.34
596.95	1073.95
597.30	1075.64
597.64	1133.83
597.99	1135.72
598.34	1140.64
598.69	1140.22
599.04	1141.57
599.39	1087.20
599.74	1086.85
600.09	1085.91
600.44	1087.23
600.78	1086.27
601.13	1086.20
601.48	1084.51
601.83	1084.25
602.18	1084.70
602.53	1087.67
602.88	1088.63
603.22	1089.12
603.57	1087.48
603.92	1087.18
604.27	1084.65
604.62	1081.84
604.97	1080.16
605.31	1078.54
605.66	1080.04
606.01	1084.79
606.36	1086.66
606.71	1087.16
607.05	1091.77
607.40	1088.33
607.75	1085.84
608.10	1088.56
608.44	1091.58
608.79	1092.02
609.14	1092.33
609.49	1090.76
609.84	1089.75
610.18	1092.23
610.53	1093.01
610.88	1097.55
611.23	1101.88
611.57	1100.57
611.92	1099.02
612.27	1097.76
612.62	1094.76
612.96	1089.31
613.31	1090.27
613.66	1089.03
614.00	1089.29
614.35	1089.17
614.70	1087.79
615.05	1086.62
615.39	1088.14
615.74	1085.96
616.09	1086.20
616.43	1089.73
616.78	1091.23
617.13	1089.78
617.47	1088.23
617.82	1087.93
618.17	1086.29
618.51	1083.64
618.86	1083.20
619.21	1083.64
619.55	1082.45
619.90	1079.55
620.25	1077.30
620.59	1077.89
620.94	1079.10
621.29	1079.76
621.63	1081.35
621.98	1083.01
622.32	1081.66
622.67	1083.06
623.02	1084.11
623.36	1084.93
623.71	1085.12
624.05	1085.00
624.40	1082.40
624.75	1081.09
625.09	1084.42
625.44	1085.96
625.78	1085.07
626.13	1084.32
626.48	1083.41
626.82	1080.65
627.17	1078.64
627.51	1079.50
627.86	1082.26
628.20	1083.01
628.55	1083.43
628.89	1084.28
629.24	1083.25
629.58	1081.37
629.93	1082.69
630.28	1082.47
630.62	1084.32
630.97	1084.72
631.31	1083.79
631.66	1081.68
632.00	1080.84
632.35	1076.67
632.69	1077.86
633.04	1081.23
633.38	1079.95
633.73	1078.43
634.07	1083.20
634.42	1082.33
634.76	1081.35
635.11	1085.21
635.45	1089.12
635.79	1088.04
636.14	1084.98
636.48	1081.82
636.83	1080.93
637.17	1081.77
637.52	1083.43
637.86	1086.48
638.21	1089.12
638.55	1087.95
638.89	1085.84
639.24	1085.63
639.58	1084.74
639.93	1081.75
640.27	1079.76
640.61	1076.97
640.96	1076.41
641.30	1078.10
641.65	1076.83
641.99	1080.23
642.33	1083.15
642.68	1081.44
643.02	1079.41
643.37	1085.07
643.71	1081.68
644.05	1080.39
644.40	1080.53
644.74	1081.07
645.08	1077.84
645.43	1079.69
645.77	1079.08
646.11	1077.61
646.46	1076.30
646.80	1076.46
647.14	1078.33
647.49	1081.05
647.83	1079.92
648.17	1081.98
648.52	1081.70
648.86	1081.42
649.20	1084.16
649.55	1085.00
649.89	1084.35
650.23	1085.84
650.57	1083.41
650.92	1077.21
651.26	1079.55
651.60	1079.88
651.95	1076.11
652.29	1075.73
652.63	1075.71
652.97	1073.65
653.32	1071.82
653.66	1077.25
654.00	1078.71
654.34	1080.16
654.69	1079.64
655.03	1082.99
655.37	1078.73
655.71	1079.62
656.05	1080.88
656.40	1082.43
656.74	1080.06
657.08	1080.51
657.42	1079.38
657.76	1080.48
658.11	1080.56
658.45	1082.19
658.79	1083.76
659.13	1086.87
659.47	1086.52
659.82	1088.89
660.16	1091.23
660.50	1089.45
660.84	1087.55
661.18	1086.38
661.52	1086.55
661.87	1082.76
662.21	1083.93
662.55	1081.35
662.89	1080.74
663.23	1077.47
663.57	1078.61
663.91	1080.48
664.25	1080.84
664.60	1081.58
664.94	1081.02
665.28	1080.37
665.62	1078.87
665.96	1076.83
666.30	1076.30
666.64	1077.84
666.98	1077.23
667.32	1074.59
667.66	1077.07
668.01	1078.33
668.35	1079.83
668.69	1080.16
669.03	1079.64
669.37	1079.64
669.71	1082.76
670.05	1081.87
670.39	1081.51
670.73	1085.10
671.07	1082.36
671.41	1075.92
671.75	1077.35
672.09	1078.26
672.43	1079.55
672.77	1083.46
673.11	1085.54
673.45	1081.49
673.79	1078.66
674.13	1079.24
674.47	1081.00
674.81	1079.76
675.15	1080.95
675.49	1082.19
675.83	1079.60
676.17	1075.83
676.51	1077.21
676.85	1076.25
677.19	1080.20
677.53	1078.92
677.87	1082.17
678.21	1080.79
678.55	1084.72
678.89	1080.81
679.23	1085.49
679.57	1084.18
679.90	1086.36
680.24	1082.85
680.58	1085.26
680.92	1082.87
681.26	1083.93
681.60	1084.49
681.94	1083.15
682.28	1082.10
682.62	1082.83
682.96	1080.51
683.29	1081.66
683.63	1083.69
683.97	1084.02
684.31	1081.37
684.65	1084.00
684.99	1081.61
685.33	1081.19
685.67	1084.35
686.00	1086.73
686.34	1084.25
686.68	1083.39
687.02	1086.29
687.36	1081.44
687.70	1083.04
688.03	1084.89
688.37	1084.70
688.71	1083.62
689.05	1084.91
689.39	1084.00
689.72	1082.66
690.06	1086.31
690.40	1083.55
690.74	1082.87
691.08	1080.93
691.41	1079.64
691.75	1077.07
692.09	1077.61
692.43	1076.11
692.76	1078.19
693.10	1079.97
693.44	1080.27
693.78	1080.18
694.11	1083.48
694.45	1081.28
694.79	1082.73
695.13	1081.75
695.46	1082.54
695.80	1080.34
696.14	1079.29
696.48	1078.12
696.81	1079.57
697.15	1077.91
697.49	1081.07
697.82	1083.93
698.16	1081.80
698.50	1082.87
698.83	1085.24
699.17	1082.73
699.51	1079.55
699.84	1082.22
700.18	1078.78
700.52	1079.74
700.85	1080.48
701.19	1083.36
701.53	1081.09
701.86	1081.16
702.20	1080.86
702.54	1080.02
702.87	1078.38
703.21	1079.01
703.55	1079.71
703.88	1080.25
704.22	1079.62
704.55	1080.41
704.89	1080.25
705.23	1080.98
705.56	1079.99
705.90	1078.26
706.23	1077.54
706.57	1077.33
706.91	1079.81
707.24	1079.55
707.58	1081.77
707.91	1081.49
708.25	1081.12
708.58	1079.97
708.92	1077.68
709.26	1075.73
709.59	1078.78
709.93	1077.98
710.26	1075.31
710.60	1077.93
710.93	1079.74
711.27	1076.11
711.60	1078.96
711.94	1082.99
712.27	1081.23
712.61	1079.20
712.94	1081.75
713.28	1079.71
713.61	1076.53
713.95	1077.23
714.28	1082.43
714.62	1081.96
714.95	1083.01
715.29	1083.48
715.62	1085.05
715.96	1082.33
716.29	1081.68
716.63	1080.84
716.96	1078.33
717.29	1075.57
717.63	1077.42
717.96	1077.56
718.30	1078.17
718.63	1077.84
718.97	1079.03
719.30	1079.81
719.63	1079.92
719.97	1081.23
720.30	1084.04
720.64	1086.20
720.97	1084.30
721.30	1085.82
721.64	1086.29
721.97	1089.43
722.31	1090.39
722.64	1089.94
722.97	1089.59
723.31	1086.17
723.64	1081.91
723.97	1080.48
724.31	1081.91
724.64	1081.58
724.98	1084.32
725.31	1085.33
725.64	1085.75
725.98	1084.86
726.31	1084.14
726.64	1079.97
726.97	1078.40
727.31	1076.25
727.64	1075.62
727.97	1076.20
728.31	1076.86
728.64	1079.17
728.97	1079.36
729.31	1079.03
729.64	1074.89
729.97	1079.76
730.30	1079.74
730.64	1080.93
730.97	1080.44
731.30	1083.97
731.63	1081.16
731.97	1079.62
732.30	1079.06
732.63	1077.89
732.96	1077.79
733.30	1081.94
733.63	1082.38
733.96	1082.64
734.29	1083.43
734.63	1083.41
734.96	1078.24
735.29	1077.61
735.62	1077.82
735.95	1081.07
736.29	1080.63
736.62	1080.48
736.95	1080.18
737.28	1080.37
737.61	1077.77
737.94	1076.72
738.28	1079.10
738.61	1080.72
738.94	1080.27
739.27	1079.78
739.60	1081.00
739.93	1078.43
740.27	1078.28
740.60	1079.08
740.93	1079.97
741.26	1078.64
741.59	1079.60
741.92	1080.39
742.25	1082.43
742.58	1083.83
742.91	1087.67
743.25	1087.90
743.58	1088.33
743.91	1086.36
744.24	1083.50
744.57	1079.97
744.90	1080.98
745.23	1076.11
745.56	1075.34
745.89	1076.55
746.22	1078.57
746.55	1079.76
746.88	1082.73
747.21	1079.90
747.54	1080.20
747.87	1081.73
748.20	1077.96
748.53	1079.76
748.87	1084.23
749.20	1084.16
749.53	1083.97
749.86	1087.83
750.19	1088.28
750.52	1086.48
750.85	1089.03
751.18	1088.72
751.51	1089.19
751.84	1089.14
752.16	1087.13
752.49	1086.73
752.82	1084.72
753.15	1082.38
753.48	1080.67
753.81	1083.18
754.14	1081.61
754.47	1079.10
754.80	1077.98
755.13	1078.28
755.46	1074.73
755.79	1073.58
756.12	1079.88
756.45	1081.21
756.78	1080.37
757.11	1082.97
757.43	1084.49
757.76	1081.68
758.09	1081.96
758.42	1082.15
758.75	1082.43
759.08	1080.46
759.41	1078.40
759.74	1077.44
760.07	1075.43
760.39	1074.98
760.72	1077.33
761.05	1079.13
761.38	1078.45
761.71	1083.15
762.04	1086.41
762.36	1083.67
762.69	1083.36
763.02	1086.64
763.35	1083.64
763.68	1080.44
764.01	1081.77
764.33	1083.11
764.66	1083.43
764.99	1085.10
765.32	1084.23
765.65	1085.73
765.97	1083.39
766.30	1080.77
