SpectraSuite Data File
++++++++++++++++++++++++++++++++++++
Date: Mon Aug 26 10:26:03 PDT 2019
User: corrico
Dark Spectrum Present: No
Reference Spectrum Present: No
Number of Sampled Component Spectra: 1
Spectrometers: USB2+H06089
Integration Time (usec): 10000 (USB2+H06089)
Spectra Averaged: 20 (USB2+H06089)
Boxcar Smoothing: 2 (USB2+H06089)
Correct for Electrical Dark: No (USB2+H06089)
Strobe/Lamp Enabled: No (USB2+H06089)
Correct for Detector Non-linearity: No (USB2+H06089)
Correct for Stray Light: No (USB2+H06089)
Number of Pixels in Processed Spectrum: 2048
>>>>>Begin Processed Spectral Data<<<<<
339.70	1024.22
340.07	1024.22
340.45	990.37
340.82	971.39
341.19	947.96
341.57	922.19
341.94	915.90
342.31	908.41
342.69	902.49
343.06	900.80
343.43	902.96
343.81	901.50
344.18	904.27
344.55	908.83
344.93	913.63
345.30	916.32
345.67	922.41
346.04	930.41
346.42	937.95
346.79	946.21
347.16	954.92
347.54	966.66
347.91	973.85
348.28	984.17
348.65	992.74
349.03	1002.22
349.40	1009.15
349.77	1018.79
350.14	1026.28
350.52	1032.43
350.89	1043.20
351.26	1048.58
351.63	1050.17
352.01	1052.70
352.38	1056.56
352.75	1058.46
353.12	1060.01
353.50	1065.15
353.87	1066.61
354.24	1067.92
354.61	1072.48
354.98	1076.72
355.36	1079.27
355.73	1080.93
356.10	1084.63
356.47	1082.08
356.84	1081.56
357.22	1080.06
357.59	1079.60
357.96	1077.98
358.33	1080.53
358.70	1078.71
359.08	1077.37
359.45	1078.66
359.82	1077.75
360.19	1075.22
360.56	1074.54
360.94	1072.46
361.31	1072.18
361.68	1076.95
362.05	1073.42
362.42	1073.30
362.79	1075.97
363.16	1075.13
363.54	1072.06
363.91	1074.33
364.28	1073.02
364.65	1071.87
365.02	1069.91
365.39	1067.54
365.76	1066.16
366.14	1067.24
366.51	1070.54
366.88	1071.45
367.25	1073.67
367.62	1072.01
367.99	1073.25
368.36	1068.99
368.73	1069.72
369.10	1066.75
369.48	1070.09
369.85	1069.81
370.22	1069.60
370.59	1069.25
370.96	1072.48
371.33	1071.54
371.70	1070.07
372.07	1070.56
372.44	1070.30
372.81	1067.94
373.18	1067.78
373.55	1070.94
373.93	1070.09
374.30	1065.95
374.67	1064.19
375.04	1062.88
375.41	1061.22
375.78	1064.03
376.15	1068.85
376.52	1072.53
376.89	1073.93
377.26	1072.15
377.63	1068.43
378.00	1069.84
378.37	1071.12
378.74	1071.22
379.11	1071.52
379.48	1074.73
379.85	1072.92
380.22	1070.91
380.59	1071.36
380.96	1073.81
381.33	1072.60
381.70	1075.03
382.07	1073.70
382.44	1068.41
382.81	1064.85
383.18	1067.14
383.55	1064.26
383.92	1064.29
384.29	1068.97
384.66	1068.85
385.03	1067.14
385.40	1068.36
385.77	1068.74
386.14	1067.68
386.51	1069.06
386.88	1069.25
387.25	1063.96
387.62	1064.01
387.99	1064.24
388.36	1065.48
388.73	1066.07
389.10	1070.33
389.46	1071.29
389.83	1074.24
390.20	1076.60
390.57	1078.82
390.94	1078.57
391.31	1079.69
391.68	1078.73
392.05	1077.30
392.42	1076.01
392.79	1075.87
393.16	1075.59
393.53	1075.69
393.89	1075.20
394.26	1075.38
394.63	1075.17
395.00	1075.62
395.37	1074.73
395.74	1076.46
396.11	1074.10
396.48	1074.49
396.84	1073.58
397.21	1070.51
397.58	1068.71
397.95	1067.49
398.32	1069.16
398.69	1070.68
399.06	1074.75
399.42	1074.21
399.79	1079.31
400.16	1079.36
400.53	1076.74
400.90	1075.45
401.27	1074.26
401.64	1071.45
402.00	1068.27
402.37	1067.61
402.74	1066.35
403.11	1069.91
403.48	1073.14
403.84	1077.16
404.21	1076.13
404.58	1077.84
404.95	1078.10
405.32	1075.38
405.68	1073.42
406.05	1075.15
406.42	1075.41
406.79	1072.60
407.16	1073.67
407.52	1071.66
407.89	1071.38
408.26	1070.54
408.63	1072.95
408.99	1066.35
409.36	1068.45
409.73	1070.63
410.10	1070.77
410.47	1068.01
410.83	1072.97
411.20	1073.65
411.57	1072.41
411.94	1071.71
412.30	1072.43
412.67	1074.77
413.04	1072.08
413.40	1070.51
413.77	1071.03
414.14	1071.59
414.51	1070.33
414.87	1075.78
415.24	1076.72
415.61	1078.21
415.97	1077.89
416.34	1077.16
416.71	1072.83
417.08	1070.51
417.44	1071.90
417.81	1073.30
418.18	1073.74
418.54	1075.64
418.91	1077.28
419.28	1074.24
419.64	1072.85
420.01	1069.60
420.38	1067.24
420.74	1066.11
421.11	1065.74
421.48	1067.66
421.84	1070.98
422.21	1071.99
422.58	1073.65
422.94	1074.31
423.31	1072.57
423.68	1073.09
424.04	1074.68
424.41	1077.44
424.77	1077.58
425.14	1078.87
425.51	1079.38
425.87	1079.71
426.24	1079.64
426.61	1080.53
426.97	1081.00
427.34	1077.89
427.70	1073.95
428.07	1071.36
428.44	1071.19
428.80	1068.57
429.17	1069.84
429.53	1070.94
429.90	1073.77
430.27	1074.75
430.63	1076.48
431.00	1078.26
431.36	1082.22
431.73	1078.47
432.09	1077.70
432.46	1076.76
432.83	1075.31
433.19	1073.28
433.56	1076.76
433.92	1077.86
434.29	1079.99
434.65	1080.72
435.02	1082.52
435.38	1083.81
435.75	1083.60
436.11	1082.10
436.48	1081.98
436.84	1082.54
437.21	1077.51
437.57	1075.59
437.94	1073.67
438.30	1069.91
438.67	1070.89
439.03	1072.90
439.40	1072.29
439.76	1071.10
440.13	1076.30
440.49	1073.74
440.86	1075.78
441.22	1078.89
441.59	1081.98
441.95	1081.19
442.32	1079.76
442.68	1079.81
443.05	1080.02
443.41	1080.98
443.78	1080.44
444.14	1080.72
444.51	1079.50
444.87	1076.93
445.24	1077.77
445.60	1077.93
445.96	1081.94
446.33	1082.15
446.69	1081.96
447.06	1081.54
447.42	1081.73
447.79	1078.64
448.15	1076.51
448.51	1078.36
448.88	1078.31
449.24	1079.64
449.61	1078.03
449.97	1079.15
450.33	1076.06
450.70	1074.91
451.06	1074.77
451.43	1074.05
451.79	1074.35
452.15	1075.29
452.52	1077.04
452.88	1072.46
453.24	1074.40
453.61	1073.74
453.97	1075.41
454.34	1075.57
454.70	1080.81
455.06	1080.67
455.43	1079.46
455.79	1077.63
456.15	1079.88
456.52	1080.70
456.88	1079.95
457.24	1081.14
457.61	1081.30
457.97	1078.36
458.33	1076.15
458.70	1080.04
459.06	1081.63
459.42	1082.45
459.79	1081.58
460.15	1080.88
460.51	1079.38
460.88	1080.53
461.24	1079.36
461.60	1077.72
461.96	1080.37
462.33	1082.43
462.69	1082.87
463.05	1086.73
463.42	1088.98
463.78	1086.50
464.14	1084.25
464.50	1084.07
464.87	1083.67
465.23	1083.15
465.59	1080.02
465.95	1077.00
466.32	1076.27
466.68	1074.35
467.04	1072.76
467.40	1078.38
467.77	1078.38
468.13	1079.13
468.49	1078.99
468.85	1081.56
469.22	1078.96
469.58	1082.26
469.94	1078.99
470.30	1079.57
470.66	1077.63
471.03	1080.30
471.39	1077.84
471.75	1079.17
472.11	1079.92
472.47	1082.08
472.84	1080.67
473.20	1081.66
473.56	1081.33
473.92	1079.62
474.28	1075.41
474.65	1076.51
475.01	1078.36
475.37	1079.78
475.73	1079.76
476.09	1084.21
476.45	1082.73
476.81	1079.62
477.18	1078.78
477.54	1079.88
477.90	1080.65
478.26	1079.83
478.62	1083.36
478.98	1085.91
479.34	1087.83
479.71	1085.26
480.07	1084.49
480.43	1083.11
480.79	1081.23
481.15	1080.06
481.51	1082.50
481.87	1085.10
482.23	1084.00
482.59	1085.10
482.96	1082.12
483.32	1081.49
483.68	1080.44
484.04	1079.46
484.40	1078.28
484.76	1082.17
485.12	1082.66
485.48	1082.15
485.84	1085.00
486.20	1084.09
486.56	1081.68
486.92	1079.10
487.28	1078.87
487.64	1081.35
488.00	1082.40
488.37	1081.77
488.73	1081.00
489.09	1080.74
489.45	1073.98
489.81	1070.72
490.17	1069.04
490.53	1068.52
490.89	1068.76
491.25	1071.52
491.61	1072.01
491.97	1076.20
492.33	1077.82
492.69	1077.93
493.05	1082.12
493.41	1087.76
493.77	1085.94
494.13	1089.59
494.49	1090.97
494.85	1089.64
495.21	1089.10
495.57	1092.14
495.93	1090.32
496.29	1088.63
496.64	1087.23
497.00	1086.34
497.36	1084.70
497.72	1082.10
498.08	1083.22
498.44	1081.40
498.80	1080.60
499.16	1078.24
499.52	1079.90
499.88	1080.53
500.24	1081.51
500.60	1080.13
500.96	1084.37
501.32	1085.54
501.68	1084.37
502.03	1083.32
502.39	1083.62
502.75	1079.36
503.11	1078.73
503.47	1078.21
503.83	1077.70
504.19	1077.79
504.55	1077.72
504.91	1078.33
505.26	1080.93
505.62	1082.17
505.98	1083.76
506.34	1086.80
506.70	1086.34
507.06	1086.15
507.42	1088.42
507.78	1087.34
508.13	1087.79
508.49	1088.56
508.85	1088.77
509.21	1088.19
509.57	1089.24
509.93	1088.63
510.28	1090.08
510.64	1087.76
511.00	1089.54
511.36	1091.16
511.72	1089.92
512.07	1087.72
512.43	1088.23
512.79	1087.48
513.15	1087.02
513.51	1087.95
513.86	1087.86
514.22	1087.13
514.58	1086.31
514.94	1086.06
515.30	1087.95
515.65	1089.61
516.01	1092.66
516.37	1094.69
516.73	1093.66
517.08	1091.18
517.44	1093.24
517.80	1092.02
518.16	1090.43
518.51	1093.26
518.87	1094.86
519.23	1092.54
519.59	1091.70
519.94	1089.43
520.30	1089.26
520.66	1087.74
521.01	1087.60
521.37	1092.70
521.73	1097.34
522.09	1093.50
522.44	1096.00
522.80	1098.86
523.16	1099.28
523.51	1097.27
523.87	1099.65
524.23	1099.02
524.58	1096.45
524.94	1094.29
525.30	1096.17
525.65	1096.80
526.01	1097.17
526.37	1098.58
526.72	1096.56
527.08	1095.37
527.44	1097.59
527.79	1096.19
528.15	1095.30
528.51	1094.53
528.86	1093.66
529.22	1091.49
529.58	1094.34
529.93	1091.84
530.29	1090.50
530.65	1091.56
531.00	1092.94
531.36	1091.37
531.71	1099.47
532.07	1103.45
532.43	1106.00
532.78	1106.49
533.14	1107.45
533.49	1105.62
533.85	1105.95
534.21	1102.42
534.56	1096.80
534.92	1098.11
535.27	1095.72
535.63	1095.09
535.98	1092.00
536.34	1091.91
536.69	1091.39
537.05	1089.36
537.41	1088.77
537.76	1091.23
538.12	1092.52
538.47	1090.95
538.83	1092.56
539.18	1092.98
539.54	1095.63
539.89	1099.89
540.25	1099.28
540.60	1099.70
540.96	1098.46
541.31	1095.53
541.67	1091.86
542.02	1093.66
542.38	1093.64
542.73	1095.72
543.09	1100.33
543.44	1103.02
543.80	1102.32
544.15	1103.80
544.51	1104.43
544.86	1103.00
545.22	1103.07
545.57	1105.11
545.93	1103.19
546.28	1100.38
546.64	1101.78
546.99	1100.73
547.35	1099.91
547.70	1098.60
548.05	1098.02
548.41	1093.50
548.76	1093.03
549.12	1091.67
549.47	1089.33
549.83	1090.67
550.18	1088.02
550.53	1084.86
550.89	1082.45
551.24	1081.14
551.60	1077.79
551.95	1079.99
552.30	1084.60
552.66	1084.86
553.01	1091.27
553.37	1092.66
553.72	1091.88
554.07	1087.74
554.43	1088.09
554.78	1083.48
555.13	1084.35
555.49	1082.24
555.84	1083.11
556.19	1081.09
556.55	1082.90
556.90	1081.80
557.26	1085.10
557.61	1086.48
557.96	1088.58
558.32	1085.49
558.67	1086.36
559.02	1086.36
559.37	1083.97
559.73	1082.71
560.08	1086.01
560.43	1086.06
560.79	1084.67
561.14	1084.74
561.49	1087.11
561.85	1087.27
562.20	1088.33
562.55	1089.26
562.90	1090.15
563.26	1093.85
563.61	1090.08
563.96	1087.09
564.32	1087.55
564.67	1085.38
565.02	1078.73
565.37	1077.89
565.73	1078.19
566.08	1076.97
566.43	1081.26
566.78	1081.68
567.14	1084.30
567.49	1086.17
567.84	1084.89
568.19	1082.69
568.54	1083.86
568.90	1084.00
569.25	1081.14
569.60	1081.96
569.95	1081.54
570.31	1081.19
570.66	1082.33
571.01	1083.88
571.36	1084.93
571.71	1083.71
572.06	1081.09
572.42	1079.15
572.77	1079.48
573.12	1079.55
573.47	1080.56
573.82	1083.76
574.18	1083.25
574.53	1081.26
574.88	1080.84
575.23	1080.06
575.58	1081.42
575.93	1083.62
576.28	1082.71
576.64	1082.26
576.99	1082.71
577.34	1080.67
577.69	1079.67
578.04	1081.61
578.39	1081.77
578.74	1082.57
579.09	1082.90
579.44	1082.29
579.80	1082.83
580.15	1082.45
580.50	1084.56
580.85	1083.39
581.20	1084.63
581.55	1084.04
581.90	1084.77
582.25	1081.23
582.60	1081.09
582.95	1082.24
583.30	1084.79
583.65	1084.30
584.00	1085.24
584.35	1086.29
584.71	1086.90
585.06	1081.82
585.41	1079.71
585.76	1082.22
586.11	1082.36
586.46	1080.13
586.81	1084.49
587.16	1088.82
587.51	1087.02
587.86	1087.74
588.21	1090.22
588.56	1087.79
588.91	1086.80
589.26	1087.72
589.61	1087.23
589.96	1085.12
590.31	1085.33
590.66	1084.58
591.01	1085.45
591.36	1086.64
591.71	1087.44
592.06	1087.25
592.41	1086.36
592.76	1086.34
593.10	1085.26
593.45	1080.65
593.80	1082.50
594.15	1086.38
594.50	1088.12
594.85	1085.42
595.20	1088.02
595.55	1087.95
595.90	1085.31
596.25	1083.20
596.60	1083.95
596.95	1083.36
597.30	1084.53
597.64	1135.23
597.99	1134.64
598.34	1137.08
598.69	1139.44
599.04	1137.29
599.39	1086.92
599.74	1086.06
600.09	1085.07
600.44	1083.11
600.78	1083.32
601.13	1082.43
601.48	1081.30
601.83	1080.41
602.18	1084.04
602.53	1088.09
602.88	1091.02
603.22	1089.73
603.57	1090.24
603.92	1086.69
604.27	1080.16
604.62	1076.01
604.97	1076.53
605.31	1076.23
605.66	1077.93
606.01	1080.41
606.36	1080.02
606.71	1083.67
607.05	1083.46
607.40	1082.71
607.75	1080.98
608.10	1082.80
608.44	1081.35
608.79	1082.17
609.14	1085.52
609.49	1088.04
609.84	1089.71
610.18	1095.60
610.53	1102.72
610.88	1106.98
611.23	1112.18
611.57	1113.35
611.92	1108.10
612.27	1102.74
612.62	1096.31
612.96	1089.50
613.31	1089.92
613.66	1088.75
614.00	1089.78
614.35	1088.07
614.70	1089.33
615.05	1087.88
615.39	1087.90
615.74	1084.42
616.09	1085.12
616.43	1083.41
616.78	1079.81
617.13	1081.68
617.47	1081.87
617.82	1080.20
618.17	1083.64
618.51	1084.44
618.86	1083.55
619.21	1083.46
619.55	1084.00
619.90	1083.62
620.25	1084.21
620.59	1083.32
620.94	1083.13
621.29	1082.69
621.63	1082.05
621.98	1083.06
622.32	1082.15
622.67	1079.95
623.02	1081.14
623.36	1082.24
623.71	1083.93
624.05	1082.15
624.40	1085.31
624.75	1086.64
625.09	1082.59
625.44	1079.57
625.78	1081.47
626.13	1080.39
626.48	1080.39
626.82	1084.18
627.17	1081.89
627.51	1082.71
627.86	1081.91
628.20	1079.15
628.55	1077.35
628.89	1080.32
629.24	1080.79
629.58	1084.72
629.93	1084.07
630.28	1085.10
630.62	1085.03
630.97	1080.60
631.31	1080.09
631.66	1083.04
632.00	1083.18
632.35	1079.81
632.69	1082.29
633.04	1080.56
633.38	1079.43
633.73	1076.88
634.07	1082.64
634.42	1085.70
634.76	1087.06
635.11	1086.29
635.45	1088.51
635.79	1085.68
636.14	1085.73
636.48	1084.89
636.83	1082.83
637.17	1080.48
637.52	1077.70
637.86	1077.25
638.21	1077.91
638.55	1079.34
638.89	1081.12
639.24	1083.55
639.58	1077.33
639.93	1076.53
640.27	1078.12
640.61	1079.01
640.96	1078.14
641.30	1083.27
641.65	1083.48
641.99	1085.14
642.33	1083.06
642.68	1083.43
643.02	1081.91
643.37	1079.78
643.71	1077.07
644.05	1078.14
644.40	1079.46
644.74	1079.34
645.08	1078.73
645.43	1082.78
645.77	1083.67
646.11	1082.19
646.46	1082.73
646.80	1085.10
647.14	1082.12
647.49	1081.70
647.83	1082.08
648.17	1080.72
648.52	1082.50
648.86	1084.63
649.20	1088.35
649.55	1088.07
649.89	1089.57
650.23	1088.61
650.57	1085.42
650.92	1081.63
651.26	1079.17
651.60	1079.50
651.95	1080.09
652.29	1082.97
652.63	1080.86
652.97	1082.05
653.32	1084.07
653.66	1079.81
654.00	1079.55
654.34	1082.57
654.69	1082.64
655.03	1079.62
655.37	1082.15
655.71	1081.42
656.05	1079.24
656.40	1082.36
656.74	1085.75
657.08	1088.00
657.42	1087.62
657.76	1086.29
658.11	1085.70
658.45	1083.18
658.79	1080.95
659.13	1079.76
659.47	1084.09
659.82	1084.00
660.16	1083.43
660.50	1082.15
660.84	1084.46
661.18	1081.73
661.52	1082.38
661.87	1084.42
662.21	1085.63
662.55	1086.92
662.89	1085.89
663.23	1086.36
663.57	1087.41
663.91	1085.96
664.25	1084.91
664.60	1083.79
664.94	1083.76
665.28	1082.05
665.62	1084.11
665.96	1081.56
666.30	1083.83
666.64	1084.02
666.98	1080.23
667.32	1077.56
667.66	1080.48
668.01	1081.19
668.35	1077.35
668.69	1080.93
669.03	1083.67
669.37	1083.64
669.71	1086.06
670.05	1090.57
670.39	1092.56
670.73	1091.70
671.07	1090.99
671.41	1090.17
671.75	1087.11
672.09	1084.07
672.43	1086.10
672.77	1085.59
673.11	1082.12
673.45	1081.96
673.79	1082.66
674.13	1080.13
674.47	1078.61
674.81	1082.19
675.15	1084.63
675.49	1086.59
675.83	1086.50
676.17	1087.34
676.51	1085.40
676.85	1084.23
677.19	1084.42
677.53	1085.26
677.87	1084.30
678.21	1086.55
678.55	1084.18
678.89	1081.40
679.23	1080.27
679.57	1079.88
679.90	1077.77
680.24	1079.60
680.58	1080.02
680.92	1077.23
681.26	1077.89
681.60	1078.96
681.94	1076.23
682.28	1074.73
682.62	1078.82
682.96	1078.40
683.29	1074.80
683.63	1075.36
683.97	1077.09
684.31	1076.15
684.65	1076.93
684.99	1081.07
685.33	1083.67
685.67	1083.27
686.00	1087.30
686.34	1086.83
686.68	1085.12
687.02	1085.77
687.36	1085.87
687.70	1082.73
688.03	1083.50
688.37	1083.06
688.71	1080.56
689.05	1078.14
689.39	1077.02
689.72	1077.65
690.06	1077.04
690.40	1075.59
690.74	1077.79
691.08	1077.44
691.41	1076.46
691.75	1076.88
692.09	1077.44
692.43	1078.64
692.76	1080.20
693.10	1082.76
693.44	1084.70
693.78	1087.53
694.11	1088.79
694.45	1088.19
694.79	1083.29
695.13	1081.94
695.46	1083.01
695.80	1077.91
696.14	1077.02
696.48	1080.09
696.81	1082.52
697.15	1082.71
697.49	1086.22
697.82	1089.50
698.16	1087.83
698.50	1080.06
698.83	1076.79
699.17	1073.56
699.51	1071.31
699.84	1071.05
700.18	1078.78
700.52	1080.51
700.85	1085.75
701.19	1087.23
701.53	1088.00
701.86	1082.97
702.20	1083.20
702.54	1077.58
702.87	1077.00
703.21	1076.93
703.55	1080.02
703.88	1079.92
704.22	1081.89
704.55	1081.98
704.89	1083.71
705.23	1080.86
705.56	1080.77
705.90	1079.60
706.23	1078.10
706.57	1076.95
706.91	1081.89
707.24	1084.72
707.58	1084.74
707.91	1087.32
708.25	1090.78
708.58	1084.79
708.92	1085.07
709.26	1085.89
709.59	1085.94
709.93	1082.64
710.26	1086.15
710.60	1084.39
710.93	1084.21
711.27	1081.21
711.60	1083.08
711.94	1085.52
712.27	1084.93
712.61	1087.51
712.94	1090.41
713.28	1087.79
713.61	1085.42
713.95	1087.20
714.28	1087.81
714.62	1082.94
714.95	1084.37
715.29	1084.09
715.62	1080.63
715.96	1082.52
716.29	1085.31
716.63	1085.80
716.96	1083.76
717.29	1083.36
717.63	1077.58
717.96	1077.79
718.30	1075.20
718.63	1077.93
718.97	1081.82
719.30	1085.19
719.63	1086.24
719.97	1088.42
720.30	1089.66
720.64	1087.58
720.97	1086.55
721.30	1087.69
721.64	1084.81
721.97	1082.92
722.31	1082.66
722.64	1082.78
722.97	1083.25
723.31	1083.93
723.64	1082.17
723.97	1080.39
724.31	1081.47
724.64	1079.48
724.98	1080.25
725.31	1079.01
725.64	1080.91
725.98	1078.85
726.31	1075.99
726.64	1076.34
726.97	1077.70
727.31	1078.00
727.64	1077.79
727.97	1079.29
728.31	1079.38
728.64	1083.62
728.97	1082.85
729.31	1083.50
729.64	1081.80
729.97	1081.37
730.30	1080.44
730.64	1082.05
730.97	1082.38
731.30	1085.38
731.63	1086.31
731.97	1082.80
732.30	1081.07
732.63	1079.01
732.96	1077.72
733.30	1077.56
733.63	1080.60
733.96	1081.00
734.29	1084.51
734.63	1086.01
734.96	1085.63
735.29	1084.58
735.62	1083.95
735.95	1082.78
736.29	1082.15
736.62	1079.46
736.95	1078.61
737.28	1078.80
737.61	1078.61
737.94	1077.11
738.28	1077.79
738.61	1080.25
738.94	1081.66
739.27	1084.60
739.60	1085.91
739.93	1085.99
740.27	1082.92
740.60	1081.35
740.93	1076.20
741.26	1074.05
741.59	1074.80
741.92	1073.02
742.25	1074.40
742.58	1077.16
742.91	1079.34
743.25	1078.78
743.58	1080.20
743.91	1079.57
744.24	1077.98
744.57	1075.48
744.90	1076.67
745.23	1076.08
745.56	1076.88
745.89	1077.61
746.22	1077.25
746.55	1075.20
746.88	1073.70
747.21	1073.09
747.54	1075.78
747.87	1080.11
748.20	1084.37
748.53	1087.18
748.87	1087.04
749.20	1084.89
749.53	1084.37
749.86	1085.73
750.19	1085.66
750.52	1085.91
750.85	1086.17
751.18	1083.64
751.51	1078.59
751.84	1082.73
752.16	1083.01
752.49	1079.78
752.82	1083.06
753.15	1083.43
753.48	1080.79
753.81	1078.36
754.14	1081.47
754.47	1079.43
754.80	1080.65
755.13	1078.00
755.46	1077.25
755.79	1077.40
756.12	1080.09
756.45	1081.33
756.78	1082.94
757.11	1085.28
757.43	1085.12
757.76	1081.07
758.09	1079.34
758.42	1082.17
758.75	1083.67
759.08	1085.45
759.41	1086.69
759.74	1087.93
760.07	1082.08
760.39	1081.35
760.72	1079.88
761.05	1080.70
761.38	1080.88
761.71	1084.37
762.04	1083.50
762.36	1079.90
762.69	1080.86
763.02	1080.88
763.35	1080.11
763.68	1081.02
764.01	1082.45
764.33	1081.87
764.66	1081.23
764.99	1082.40
765.32	1081.49
765.65	1083.88
765.97	1083.18
766.30	1082.50
