SpectraSuite Data File
++++++++++++++++++++++++++++++++++++
Date: Mon Aug 26 10:26:08 PDT 2019
User: corrico
Dark Spectrum Present: No
Reference Spectrum Present: No
Number of Sampled Component Spectra: 1
Spectrometers: USB2+H06089
Integration Time (usec): 10000 (USB2+H06089)
Spectra Averaged: 20 (USB2+H06089)
Boxcar Smoothing: 2 (USB2+H06089)
Correct for Electrical Dark: No (USB2+H06089)
Strobe/Lamp Enabled: No (USB2+H06089)
Correct for Detector Non-linearity: No (USB2+H06089)
Correct for Stray Light: No (USB2+H06089)
Number of Pixels in Processed Spectrum: 2048
>>>>>Begin Processed Spectral Data<<<<<
339.70	1031.24
340.07	1031.24
340.45	996.20
340.82	975.72
341.19	952.13
341.57	925.85
341.94	917.61
342.31	909.37
342.69	902.74
343.06	900.22
343.43	901.01
343.81	898.53
344.18	899.47
344.55	903.42
344.93	908.03
345.30	913.77
345.67	924.70
346.04	931.51
346.42	938.44
346.79	945.06
347.16	954.75
347.54	963.13
347.91	975.02
348.28	985.39
348.65	994.61
349.03	1001.47
349.40	1006.45
349.77	1013.15
350.14	1019.51
350.52	1027.12
350.89	1030.28
351.26	1034.00
351.63	1041.98
352.01	1048.49
352.38	1055.70
352.75	1064.22
353.12	1068.64
353.50	1070.77
353.87	1072.60
354.24	1071.15
354.61	1072.74
354.98	1077.56
355.36	1079.43
355.73	1081.16
356.10	1086.20
356.47	1086.99
356.84	1085.70
357.22	1085.42
357.59	1085.17
357.96	1081.16
358.33	1081.63
358.70	1083.60
359.08	1083.53
359.45	1082.24
359.82	1082.59
360.19	1081.07
360.56	1078.03
360.94	1074.61
361.31	1077.28
361.68	1076.30
362.05	1073.32
362.42	1072.57
362.79	1075.90
363.16	1072.64
363.54	1073.09
363.91	1075.87
364.28	1076.08
364.65	1070.26
365.02	1068.69
365.39	1068.31
365.76	1069.46
366.14	1067.07
366.51	1070.35
366.88	1070.40
367.25	1067.61
367.62	1065.58
367.99	1067.92
368.36	1067.49
368.73	1067.35
369.10	1068.24
369.48	1069.27
369.85	1066.21
370.22	1066.49
370.59	1067.52
370.96	1069.23
371.33	1067.61
371.70	1070.96
372.07	1069.46
372.44	1070.33
372.81	1069.79
373.18	1068.88
373.55	1069.06
373.93	1070.87
374.30	1067.10
374.67	1068.08
375.04	1068.88
375.41	1068.13
375.78	1069.48
376.15	1072.22
376.52	1069.27
376.89	1066.96
377.26	1067.45
377.63	1062.98
378.00	1063.96
378.37	1066.21
378.74	1070.56
379.11	1070.42
379.48	1073.93
379.85	1074.49
380.22	1075.50
380.59	1072.78
380.96	1072.55
381.33	1071.73
381.70	1073.07
382.07	1074.94
382.44	1076.97
382.81	1077.72
383.18	1079.27
383.55	1074.54
383.92	1074.05
384.29	1073.74
384.66	1074.98
385.03	1073.84
385.40	1074.24
385.77	1071.82
386.14	1071.54
386.51	1070.82
386.88	1071.64
387.25	1074.91
387.62	1074.33
387.99	1073.14
388.36	1074.68
388.73	1074.77
389.10	1075.03
389.46	1077.56
389.83	1077.47
390.20	1075.85
390.57	1076.25
390.94	1074.59
391.31	1069.51
391.68	1070.00
392.05	1066.82
392.42	1065.93
392.79	1067.45
393.16	1069.53
393.53	1072.67
393.89	1075.57
394.26	1072.41
394.63	1070.49
395.00	1070.98
395.37	1069.23
395.74	1065.69
396.11	1066.18
396.48	1067.80
396.84	1069.86
397.21	1070.58
397.58	1076.60
397.95	1079.36
398.32	1078.75
398.69	1077.84
399.06	1078.38
399.42	1075.97
399.79	1077.23
400.16	1076.69
400.53	1081.66
400.90	1081.73
401.27	1080.70
401.64	1077.02
402.00	1079.27
402.37	1075.17
402.74	1072.76
403.11	1074.52
403.48	1079.13
403.84	1075.73
404.21	1075.76
404.58	1075.01
404.95	1072.76
405.32	1068.64
405.68	1072.15
406.05	1072.88
406.42	1073.74
406.79	1074.19
407.16	1078.26
407.52	1077.21
407.89	1076.39
408.26	1078.47
408.63	1077.93
408.99	1075.59
409.36	1071.99
409.73	1071.08
410.10	1067.73
410.47	1069.62
410.83	1068.29
411.20	1068.99
411.57	1068.62
411.94	1071.29
412.30	1073.46
412.67	1075.03
413.04	1077.00
413.40	1076.23
413.77	1074.84
414.14	1071.10
414.51	1071.97
414.87	1074.03
415.24	1075.78
415.61	1073.58
415.97	1074.45
416.34	1074.28
416.71	1073.77
417.08	1073.58
417.44	1076.44
417.81	1074.19
418.18	1072.88
418.54	1071.45
418.91	1071.50
419.28	1073.30
419.64	1078.03
420.01	1079.60
420.38	1081.51
420.74	1079.95
421.11	1075.29
421.48	1072.27
421.84	1070.33
422.21	1069.74
422.58	1075.05
422.94	1079.03
423.31	1081.07
423.68	1084.46
424.04	1082.80
424.41	1081.54
424.77	1082.45
425.14	1079.17
425.51	1077.30
425.87	1077.54
426.24	1075.64
426.61	1073.56
426.97	1079.29
427.34	1077.56
427.70	1081.21
428.07	1081.19
428.44	1079.67
428.80	1077.79
429.17	1082.40
429.53	1077.02
429.90	1074.54
430.27	1074.10
430.63	1072.25
431.00	1070.84
431.36	1072.01
431.73	1074.21
432.09	1079.36
432.46	1080.74
432.83	1077.98
433.19	1082.05
433.56	1082.33
433.92	1078.96
434.29	1075.92
434.65	1075.97
435.02	1071.29
435.38	1072.97
435.75	1071.22
436.11	1074.00
436.48	1077.14
436.84	1081.00
437.21	1078.75
437.57	1082.66
437.94	1083.32
438.30	1080.06
438.67	1079.38
439.03	1081.44
439.40	1078.19
439.76	1074.70
440.13	1074.68
440.49	1072.43
440.86	1069.95
441.22	1072.88
441.59	1071.52
441.95	1075.76
442.32	1076.18
442.68	1077.14
443.05	1075.10
443.41	1079.13
443.78	1078.68
444.14	1077.70
444.51	1078.10
444.87	1077.63
445.24	1077.11
445.60	1076.04
445.96	1080.04
446.33	1082.47
446.69	1084.28
447.06	1087.62
447.42	1086.90
447.79	1082.29
448.15	1080.39
448.51	1079.67
448.88	1077.42
449.24	1078.96
449.61	1080.56
449.97	1079.27
450.33	1080.18
450.70	1081.47
451.06	1080.04
451.43	1077.70
451.79	1079.27
452.15	1080.93
452.52	1080.77
452.88	1079.13
453.24	1083.64
453.61	1084.09
453.97	1080.84
454.34	1082.10
454.70	1083.88
455.06	1081.58
455.43	1078.73
455.79	1080.91
456.15	1074.82
456.52	1072.76
456.88	1072.95
457.24	1074.96
457.61	1073.28
457.97	1075.29
458.33	1075.34
458.70	1075.20
459.06	1074.05
459.42	1074.91
459.79	1076.53
460.15	1077.54
460.51	1078.99
460.88	1080.60
461.24	1082.31
461.60	1081.89
461.96	1083.29
462.33	1082.45
462.69	1081.56
463.05	1080.48
463.42	1079.90
463.78	1081.58
464.14	1083.76
464.50	1079.90
464.87	1076.72
465.23	1077.56
465.59	1076.79
465.95	1076.81
466.32	1084.30
466.68	1089.22
467.04	1088.12
467.40	1085.52
467.77	1082.52
468.13	1078.19
468.49	1076.44
468.85	1075.41
469.22	1077.44
469.58	1075.52
469.94	1075.99
470.30	1076.62
470.66	1076.51
471.03	1076.41
471.39	1078.78
471.75	1079.01
472.11	1077.49
472.47	1081.77
472.84	1077.98
473.20	1076.67
473.56	1077.44
473.92	1079.60
474.28	1074.94
474.65	1080.72
475.01	1083.93
475.37	1084.35
475.73	1081.63
476.09	1086.80
476.45	1085.14
476.81	1085.38
477.18	1087.27
477.54	1088.37
477.90	1085.40
478.26	1080.81
478.62	1079.10
478.98	1073.98
479.34	1073.70
479.71	1076.74
480.07	1081.58
480.43	1083.53
480.79	1086.17
481.15	1084.81
481.51	1085.10
481.87	1083.62
482.23	1084.30
482.59	1084.30
482.96	1084.44
483.32	1080.84
483.68	1083.79
484.04	1083.01
484.40	1083.36
484.76	1084.16
485.12	1087.32
485.48	1087.53
485.84	1088.77
486.20	1089.92
486.56	1090.85
486.92	1090.81
487.28	1090.15
487.64	1091.42
488.00	1091.18
488.37	1091.98
488.73	1092.87
489.09	1092.28
489.45	1092.30
489.81	1092.16
490.17	1095.65
490.53	1095.23
490.89	1098.98
491.25	1096.75
491.61	1099.68
491.97	1098.48
492.33	1101.95
492.69	1101.76
493.05	1105.53
493.41	1104.05
493.77	1105.13
494.13	1106.02
494.49	1106.32
494.85	1107.89
495.21	1110.02
495.57	1112.11
495.93	1110.75
496.29	1110.05
496.64	1108.74
497.00	1108.69
497.36	1110.98
497.72	1112.57
498.08	1116.72
498.44	1118.19
498.80	1118.94
499.16	1118.82
499.52	1118.21
499.88	1118.87
500.24	1121.61
500.60	1126.45
500.96	1127.55
501.32	1131.20
501.68	1133.80
502.03	1139.49
502.39	1141.55
502.75	1145.79
503.11	1150.98
503.47	1154.40
503.83	1157.47
504.19	1160.81
504.55	1166.87
504.91	1171.51
505.26	1177.27
505.62	1178.13
505.98	1182.58
506.34	1182.93
506.70	1185.79
507.06	1186.60
507.42	1192.34
507.78	1198.78
508.13	1208.42
508.49	1214.11
508.85	1220.71
509.21	1227.70
509.57	1234.75
509.93	1239.81
510.28	1243.46
510.64	1253.99
511.00	1263.19
511.36	1267.77
511.72	1276.48
512.07	1290.24
512.43	1296.21
512.79	1302.58
513.15	1315.66
513.51	1323.06
513.86	1336.33
514.22	1348.05
514.58	1359.08
514.94	1368.16
515.30	1381.78
515.65	1388.90
516.01	1402.33
516.37	1414.34
516.73	1423.05
517.08	1430.93
517.44	1440.44
517.80	1445.07
518.16	1455.35
518.51	1465.06
518.87	1474.58
519.23	1484.70
519.59	1494.60
519.94	1498.25
520.30	1508.12
520.66	1515.82
521.01	1521.02
521.37	1529.73
521.73	1537.97
522.09	1543.84
522.44	1551.28
522.80	1554.96
523.16	1564.69
523.51	1573.05
523.87	1583.96
524.23	1588.45
524.58	1597.13
524.94	1598.31
525.30	1604.11
525.65	1601.49
526.01	1602.00
526.37	1604.41
526.72	1607.46
527.08	1604.27
527.44	1600.36
527.79	1601.72
528.15	1597.09
528.51	1586.93
528.86	1581.78
529.22	1580.28
529.58	1573.96
529.93	1564.30
530.29	1556.11
530.65	1548.85
531.00	1540.07
531.36	1534.15
531.71	1532.72
532.07	1531.51
532.43	1523.34
532.78	1519.76
533.14	1509.36
533.49	1501.27
533.85	1495.06
534.21	1493.85
534.56	1489.24
534.92	1486.99
535.27	1478.40
535.63	1474.49
535.98	1464.68
536.34	1456.23
536.69	1446.03
537.05	1441.84
537.41	1435.33
537.76	1428.01
538.12	1423.82
538.47	1422.02
538.83	1415.28
539.18	1407.41
539.54	1403.01
539.89	1395.68
540.25	1389.53
540.60	1385.01
540.96	1379.84
541.31	1375.30
541.67	1370.88
542.02	1365.00
542.38	1361.28
542.73	1354.82
543.09	1351.12
543.44	1343.91
543.80	1335.46
544.15	1328.23
544.51	1324.65
544.86	1319.99
545.22	1317.35
545.57	1318.40
545.93	1315.57
546.28	1309.37
546.64	1306.18
546.99	1302.34
547.35	1291.44
547.70	1285.98
548.05	1278.70
548.41	1271.12
548.76	1266.53
549.12	1264.61
549.47	1260.40
549.83	1258.62
550.18	1253.47
550.53	1248.75
550.89	1246.48
551.24	1243.20
551.60	1241.72
551.95	1241.02
552.30	1238.19
552.66	1232.25
553.01	1228.22
553.37	1225.11
553.72	1221.15
554.07	1219.19
554.43	1219.35
554.78	1218.83
555.13	1211.65
555.49	1212.51
555.84	1209.45
556.19	1207.86
556.55	1200.51
556.90	1199.20
557.26	1193.21
557.61	1188.97
557.96	1184.78
558.32	1185.74
558.67	1181.36
559.02	1176.87
559.37	1171.34
559.73	1166.20
560.08	1162.87
560.43	1163.76
560.79	1162.08
561.14	1162.01
561.49	1158.92
561.85	1157.84
562.20	1155.19
562.55	1153.70
562.90	1152.95
563.26	1155.22
563.61	1153.86
563.96	1155.34
564.32	1155.94
564.67	1153.16
565.02	1147.89
565.37	1142.28
565.73	1138.46
566.08	1135.79
566.43	1132.68
566.78	1130.67
567.14	1132.47
567.49	1134.81
567.84	1134.76
568.19	1135.09
568.54	1135.44
568.90	1131.79
569.25	1129.54
569.60	1127.34
569.95	1125.35
570.31	1124.56
570.66	1125.68
571.01	1121.30
571.36	1120.55
571.71	1120.51
572.06	1120.60
572.42	1118.24
572.77	1118.66
573.12	1117.42
573.47	1115.52
573.82	1115.48
574.18	1114.98
574.53	1114.45
574.88	1113.35
575.23	1113.91
575.58	1114.52
575.93	1115.85
576.28	1115.17
576.64	1115.69
576.99	1112.95
577.34	1112.08
577.69	1111.73
578.04	1109.32
578.39	1105.81
578.74	1107.03
579.09	1106.86
579.44	1105.76
579.80	1105.93
580.15	1104.76
580.50	1104.08
580.85	1103.33
581.20	1100.78
581.55	1099.70
581.90	1100.24
582.25	1100.29
582.60	1094.86
582.95	1095.75
583.30	1092.98
583.65	1091.30
584.00	1089.38
584.35	1090.88
584.71	1091.37
585.06	1093.43
585.41	1094.88
585.76	1096.54
586.11	1097.90
586.46	1097.71
586.81	1096.17
587.16	1095.00
587.51	1092.40
587.86	1088.89
588.21	1087.18
588.56	1087.27
588.91	1088.02
589.26	1088.33
589.61	1092.02
589.96	1093.64
590.31	1093.50
590.66	1090.83
591.01	1093.31
591.36	1090.90
591.71	1088.89
592.06	1092.59
592.41	1093.45
592.76	1091.44
593.10	1090.67
593.45	1090.67
593.80	1087.55
594.15	1088.82
594.50	1090.41
594.85	1091.88
595.20	1091.74
595.55	1094.43
595.90	1099.00
596.25	1096.49
596.60	1096.99
596.95	1096.66
597.30	1094.22
597.64	1140.22
597.99	1141.48
598.34	1140.54
598.69	1139.09
599.04	1137.01
599.39	1081.94
599.74	1080.81
600.09	1079.74
600.44	1082.78
600.78	1085.17
601.13	1088.63
601.48	1088.28
601.83	1089.96
602.18	1088.16
602.53	1087.58
602.88	1088.14
603.22	1086.71
603.57	1083.55
603.92	1082.03
604.27	1077.77
604.62	1077.44
604.97	1079.99
605.31	1080.70
605.66	1083.95
606.01	1086.52
606.36	1087.13
606.71	1086.41
607.05	1086.85
607.40	1083.18
607.75	1085.21
608.10	1084.25
608.44	1082.29
608.79	1083.86
609.14	1088.19
609.49	1086.85
609.84	1086.71
610.18	1086.38
610.53	1085.07
610.88	1080.37
611.23	1080.93
611.57	1081.61
611.92	1084.09
612.27	1083.46
612.62	1084.67
612.96	1081.66
613.31	1078.43
613.66	1075.52
614.00	1073.39
614.35	1074.56
614.70	1075.38
615.05	1076.88
615.39	1077.21
615.74	1082.52
616.09	1080.58
616.43	1083.06
616.78	1084.37
617.13	1087.13
617.47	1085.54
617.82	1088.33
618.17	1085.91
618.51	1084.37
618.86	1080.37
619.21	1078.47
619.55	1076.04
619.90	1078.59
620.25	1078.73
620.59	1081.14
620.94	1082.40
621.29	1081.02
621.63	1083.25
621.98	1084.30
622.32	1082.03
622.67	1083.46
623.02	1085.40
623.36	1082.38
623.71	1078.26
624.05	1080.84
624.40	1077.11
624.75	1078.00
625.09	1077.93
625.44	1080.93
625.78	1082.61
626.13	1085.96
626.48	1084.67
626.82	1084.96
627.17	1086.83
627.51	1086.85
627.86	1086.36
628.20	1087.58
628.55	1084.81
628.89	1082.80
629.24	1082.03
629.58	1077.72
629.93	1076.51
630.28	1080.46
630.62	1081.07
630.97	1082.10
631.31	1084.07
631.66	1084.60
632.00	1084.11
632.35	1084.35
632.69	1081.82
633.04	1083.53
633.38	1087.02
633.73	1084.63
634.07	1084.09
634.42	1086.38
634.76	1085.91
635.11	1080.98
635.45	1082.83
635.79	1084.04
636.14	1082.76
636.48	1082.19
636.83	1085.24
637.17	1084.81
637.52	1085.84
637.86	1084.77
638.21	1082.61
638.55	1079.22
638.89	1076.39
639.24	1075.80
639.58	1075.71
639.93	1076.65
640.27	1079.38
640.61	1084.74
640.96	1082.50
641.30	1082.94
641.65	1082.87
641.99	1079.10
642.33	1072.88
642.68	1074.59
643.02	1073.65
643.37	1076.93
643.71	1079.50
644.05	1084.14
644.40	1083.81
644.74	1087.16
645.08	1085.40
645.43	1081.94
645.77	1079.81
646.11	1079.34
646.46	1077.72
646.80	1078.73
647.14	1082.52
647.49	1083.81
647.83	1084.42
648.17	1083.86
648.52	1082.78
648.86	1080.70
649.20	1081.00
649.55	1079.74
649.89	1079.90
650.23	1077.58
650.57	1077.02
650.92	1075.76
651.26	1075.69
651.60	1075.31
651.95	1079.06
652.29	1080.27
652.63	1081.96
652.97	1082.45
653.32	1084.67
653.66	1084.14
654.00	1084.91
654.34	1082.61
654.69	1082.31
655.03	1082.31
655.37	1083.83
655.71	1084.96
656.05	1085.31
656.40	1086.15
656.74	1083.39
657.08	1079.69
657.42	1080.74
657.76	1081.35
658.11	1079.57
658.45	1079.90
658.79	1083.25
659.13	1082.19
659.47	1079.69
659.82	1079.97
660.16	1079.15
660.50	1073.49
660.84	1071.01
661.18	1074.28
661.52	1074.52
661.87	1078.92
662.21	1081.51
662.55	1084.58
662.89	1084.51
663.23	1086.01
663.57	1083.90
663.91	1084.60
664.25	1085.91
664.60	1086.03
664.94	1087.55
665.28	1086.48
665.62	1083.29
665.96	1082.52
666.30	1082.24
666.64	1079.41
666.98	1079.60
667.32	1085.28
667.66	1083.29
668.01	1081.37
668.35	1081.30
668.69	1082.54
669.03	1079.74
669.37	1081.30
669.71	1083.04
670.05	1084.14
670.39	1084.84
670.73	1087.74
671.07	1088.65
671.41	1090.13
671.75	1090.48
672.09	1091.04
672.43	1089.14
672.77	1082.50
673.11	1082.94
673.45	1080.23
673.79	1079.85
674.13	1081.61
674.47	1086.57
674.81	1082.31
675.15	1085.24
675.49	1081.91
675.83	1080.60
676.17	1074.84
676.51	1076.15
676.85	1078.26
677.19	1080.32
677.53	1081.05
677.87	1086.66
678.21	1089.33
678.55	1088.12
678.89	1085.52
679.23	1081.47
679.57	1079.67
679.90	1077.42
680.24	1075.22
680.58	1075.27
680.92	1078.52
681.26	1080.60
681.60	1079.81
681.94	1082.69
682.28	1085.47
682.62	1084.67
682.96	1083.71
683.29	1084.04
683.63	1081.07
683.97	1079.46
684.31	1076.18
684.65	1076.79
684.99	1076.86
685.33	1076.34
685.67	1078.78
686.00	1085.61
686.34	1083.36
686.68	1084.74
687.02	1086.22
687.36	1084.53
687.70	1081.47
688.03	1082.24
688.37	1082.57
688.71	1081.98
689.05	1083.48
689.39	1085.28
689.72	1085.66
690.06	1084.37
690.40	1083.08
690.74	1083.06
691.08	1079.97
691.41	1079.01
691.75	1080.25
692.09	1081.12
692.43	1078.92
692.76	1081.12
693.10	1081.42
693.44	1081.42
693.78	1082.87
694.11	1083.57
694.45	1080.56
694.79	1082.03
695.13	1077.14
695.46	1077.44
695.80	1080.04
696.14	1081.56
696.48	1078.85
696.81	1081.68
697.15	1079.76
697.49	1075.78
697.82	1075.99
698.16	1076.74
698.50	1078.78
698.83	1074.33
699.17	1075.92
699.51	1075.83
699.84	1077.84
700.18	1077.58
700.52	1084.44
700.85	1083.11
701.19	1084.28
701.53	1083.88
701.86	1082.15
702.20	1077.35
702.54	1079.67
702.87	1078.57
703.21	1075.45
703.55	1072.97
703.88	1076.79
704.22	1075.73
704.55	1075.34
704.89	1076.20
705.23	1079.22
705.56	1081.80
705.90	1079.92
706.23	1081.42
706.57	1082.59
706.91	1083.71
707.24	1079.24
707.58	1079.97
707.91	1076.18
708.25	1075.17
708.58	1073.93
708.92	1076.15
709.26	1075.15
709.59	1078.80
709.93	1081.37
710.26	1080.51
710.60	1078.64
710.93	1081.68
711.27	1080.58
711.60	1079.22
711.94	1080.25
712.27	1081.14
712.61	1081.63
712.94	1083.08
713.28	1086.08
713.61	1083.60
713.95	1083.48
714.28	1081.87
714.62	1080.04
714.95	1076.13
715.29	1078.17
715.62	1076.01
715.96	1074.98
716.29	1073.91
716.63	1073.56
716.96	1073.60
717.29	1076.37
717.63	1075.85
717.96	1077.70
718.30	1081.96
718.63	1082.31
718.97	1083.55
719.30	1085.70
719.63	1085.68
719.97	1080.51
720.30	1080.37
720.64	1081.12
720.97	1078.59
721.30	1078.07
721.64	1084.32
721.97	1083.55
722.31	1077.21
722.64	1078.71
722.97	1079.48
723.31	1073.84
723.64	1077.14
723.97	1080.13
724.31	1080.41
724.64	1079.53
724.98	1082.50
725.31	1079.50
725.64	1079.60
725.98	1078.61
726.31	1080.27
726.64	1079.95
726.97	1080.41
727.31	1084.28
727.64	1085.80
727.97	1082.87
728.31	1083.64
728.64	1081.47
728.97	1079.03
729.31	1080.09
729.64	1080.02
729.97	1078.94
730.30	1080.16
730.64	1080.18
730.97	1079.78
731.30	1080.81
731.63	1079.08
731.97	1081.42
732.30	1079.57
732.63	1080.20
732.96	1080.06
733.30	1083.67
733.63	1085.07
733.96	1087.27
734.29	1089.03
734.63	1086.27
734.96	1084.00
735.29	1079.57
735.62	1077.40
735.95	1073.23
736.29	1077.21
736.62	1077.93
736.95	1080.48
737.28	1082.22
737.61	1082.59
737.94	1083.39
738.28	1082.61
738.61	1078.31
738.94	1077.49
739.27	1080.67
739.60	1082.50
739.93	1082.19
740.27	1084.30
740.60	1084.39
740.93	1080.93
741.26	1077.84
741.59	1076.60
741.92	1078.19
742.25	1078.47
742.58	1078.05
742.91	1077.93
743.25	1080.04
743.58	1079.36
743.91	1079.46
744.24	1077.84
744.57	1076.58
744.90	1079.88
745.23	1082.29
745.56	1083.27
745.89	1086.29
746.22	1089.43
746.55	1086.01
746.88	1085.38
747.21	1084.56
747.54	1083.01
747.87	1080.79
748.20	1081.91
748.53	1082.57
748.87	1084.60
749.20	1086.97
749.53	1088.75
749.86	1087.90
750.19	1084.84
750.52	1081.42
750.85	1081.75
751.18	1079.10
751.51	1078.59
751.84	1080.34
752.16	1079.22
752.49	1076.58
752.82	1078.54
753.15	1080.18
753.48	1081.51
753.81	1084.39
754.14	1084.89
754.47	1087.04
754.80	1087.09
755.13	1086.43
755.46	1083.93
755.79	1082.45
756.12	1081.96
756.45	1079.71
756.78	1080.23
757.11	1083.34
757.43	1088.04
757.76	1086.20
758.09	1087.09
758.42	1085.99
758.75	1083.25
759.08	1079.97
759.41	1077.68
759.74	1077.47
760.07	1079.85
760.39	1081.47
760.72	1082.69
761.05	1089.89
761.38	1093.24
761.71	1090.13
762.04	1086.83
762.36	1086.15
762.69	1082.24
763.02	1079.36
763.35	1078.05
763.68	1080.81
764.01	1083.43
764.33	1078.31
764.66	1077.82
764.99	1076.55
765.32	1075.99
765.65	1070.75
765.97	1073.04
766.30	1072.97
