SpectraSuite Data File
++++++++++++++++++++++++++++++++++++
Date: Mon Aug 26 10:26:14 PDT 2019
User: corrico
Dark Spectrum Present: No
Reference Spectrum Present: No
Number of Sampled Component Spectra: 1
Spectrometers: USB2+H06089
Integration Time (usec): 10000 (USB2+H06089)
Spectra Averaged: 20 (USB2+H06089)
Boxcar Smoothing: 2 (USB2+H06089)
Correct for Electrical Dark: No (USB2+H06089)
Strobe/Lamp Enabled: No (USB2+H06089)
Correct for Detector Non-linearity: No (USB2+H06089)
Correct for Stray Light: No (USB2+H06089)
Number of Pixels in Processed Spectrum: 2048
>>>>>Begin Processed Spectral Data<<<<<
339.70	1032.41
340.07	1032.41
340.45	1002.24
340.82	980.43
341.19	955.48
341.57	932.89
341.94	919.92
342.31	913.91
342.69	910.52
343.06	907.64
343.43	904.48
343.81	906.79
344.18	904.85
344.55	908.06
344.93	914.82
345.30	918.85
345.67	926.62
346.04	937.55
346.42	944.59
346.79	949.60
347.16	959.95
347.54	965.54
347.91	971.35
348.28	981.15
348.65	994.45
349.03	1004.79
349.40	1016.59
349.77	1025.34
350.14	1033.39
350.52	1041.16
350.89	1046.92
351.26	1052.12
351.63	1056.94
352.01	1063.98
352.38	1065.32
352.75	1069.11
353.12	1075.69
353.50	1081.63
353.87	1081.40
354.24	1087.74
354.61	1090.41
354.98	1088.37
355.36	1087.37
355.73	1090.17
356.10	1090.78
356.47	1091.72
356.84	1091.67
357.22	1096.80
357.59	1095.46
357.96	1095.18
358.33	1095.65
358.70	1096.31
359.08	1091.93
359.45	1091.46
359.82	1090.64
360.19	1090.10
360.56	1088.07
360.94	1088.33
361.31	1091.74
361.68	1088.42
362.05	1086.92
362.42	1087.72
362.79	1087.32
363.16	1083.74
363.54	1083.43
363.91	1081.40
364.28	1083.18
364.65	1080.46
365.02	1080.81
365.39	1078.38
365.76	1078.33
366.14	1078.45
366.51	1081.35
366.88	1081.35
367.25	1084.63
367.62	1082.43
367.99	1081.73
368.36	1080.41
368.73	1079.69
369.10	1078.12
369.48	1083.01
369.85	1081.84
370.22	1082.29
370.59	1083.27
370.96	1086.66
371.33	1083.93
371.70	1084.09
372.07	1081.51
372.44	1078.99
372.81	1078.66
373.18	1082.38
373.55	1081.23
373.93	1084.23
374.30	1084.84
374.67	1081.19
375.04	1080.67
375.41	1082.10
375.78	1081.23
376.15	1082.05
376.52	1087.02
376.89	1083.69
377.26	1085.66
377.63	1083.53
378.00	1083.69
378.37	1081.44
378.74	1083.76
379.11	1078.61
379.48	1081.82
379.85	1079.29
380.22	1083.79
380.59	1083.74
380.96	1086.43
381.33	1084.72
381.70	1088.51
382.07	1085.12
382.44	1087.04
382.81	1088.23
383.18	1090.85
383.55	1090.50
383.92	1090.36
384.29	1088.75
384.66	1086.24
385.03	1089.12
385.40	1088.63
385.77	1091.11
386.14	1089.24
386.51	1091.16
386.88	1085.91
387.25	1085.63
387.62	1084.74
387.99	1086.64
388.36	1086.31
388.73	1087.60
389.10	1089.24
389.46	1084.04
389.83	1084.77
390.20	1086.94
390.57	1088.23
390.94	1084.56
391.31	1088.35
391.68	1087.27
392.05	1085.70
392.42	1083.27
392.79	1087.11
393.16	1086.85
393.53	1087.90
393.89	1090.50
394.26	1091.95
394.63	1091.81
395.00	1092.47
395.37	1094.04
395.74	1093.08
396.11	1093.69
396.48	1093.50
396.84	1091.95
397.21	1090.29
397.58	1087.30
397.95	1087.81
398.32	1089.66
398.69	1095.02
399.06	1096.31
399.42	1098.95
399.79	1097.20
400.16	1093.64
400.53	1092.49
400.90	1090.74
401.27	1089.43
401.64	1090.88
402.00	1092.68
402.37	1090.32
402.74	1094.83
403.11	1093.55
403.48	1094.60
403.84	1096.80
404.21	1095.58
404.58	1092.98
404.95	1095.65
405.32	1096.87
405.68	1098.58
406.05	1101.41
406.42	1101.15
406.79	1101.99
407.16	1101.48
407.52	1100.80
407.89	1098.51
408.26	1100.71
408.63	1100.71
408.99	1101.11
409.36	1098.81
409.73	1101.71
410.10	1100.61
410.47	1104.45
410.83	1103.82
411.20	1103.42
411.57	1102.65
411.94	1101.18
412.30	1100.10
412.67	1103.68
413.04	1104.45
413.40	1109.48
413.77	1110.26
414.14	1110.28
414.51	1105.83
414.87	1108.01
415.24	1107.49
415.61	1110.12
415.97	1109.41
416.34	1112.39
416.71	1112.46
417.08	1111.99
417.44	1111.78
417.81	1110.49
418.18	1110.02
418.54	1109.95
418.91	1106.79
419.28	1106.35
419.64	1108.85
420.01	1110.07
420.38	1112.39
420.74	1117.35
421.11	1119.48
421.48	1122.12
421.84	1122.05
422.21	1119.17
422.58	1116.90
422.94	1114.12
423.31	1115.12
423.68	1114.77
424.04	1116.93
424.41	1116.58
424.77	1120.11
425.14	1118.42
425.51	1117.54
425.87	1118.92
426.24	1119.78
426.61	1117.35
426.97	1120.11
427.34	1121.12
427.70	1121.84
428.07	1120.55
428.44	1121.02
428.80	1118.10
429.17	1120.11
429.53	1118.45
429.90	1121.00
430.27	1122.10
430.63	1122.31
431.00	1123.48
431.36	1122.24
431.73	1120.72
432.09	1122.01
432.46	1121.54
432.83	1118.82
433.19	1122.17
433.56	1123.29
433.92	1121.14
434.29	1121.70
434.65	1120.18
435.02	1121.05
435.38	1120.95
435.75	1122.99
436.11	1119.88
436.48	1125.19
436.84	1125.28
437.21	1125.35
437.57	1126.38
437.94	1126.78
438.30	1123.97
438.67	1119.62
439.03	1119.24
439.40	1119.78
439.76	1121.87
440.13	1120.51
440.49	1121.02
440.86	1120.55
441.22	1118.73
441.59	1117.49
441.95	1114.61
442.32	1116.69
442.68	1117.40
443.05	1118.96
443.41	1118.19
443.78	1119.17
444.14	1117.28
444.51	1114.68
444.87	1112.88
445.24	1112.71
445.60	1115.76
445.96	1114.87
446.33	1118.07
446.69	1118.07
447.06	1118.66
447.42	1120.55
447.79	1120.51
448.15	1116.20
448.51	1117.30
448.88	1118.89
449.24	1116.41
449.61	1118.68
449.97	1121.23
450.33	1119.60
450.70	1119.13
451.06	1117.40
451.43	1116.25
451.79	1117.91
452.15	1120.95
452.52	1122.29
452.88	1126.45
453.24	1126.64
453.61	1125.03
453.97	1120.72
454.34	1118.47
454.70	1118.50
455.06	1116.69
455.43	1115.62
455.79	1119.83
456.15	1122.73
456.52	1119.38
456.88	1123.95
457.24	1127.74
457.61	1125.52
457.97	1125.96
458.33	1128.79
458.70	1125.98
459.06	1122.68
459.42	1125.84
459.79	1124.84
460.15	1125.17
460.51	1126.69
460.88	1128.11
461.24	1129.45
461.60	1128.47
461.96	1131.88
462.33	1133.10
462.69	1134.50
463.05	1131.41
463.42	1133.54
463.78	1130.36
464.14	1130.20
464.50	1131.18
464.87	1132.68
465.23	1135.07
465.59	1136.07
465.95	1137.78
466.32	1137.38
466.68	1138.53
467.04	1138.76
467.40	1140.31
467.77	1141.01
468.13	1145.72
468.49	1147.35
468.85	1146.35
469.22	1148.90
469.58	1150.82
469.94	1151.99
470.30	1153.93
470.66	1158.92
471.03	1159.85
471.39	1166.05
471.75	1168.70
472.11	1173.92
472.47	1176.28
472.84	1177.85
473.20	1176.66
473.56	1182.11
473.92	1184.40
474.28	1190.70
474.65	1194.49
475.01	1201.12
475.37	1203.08
475.73	1210.03
476.09	1211.13
476.45	1220.71
476.81	1223.89
477.18	1230.98
477.54	1237.32
477.90	1249.42
478.26	1254.81
478.62	1267.24
478.98	1274.61
479.34	1284.67
479.71	1292.75
480.07	1309.88
480.43	1322.15
480.79	1337.59
481.15	1349.74
481.51	1365.94
481.87	1381.83
482.23	1394.12
482.59	1410.69
482.96	1430.18
483.32	1449.75
483.68	1461.62
484.04	1484.20
484.40	1507.63
484.76	1531.88
485.12	1557.35
485.48	1588.50
485.84	1619.51
486.20	1647.62
486.56	1677.51
486.92	1711.14
487.28	1744.31
487.64	1778.22
488.00	1814.24
488.37	1851.71
488.73	1887.48
489.09	1931.36
489.45	1979.06
489.81	2031.37
490.17	2084.34
490.53	2141.10
490.89	2193.62
491.25	2248.48
491.61	2310.06
491.97	2376.18
492.33	2444.29
492.69	2517.29
493.05	2599.63
493.41	2682.07
493.77	2762.09
494.13	2853.63
494.49	2948.21
494.85	3047.49
495.21	3149.31
495.57	3268.32
495.93	3386.45
496.29	3510.24
496.64	3640.35
497.00	3768.57
497.36	3896.22
497.72	4034.94
498.08	4196.25
498.44	4367.86
498.80	4549.53
499.16	4748.83
499.52	4944.17
499.88	5144.73
500.24	5345.53
500.60	5556.78
500.96	5770.68
501.32	5987.75
501.68	6211.29
502.03	6453.89
502.39	6724.52
502.75	7013.35
503.11	7352.89
503.47	7691.70
503.83	8047.91
504.19	8394.94
504.55	8769.40
504.91	9122.59
505.26	9487.15
505.62	9897.28
505.98	10349.73
506.34	10795.60
506.70	11283.79
507.06	11846.27
507.42	12393.11
507.78	12960.51
508.13	13597.83
508.49	14253.58
508.85	14898.21
509.21	15585.79
509.57	16307.94
509.93	17005.16
510.28	17700.65
510.64	18503.15
511.00	19282.78
511.36	20085.66
511.72	20964.86
512.07	21942.24
512.43	22866.43
512.79	23883.83
513.15	24938.01
513.51	25904.09
513.86	26859.73
514.22	27936.52
514.58	29049.07
514.94	30116.96
515.30	31312.76
515.65	32607.24
516.01	33778.38
516.37	34926.53
516.73	36113.44
517.08	37185.42
517.44	38119.30
517.80	39149.20
518.16	40123.80
518.51	41126.70
518.87	42206.90
519.23	43369.78
519.59	44469.43
519.94	45591.18
520.30	46688.28
520.66	47571.81
521.01	48381.80
521.37	49224.02
521.73	49908.18
522.09	50490.67
522.44	51232.20
522.80	51831.35
523.16	52192.17
523.51	52494.61
523.87	52841.41
524.23	53179.19
524.58	53410.18
524.94	53715.08
525.30	54020.99
525.65	54157.35
526.01	54157.19
526.37	54351.83
526.72	54531.84
527.08	54629.20
527.44	54594.89
527.79	54535.70
528.15	54321.10
528.51	54050.32
528.86	53828.04
529.22	53524.59
529.58	53093.39
529.93	52659.60
530.29	52060.42
530.65	51447.43
531.00	50990.93
531.36	50389.14
531.71	49742.61
532.07	49181.47
532.43	48375.20
532.78	47445.40
533.14	46768.58
533.49	46035.18
533.85	45329.74
534.21	44834.72
534.56	44412.65
534.92	43736.33
535.27	43008.00
535.63	42166.18
535.98	41268.30
536.34	40292.63
536.69	39433.70
537.05	38660.38
537.41	37965.57
537.76	37293.93
538.12	36530.50
538.47	35805.37
538.83	35177.06
539.18	34491.63
539.54	33764.94
539.89	33243.71
540.25	32788.28
540.60	32207.41
540.96	31514.19
541.31	30911.50
541.67	30412.99
542.02	29848.36
542.38	29324.20
542.73	28836.31
543.09	28267.05
543.44	27584.83
543.80	26965.78
544.15	26357.40
544.51	25919.26
544.86	25508.96
545.22	25142.13
545.57	24680.74
545.93	24159.20
546.28	23631.76
546.64	23173.13
546.99	22696.13
547.35	22278.69
547.70	21872.84
548.05	21413.33
548.41	20964.32
548.76	20436.67
549.12	19941.18
549.47	19511.97
549.83	19150.87
550.18	18755.63
550.53	18389.94
550.89	17991.89
551.24	17570.31
551.60	17164.39
551.95	16766.61
552.30	16432.32
552.66	16137.50
553.01	15849.99
553.37	15523.72
553.72	15203.84
554.07	14867.90
554.43	14525.95
554.78	14200.47
555.13	13885.46
555.49	13509.90
555.84	13169.35
556.19	12837.30
556.55	12476.32
556.90	12130.88
557.26	11910.49
557.61	11674.22
557.96	11405.48
558.32	11177.35
558.67	10928.15
559.02	10632.49
559.37	10359.54
559.73	10151.14
560.08	9929.40
560.43	9718.00
560.79	9508.85
561.14	9285.91
561.49	9046.19
561.85	8831.96
562.20	8646.06
562.55	8489.24
562.90	8312.67
563.26	8144.74
563.61	7982.00
563.96	7776.52
564.32	7552.00
564.67	7353.24
565.02	7193.40
565.37	7047.17
565.73	6901.26
566.08	6759.21
566.43	6617.47
566.78	6447.61
567.14	6277.08
567.49	6146.43
567.84	6010.33
568.19	5882.87
568.54	5776.65
568.90	5671.84
569.25	5574.24
569.60	5481.70
569.95	5405.19
570.31	5302.25
570.66	5205.05
571.01	5099.09
571.36	4998.57
571.71	4894.20
572.06	4803.67
572.42	4704.31
572.77	4600.32
573.12	4515.64
573.47	4429.60
573.82	4355.85
574.18	4289.36
574.53	4225.25
574.88	4154.85
575.23	4077.35
575.58	3997.00
575.93	3913.38
576.28	3835.04
576.64	3761.03
576.99	3689.78
577.34	3615.21
577.69	3544.41
578.04	3469.40
578.39	3396.19
578.74	3328.27
579.09	3264.46
579.44	3200.64
579.80	3140.11
580.15	3083.05
580.50	3026.99
580.85	2973.81
581.20	2924.29
581.55	2880.47
581.90	2835.56
582.25	2792.26
582.60	2746.92
582.95	2707.06
583.30	2667.77
583.65	2629.94
584.00	2587.98
584.35	2548.09
584.71	2506.18
585.06	2465.45
585.41	2427.49
585.76	2397.13
586.11	2361.93
586.46	2329.86
586.81	2290.80
587.16	2257.94
587.51	2227.70
587.86	2209.84
588.21	2185.78
588.56	2168.37
588.91	2143.60
589.26	2119.64
589.61	2088.39
589.96	2061.36
590.31	2031.82
590.66	2006.87
591.01	1982.36
591.36	1960.25
591.71	1932.91
592.06	1910.02
592.41	1885.18
592.76	1866.25
593.10	1845.49
593.45	1825.85
593.80	1810.59
594.15	1796.50
594.50	1783.77
594.85	1770.45
595.20	1760.81
595.55	1748.10
595.90	1731.95
596.25	1713.04
596.60	1693.45
596.95	1677.60
597.30	1662.41
597.64	1700.33
597.99	1688.32
598.34	1677.37
598.69	1664.89
599.04	1649.33
599.39	1582.79
599.74	1565.28
600.09	1553.65
600.44	1542.44
600.78	1532.79
601.13	1533.50
601.48	1528.16
601.83	1519.57
602.18	1507.52
602.53	1496.23
602.88	1477.23
603.22	1465.46
603.57	1453.52
603.92	1446.08
604.27	1440.97
604.62	1434.98
604.97	1425.69
605.31	1422.55
605.66	1417.22
606.01	1409.89
606.36	1400.51
606.71	1394.42
607.05	1384.82
607.40	1374.55
607.75	1364.09
608.10	1358.52
608.44	1352.43
608.79	1346.84
609.14	1341.64
609.49	1338.48
609.84	1329.63
610.18	1324.44
610.53	1318.28
610.88	1313.46
611.23	1308.92
611.57	1308.73
611.92	1304.36
612.27	1297.78
612.62	1291.91
612.96	1286.19
613.31	1281.77
613.66	1274.42
614.00	1270.54
614.35	1267.63
614.70	1265.48
615.05	1263.42
615.39	1261.06
615.74	1258.65
616.09	1254.53
616.43	1248.16
616.78	1244.16
617.13	1240.84
617.47	1237.65
617.82	1235.24
618.17	1228.45
618.51	1220.92
618.86	1218.65
619.21	1216.14
619.55	1209.68
619.90	1207.97
620.25	1205.59
620.59	1201.89
620.94	1198.73
621.29	1199.22
621.63	1200.53
621.98	1199.95
622.32	1197.44
622.67	1193.72
623.02	1188.06
623.36	1184.12
623.71	1178.86
624.05	1174.88
624.40	1175.23
624.75	1175.81
625.09	1176.73
625.44	1177.31
625.78	1177.73
626.13	1174.27
626.48	1173.45
626.82	1171.32
627.17	1168.86
627.51	1165.75
627.86	1163.95
628.20	1160.72
628.55	1156.13
628.89	1154.31
629.24	1153.39
629.58	1150.63
629.93	1151.26
630.28	1150.89
630.62	1152.41
630.97	1149.79
631.31	1148.81
631.66	1145.74
632.00	1143.14
632.35	1139.02
632.69	1138.60
633.04	1132.49
633.38	1132.87
633.73	1134.04
634.07	1133.36
634.42	1133.45
634.76	1137.29
635.11	1135.32
635.45	1133.76
635.79	1132.14
636.14	1133.10
636.48	1131.37
636.83	1130.57
637.17	1127.55
637.52	1127.69
637.86	1125.73
638.21	1122.43
638.55	1119.34
638.89	1122.03
639.24	1122.68
639.58	1122.47
639.93	1127.13
640.27	1129.75
640.61	1127.69
640.96	1124.65
641.30	1123.41
641.65	1122.59
641.99	1119.76
642.33	1116.27
642.68	1117.56
643.02	1114.70
643.37	1113.98
643.71	1115.15
644.05	1118.68
644.40	1116.69
644.74	1118.66
645.08	1116.86
645.43	1114.47
645.77	1110.21
646.11	1112.29
646.46	1108.74
646.80	1109.06
647.14	1108.17
647.49	1107.71
647.83	1107.38
648.17	1109.04
648.52	1108.83
648.86	1112.64
649.20	1116.34
649.55	1112.81
649.89	1114.56
650.23	1113.51
650.57	1113.14
650.92	1110.72
651.26	1113.09
651.60	1109.46
651.95	1106.44
652.29	1104.80
652.63	1103.33
652.97	1101.67
653.32	1100.40
653.66	1099.89
654.00	1103.07
654.34	1106.35
654.69	1103.14
655.03	1103.94
655.37	1107.49
655.71	1102.86
656.05	1099.37
656.40	1101.25
656.74	1103.28
657.08	1102.11
657.42	1100.66
657.76	1099.84
658.11	1100.17
658.45	1098.83
658.79	1096.89
659.13	1096.75
659.47	1098.53
659.82	1097.27
660.16	1098.37
660.50	1104.12
660.84	1108.66
661.18	1110.16
661.52	1110.33
661.87	1111.24
662.21	1106.42
662.55	1102.49
662.89	1099.68
663.23	1099.30
663.57	1095.32
663.91	1096.54
664.25	1098.79
664.60	1097.59
664.94	1098.79
665.28	1100.10
665.62	1094.88
665.96	1093.08
666.30	1097.17
666.64	1098.60
666.98	1099.28
667.32	1104.05
667.66	1105.29
668.01	1103.75
668.35	1101.92
668.69	1103.14
669.03	1103.96
669.37	1102.72
669.71	1101.34
670.05	1099.00
670.39	1098.83
670.73	1094.32
671.07	1092.19
671.41	1091.58
671.75	1091.53
672.09	1089.47
672.43	1095.58
672.77	1095.51
673.11	1098.58
673.45	1101.27
673.79	1102.79
674.13	1102.04
674.47	1102.53
674.81	1099.00
675.15	1099.12
675.49	1099.12
675.83	1094.36
676.17	1095.14
676.51	1096.61
676.85	1095.46
677.19	1095.16
677.53	1097.62
677.87	1095.14
678.21	1096.94
678.55	1096.49
678.89	1098.13
679.23	1096.49
679.57	1097.52
679.90	1094.83
680.24	1091.34
680.58	1087.11
680.92	1087.69
681.26	1091.70
681.60	1090.39
681.94	1093.40
682.28	1093.50
682.62	1093.36
682.96	1091.98
683.29	1094.90
683.63	1097.85
683.97	1096.92
684.31	1094.88
684.65	1092.09
684.99	1089.82
685.33	1089.14
685.67	1090.57
686.00	1091.98
686.34	1091.86
686.68	1091.11
687.02	1088.47
687.36	1088.00
687.70	1091.11
688.03	1090.34
688.37	1091.32
688.71	1091.51
689.05	1093.03
689.39	1090.60
689.72	1092.80
690.06	1091.77
690.40	1091.37
690.74	1088.84
691.08	1087.90
691.41	1086.71
691.75	1086.17
692.09	1089.36
692.43	1091.53
692.76	1091.09
693.10	1089.87
693.44	1090.01
693.78	1087.18
694.11	1085.73
694.45	1088.63
694.79	1090.06
695.13	1090.39
695.46	1088.79
695.80	1090.62
696.14	1091.56
696.48	1095.04
696.81	1095.98
697.15	1098.09
697.49	1100.33
697.82	1098.37
698.16	1094.25
698.50	1094.57
698.83	1094.60
699.17	1092.80
699.51	1090.95
699.84	1091.81
700.18	1091.51
700.52	1093.40
700.85	1089.94
701.19	1093.45
701.53	1093.43
701.86	1092.28
702.20	1089.36
702.54	1090.32
702.87	1086.08
703.21	1082.12
703.55	1083.04
703.88	1086.83
704.22	1086.27
704.55	1088.82
704.89	1092.63
705.23	1091.56
705.56	1087.74
705.90	1089.40
706.23	1090.24
706.57	1088.79
706.91	1090.24
707.24	1090.76
707.58	1091.34
707.91	1091.09
708.25	1092.84
708.58	1090.29
708.92	1091.32
709.26	1090.43
709.59	1089.19
709.93	1089.59
710.26	1089.78
710.60	1088.30
710.93	1090.69
711.27	1088.04
711.60	1089.05
711.94	1089.45
712.27	1090.99
712.61	1089.78
712.94	1096.59
713.28	1096.70
713.61	1099.35
713.95	1096.73
714.28	1095.53
714.62	1091.67
714.95	1087.27
715.29	1084.51
715.62	1086.62
715.96	1086.48
716.29	1087.09
716.63	1091.72
716.96	1093.99
717.29	1094.08
717.63	1093.66
717.96	1094.13
718.30	1092.37
718.63	1093.01
718.97	1091.77
719.30	1091.11
719.63	1088.28
719.97	1091.70
720.30	1093.94
720.64	1093.47
720.97	1093.15
721.30	1092.87
721.64	1086.17
721.97	1083.27
722.31	1084.84
722.64	1083.08
722.97	1083.04
723.31	1085.59
723.64	1086.87
723.97	1084.89
724.31	1087.97
724.64	1090.06
724.98	1087.83
725.31	1085.49
725.64	1086.66
725.98	1088.58
726.31	1086.62
726.64	1091.06
726.97	1093.05
727.31	1090.64
727.64	1090.62
727.97	1091.77
728.31	1087.34
728.64	1085.59
728.97	1089.80
729.31	1088.37
729.64	1088.40
729.97	1090.53
730.30	1089.68
730.64	1085.00
730.97	1085.03
731.30	1083.71
731.63	1084.00
731.97	1084.63
732.30	1088.16
732.63	1088.98
732.96	1089.78
733.30	1090.43
733.63	1090.48
733.96	1090.20
734.29	1087.58
734.63	1088.96
734.96	1089.10
735.29	1087.88
735.62	1089.54
735.95	1093.19
736.29	1092.42
736.62	1091.84
736.95	1092.70
737.28	1090.10
737.61	1085.47
737.94	1087.30
738.28	1086.87
738.61	1090.67
738.94	1091.95
739.27	1095.46
739.60	1093.97
739.93	1097.69
740.27	1094.06
740.60	1090.71
740.93	1091.49
741.26	1091.81
741.59	1088.47
741.92	1086.83
742.25	1089.54
742.58	1088.72
742.91	1087.41
743.25	1087.23
743.58	1087.13
743.91	1089.22
744.24	1086.45
744.57	1087.27
744.90	1086.78
745.23	1088.16
745.56	1084.32
745.89	1086.87
746.22	1088.82
746.55	1089.33
746.88	1091.44
747.21	1092.63
747.54	1092.49
747.87	1091.34
748.20	1092.89
748.53	1092.42
748.87	1092.30
749.20	1092.14
749.53	1088.14
749.86	1086.90
750.19	1085.14
750.52	1084.86
750.85	1084.60
751.18	1087.37
751.51	1089.40
751.84	1090.83
752.16	1090.32
752.49	1091.06
752.82	1090.69
753.15	1086.08
753.48	1086.43
753.81	1091.27
754.14	1088.98
754.47	1088.75
754.80	1093.64
755.13	1091.84
755.46	1088.75
755.79	1090.48
756.12	1093.36
756.45	1090.15
756.78	1092.16
757.11	1092.02
757.43	1093.03
757.76	1090.24
758.09	1086.36
758.42	1085.28
758.75	1086.62
759.08	1087.16
759.41	1087.95
759.74	1092.94
760.07	1092.28
760.39	1088.65
760.72	1087.69
761.05	1086.80
761.38	1084.89
761.71	1082.73
762.04	1081.75
762.36	1079.85
762.69	1079.38
763.02	1081.51
