SpectraSuite Data File
++++++++++++++++++++++++++++++++++++
Date: Mon Aug 26 10:26:00 PDT 2019
User: corrico
Dark Spectrum Present: No
Reference Spectrum Present: No
Number of Sampled Component Spectra: 1
Spectrometers: USB2+H06089
Integration Time (usec): 10000 (USB2+H06089)
Spectra Averaged: 2 (USB2+H06089)
Boxcar Smoothing: 2 (USB2+H06089)
Correct for Electrical Dark: No (USB2+H06089)
Strobe/Lamp Enabled: No (USB2+H06089)
Correct for Detector Non-linearity: No (USB2+H06089)
Correct for Stray Light: No (USB2+H06089)
Number of Pixels in Processed Spectrum: 2048
>>>>>Begin Processed Spectral Data<<<<<
339.70	1000.58
340.07	1000.58
340.45	975.77
340.82	967.34
341.19	943.70
341.57	927.32
341.94	927.09
342.31	922.64
342.69	902.04
343.06	896.43
343.43	891.28
343.81	879.81
344.18	878.17
344.55	890.11
344.93	912.11
345.30	918.66
345.67	927.55
346.04	942.53
346.42	951.66
346.79	959.62
347.16	976.00
347.54	981.15
347.91	989.58
348.28	1001.28
348.65	1000.58
349.03	1005.03
349.40	1016.49
349.77	1021.88
350.14	1023.52
350.52	1038.03
350.89	1046.45
351.26	1060.96
351.63	1066.35
352.01	1074.07
352.38	1065.88
352.75	1063.07
353.12	1061.43
353.50	1059.79
353.87	1068.22
354.24	1079.92
354.61	1079.69
354.98	1081.80
355.36	1087.65
355.73	1083.67
356.10	1086.94
356.47	1082.26
356.84	1087.65
357.22	1086.71
357.59	1088.12
357.96	1080.39
358.33	1083.90
358.70	1083.90
359.08	1080.86
359.45	1080.63
359.82	1087.18
360.19	1087.65
360.56	1085.77
360.94	1082.50
361.31	1078.28
361.68	1080.16
362.05	1092.56
362.42	1093.26
362.79	1100.99
363.16	1098.41
363.54	1084.14
363.91	1072.43
364.28	1062.37
364.65	1055.35
365.02	1056.05
365.39	1055.35
365.76	1053.01
366.14	1049.96
366.51	1051.60
366.88	1041.54
367.25	1050.43
367.62	1048.33
367.99	1053.01
368.36	1055.58
368.73	1063.77
369.10	1054.88
369.48	1064.24
369.85	1072.67
370.22	1067.52
370.59	1068.22
370.96	1071.97
371.33	1062.60
371.70	1056.52
372.07	1055.35
372.44	1044.11
372.81	1051.37
373.18	1053.24
373.55	1048.56
373.93	1047.86
374.30	1080.16
374.67	1077.58
375.04	1086.24
375.41	1090.92
375.78	1093.26
376.15	1076.18
376.52	1079.46
376.89	1072.90
377.26	1081.56
377.63	1087.65
378.00	1081.09
378.37	1069.39
378.74	1072.43
379.11	1061.43
379.48	1052.30
379.85	1061.67
380.22	1065.88
380.59	1063.54
380.96	1065.88
381.33	1071.73
381.70	1067.75
382.07	1069.62
382.44	1079.92
382.81	1085.54
383.18	1093.26
383.55	1096.54
383.92	1100.29
384.29	1091.16
384.66	1088.12
385.03	1075.48
385.40	1074.77
385.77	1076.41
386.14	1079.46
386.51	1071.73
386.88	1076.65
387.25	1078.05
387.62	1087.18
387.99	1080.86
388.36	1088.35
388.73	1082.97
389.10	1085.07
389.46	1073.84
389.83	1080.16
390.20	1077.58
390.57	1082.26
390.94	1074.07
391.31	1067.75
391.68	1063.07
392.05	1065.65
392.42	1066.35
392.79	1072.90
393.16	1076.18
393.53	1070.56
393.89	1060.50
394.26	1060.96
394.63	1057.92
395.00	1070.56
395.37	1078.52
395.74	1082.26
396.11	1079.46
396.48	1086.01
396.84	1072.90
397.21	1078.05
397.58	1075.71
397.95	1085.07
398.32	1073.14
398.69	1076.65
399.06	1072.43
399.42	1068.69
399.79	1062.84
400.16	1072.20
400.53	1075.94
400.90	1082.50
401.27	1098.65
401.64	1093.50
402.00	1085.07
402.37	1082.97
402.74	1078.52
403.11	1078.28
403.48	1083.20
403.84	1088.82
404.21	1089.05
404.58	1080.86
404.95	1073.84
405.32	1067.28
405.68	1060.03
406.05	1054.18
406.42	1064.48
406.79	1064.94
407.16	1073.14
407.52	1079.92
407.89	1078.05
408.26	1075.24
408.63	1078.75
408.99	1078.28
409.36	1077.35
409.73	1080.39
410.10	1082.26
410.47	1084.14
410.83	1081.33
411.20	1081.33
411.57	1095.14
411.94	1085.77
412.30	1079.69
412.67	1084.37
413.04	1082.73
413.40	1070.80
413.77	1077.11
414.14	1072.67
414.51	1069.62
414.87	1064.24
415.24	1059.56
415.61	1060.50
415.97	1066.11
416.34	1060.03
416.71	1059.79
417.08	1059.33
417.44	1064.71
417.81	1074.77
418.18	1079.46
418.54	1086.48
418.91	1087.41
419.28	1081.09
419.64	1073.84
420.01	1069.39
420.38	1074.54
420.74	1074.31
421.11	1076.65
421.48	1064.24
421.84	1066.82
422.21	1059.56
422.58	1060.26
422.94	1058.39
423.31	1066.35
423.68	1059.09
424.04	1060.50
424.41	1059.56
424.77	1066.58
425.14	1069.86
425.51	1081.56
425.87	1089.05
426.24	1094.67
426.61	1093.03
426.97	1096.54
427.34	1086.24
427.70	1075.01
428.07	1071.73
428.44	1069.39
428.80	1067.05
429.17	1069.62
429.53	1078.52
429.90	1082.73
430.27	1075.48
430.63	1069.62
431.00	1078.05
431.36	1073.37
431.73	1072.67
432.09	1086.94
432.46	1092.33
432.83	1088.58
433.19	1086.71
433.56	1082.26
433.92	1075.71
434.29	1073.84
434.65	1080.86
435.02	1083.20
435.38	1089.99
435.75	1088.35
436.11	1093.50
436.48	1086.24
436.84	1092.56
437.21	1086.01
437.57	1085.07
437.94	1087.88
438.30	1091.16
438.67	1094.67
439.03	1099.35
439.40	1092.33
439.76	1084.84
440.13	1086.01
440.49	1071.73
440.86	1072.43
441.22	1080.86
441.59	1072.90
441.95	1067.28
442.32	1063.31
442.68	1057.69
443.05	1060.96
443.41	1074.54
443.78	1069.62
444.14	1074.77
444.51	1087.41
444.87	1084.14
445.24	1071.26
445.60	1079.46
445.96	1086.24
446.33	1078.99
446.69	1077.11
447.06	1081.33
447.42	1088.35
447.79	1082.26
448.15	1079.22
448.51	1085.77
448.88	1086.71
449.24	1075.24
449.61	1079.22
449.97	1082.26
450.33	1077.58
450.70	1080.63
451.06	1083.20
451.43	1069.86
451.79	1065.18
452.15	1055.58
452.52	1054.41
452.88	1058.86
453.24	1073.84
453.61	1070.56
453.97	1089.75
454.34	1092.56
454.70	1085.77
455.06	1086.24
455.43	1089.29
455.79	1077.82
456.15	1071.26
456.52	1070.80
456.88	1070.56
457.24	1068.22
457.61	1068.22
457.97	1069.62
458.33	1070.33
458.70	1053.71
459.06	1053.01
459.42	1055.58
459.79	1063.31
460.15	1074.54
460.51	1086.01
460.88	1094.43
461.24	1098.65
461.60	1089.52
461.96	1072.90
462.33	1075.24
462.69	1070.09
463.05	1054.41
463.42	1055.82
463.78	1060.50
464.14	1056.99
464.50	1058.16
464.87	1064.71
465.23	1065.18
465.59	1069.86
465.95	1076.41
466.32	1089.05
466.68	1089.99
467.04	1095.60
467.40	1089.05
467.77	1079.46
468.13	1074.54
468.49	1075.01
468.85	1072.67
469.22	1083.43
469.58	1087.88
469.94	1077.11
470.30	1073.60
470.66	1071.97
471.03	1061.20
471.39	1066.35
471.75	1067.05
472.11	1075.71
472.47	1070.33
472.84	1078.75
473.20	1080.16
473.56	1086.71
473.92	1083.90
474.28	1094.20
474.65	1095.37
475.01	1093.03
475.37	1087.88
475.73	1081.80
476.09	1074.31
476.45	1074.54
476.81	1072.20
477.18	1083.43
477.54	1088.35
477.90	1087.88
478.26	1087.88
478.62	1084.84
478.98	1062.84
479.34	1070.56
479.71	1082.26
480.07	1073.37
480.43	1088.12
480.79	1099.12
481.15	1095.84
481.51	1097.24
481.87	1099.12
482.23	1088.82
482.59	1096.54
482.96	1101.69
483.32	1095.84
483.68	1100.99
484.04	1109.41
484.40	1106.61
484.76	1100.75
485.12	1096.07
485.48	1093.50
485.84	1086.94
486.20	1080.86
486.56	1071.97
486.92	1067.05
487.28	1073.60
487.64	1060.50
488.00	1061.43
488.37	1063.07
488.73	1073.37
489.09	1074.07
489.45	1090.92
489.81	1098.88
490.17	1104.73
490.53	1097.95
490.89	1097.24
491.25	1094.20
491.61	1086.71
491.97	1083.20
492.33	1090.92
492.69	1081.33
493.05	1075.48
493.41	1077.35
493.77	1083.67
494.13	1082.97
494.49	1090.22
494.85	1097.01
495.21	1103.56
495.57	1097.71
495.93	1089.99
496.29	1077.35
496.64	1070.56
497.00	1068.22
497.36	1067.52
497.72	1069.86
498.08	1084.14
498.44	1084.14
498.80	1079.69
499.16	1079.92
499.52	1078.99
499.88	1073.60
500.24	1075.71
500.60	1085.31
500.96	1083.43
501.32	1090.46
501.68	1094.90
502.03	1097.95
502.39	1091.39
502.75	1088.12
503.11	1073.37
503.47	1071.97
503.83	1074.54
504.19	1075.48
504.55	1080.16
504.91	1089.52
505.26	1094.20
505.62	1090.69
505.98	1087.88
506.34	1083.20
506.70	1084.37
507.06	1081.56
507.42	1085.54
507.78	1090.22
508.13	1097.95
508.49	1095.60
508.85	1095.60
509.21	1088.35
509.57	1078.75
509.93	1079.92
510.28	1088.35
510.64	1094.90
511.00	1097.95
511.36	1102.63
511.72	1106.84
512.07	1094.67
512.43	1086.48
512.79	1082.97
513.15	1084.14
513.51	1069.39
513.86	1074.77
514.22	1072.67
514.58	1075.48
514.94	1074.77
515.30	1087.41
515.65	1093.50
516.01	1090.46
516.37	1092.80
516.73	1096.54
517.08	1096.78
517.44	1094.20
517.80	1099.35
518.16	1095.84
518.51	1090.69
518.87	1093.26
519.23	1095.60
519.59	1089.52
519.94	1095.84
520.30	1095.60
520.66	1094.67
521.01	1098.18
521.37	1108.24
521.73	1109.88
522.09	1103.80
522.44	1094.90
522.80	1083.67
523.16	1083.67
523.51	1077.11
523.87	1088.12
524.23	1089.05
524.58	1082.73
524.94	1084.60
525.30	1089.05
525.65	1086.24
526.01	1097.24
526.37	1101.69
526.72	1102.63
527.08	1108.48
527.44	1114.10
527.79	1108.48
528.15	1119.01
528.51	1114.10
528.86	1111.05
529.22	1107.54
529.58	1110.35
529.93	1113.39
530.29	1106.37
530.65	1097.48
531.00	1090.46
531.36	1083.67
531.71	1081.56
532.07	1086.71
532.43	1088.12
532.78	1098.88
533.14	1107.31
533.49	1099.58
533.85	1102.86
534.21	1101.92
534.56	1101.46
534.92	1103.09
535.27	1099.58
535.63	1091.16
535.98	1104.50
536.34	1101.69
536.69	1099.82
537.05	1105.20
537.41	1111.99
537.76	1096.78
538.12	1093.50
538.47	1080.86
538.83	1081.09
539.18	1082.03
539.54	1081.09
539.89	1083.67
540.25	1093.50
540.60	1093.97
540.96	1092.80
541.31	1096.31
541.67	1089.05
542.02	1084.14
542.38	1081.33
542.73	1078.75
543.09	1074.77
543.44	1077.35
543.80	1079.46
544.15	1079.92
544.51	1080.86
544.86	1083.20
545.22	1085.54
545.57	1090.46
545.93	1086.48
546.28	1082.50
546.64	1088.58
546.99	1089.99
547.35	1076.88
547.70	1087.41
548.05	1089.99
548.41	1085.07
548.76	1077.58
549.12	1081.80
549.47	1077.35
549.83	1071.26
550.18	1071.73
550.53	1075.94
550.89	1082.73
551.24	1074.77
551.60	1077.35
551.95	1070.33
552.30	1073.14
552.66	1072.43
553.01	1070.33
553.37	1075.48
553.72	1075.71
554.07	1078.75
554.43	1071.73
554.78	1075.71
555.13	1078.99
555.49	1086.94
555.84	1076.41
556.19	1079.69
556.55	1080.63
556.90	1073.60
557.26	1075.01
557.61	1073.84
557.96	1077.35
558.32	1073.60
558.67	1064.71
559.02	1071.26
559.37	1077.35
559.73	1077.82
560.08	1091.63
560.43	1105.44
560.79	1088.82
561.14	1093.50
561.49	1086.71
561.85	1077.35
562.20	1065.41
562.55	1068.22
562.90	1065.65
563.26	1068.92
563.61	1074.31
563.96	1090.46
564.32	1093.26
564.67	1089.52
565.02	1081.80
565.37	1081.33
565.73	1079.46
566.08	1077.82
566.43	1069.16
566.78	1070.09
567.14	1065.18
567.49	1053.24
567.84	1068.92
568.19	1082.03
568.54	1079.92
568.90	1075.24
569.25	1079.22
569.60	1064.71
569.95	1060.26
570.31	1068.45
570.66	1075.71
571.01	1087.41
571.36	1089.05
571.71	1082.50
572.06	1086.48
572.42	1077.58
572.77	1060.96
573.12	1068.22
573.47	1079.22
573.82	1078.52
574.18	1090.22
574.53	1103.33
574.88	1094.43
575.23	1089.75
575.58	1092.09
575.93	1086.24
576.28	1086.01
576.64	1089.99
576.99	1091.16
577.34	1084.60
577.69	1087.65
578.04	1082.03
578.39	1082.26
578.74	1074.54
579.09	1080.86
579.44	1084.60
579.80	1091.63
580.15	1093.73
580.50	1104.73
580.85	1101.22
581.20	1094.90
581.55	1092.33
581.90	1087.18
582.25	1095.37
582.60	1088.12
582.95	1093.73
583.30	1089.99
583.65	1089.52
584.00	1077.82
584.35	1086.24
584.71	1085.31
585.06	1090.92
585.41	1092.80
585.76	1099.35
586.11	1088.35
586.46	1086.48
586.81	1087.88
587.16	1086.48
587.51	1090.46
587.86	1089.29
588.21	1100.29
588.56	1093.03
588.91	1097.95
589.26	1086.94
589.61	1090.22
589.96	1083.43
590.31	1070.80
590.66	1066.35
591.01	1074.77
591.36	1074.77
591.71	1064.24
592.06	1080.39
592.41	1081.80
592.76	1076.18
593.10	1085.77
593.45	1088.82
593.80	1081.56
594.15	1077.11
594.50	1078.28
594.85	1071.50
595.20	1086.24
595.55	1088.35
595.90	1092.56
596.25	1098.41
596.60	1109.65
596.95	1101.69
597.30	1105.44
597.64	1159.50
597.99	1156.69
598.34	1133.99
598.69	1125.80
599.04	1115.97
599.39	1057.92
599.74	1054.18
600.09	1067.05
600.44	1070.09
600.78	1080.39
601.13	1091.63
601.48	1086.01
601.83	1081.33
602.18	1070.80
602.53	1076.65
602.88	1066.11
603.22	1070.09
603.57	1085.31
603.92	1096.07
604.27	1091.86
604.62	1092.09
604.97	1086.48
605.31	1074.54
605.66	1073.14
606.01	1071.73
606.36	1078.99
606.71	1090.69
607.05	1091.39
607.40	1093.03
607.75	1085.77
608.10	1082.03
608.44	1074.31
608.79	1078.75
609.14	1084.37
609.49	1088.35
609.84	1084.37
610.18	1092.56
610.53	1085.77
610.88	1089.52
611.23	1097.48
611.57	1105.44
611.92	1098.65
612.27	1108.48
612.62	1092.33
612.96	1084.60
613.31	1078.75
613.66	1085.54
614.00	1079.46
614.35	1081.09
614.70	1081.56
615.05	1079.46
615.39	1072.20
615.74	1071.97
616.09	1085.77
616.43	1085.07
616.78	1091.16
617.13	1095.84
617.47	1096.07
617.82	1083.43
618.17	1086.94
618.51	1081.56
618.86	1082.03
619.21	1081.33
619.55	1088.12
619.90	1087.41
620.25	1089.05
620.59	1086.24
620.94	1079.69
621.29	1057.92
621.63	1056.05
621.98	1066.82
622.32	1066.35
622.67	1071.03
623.02	1092.56
623.36	1094.20
623.71	1075.71
624.05	1083.90
624.40	1085.77
624.75	1091.16
625.09	1091.16
625.44	1095.14
625.78	1090.46
626.13	1094.67
626.48	1093.73
626.82	1082.97
627.17	1086.24
627.51	1078.99
627.86	1066.11
628.20	1060.73
628.55	1066.82
628.89	1075.24
629.24	1079.69
629.58	1086.71
629.93	1086.48
630.28	1085.54
630.62	1075.94
630.97	1076.88
631.31	1079.69
631.66	1083.43
632.00	1091.63
632.35	1088.12
632.69	1084.37
633.04	1079.22
633.38	1067.99
633.73	1055.82
634.07	1058.86
634.42	1066.82
634.76	1075.01
635.11	1081.56
635.45	1095.14
635.79	1099.35
636.14	1093.50
636.48	1095.60
636.83	1087.65
637.17	1085.77
637.52	1086.48
637.86	1083.20
638.21	1079.46
638.55	1090.92
638.89	1086.24
639.24	1088.12
639.58	1093.03
639.93	1100.05
640.27	1105.44
640.61	1099.35
640.96	1094.67
641.30	1095.60
641.65	1078.05
641.99	1079.46
642.33	1082.50
642.68	1080.86
643.02	1077.11
643.37	1070.33
643.71	1060.26
644.05	1055.11
644.40	1053.01
644.74	1053.01
645.08	1078.28
645.43	1084.84
645.77	1093.50
646.11	1104.73
646.46	1103.80
646.80	1095.37
647.14	1095.37
647.49	1092.09
647.83	1083.43
648.17	1086.71
648.52	1082.97
648.86	1076.41
649.20	1079.22
649.55	1079.69
649.89	1076.41
650.23	1081.56
650.57	1086.48
650.92	1088.35
651.26	1089.99
651.60	1096.07
651.95	1097.01
652.29	1093.73
652.63	1096.78
652.97	1093.03
653.32	1091.16
653.66	1087.65
654.00	1091.16
654.34	1086.01
654.69	1086.48
655.03	1094.90
655.37	1094.67
655.71	1085.07
656.05	1085.54
656.40	1090.69
656.74	1078.52
657.08	1081.33
657.42	1082.50
657.76	1083.43
658.11	1076.65
658.45	1084.60
658.79	1075.71
659.13	1073.37
659.47	1078.99
659.82	1083.20
660.16	1082.26
660.50	1089.29
660.84	1089.29
661.18	1080.86
661.52	1084.37
661.87	1082.03
662.21	1085.31
662.55	1094.90
662.89	1098.88
663.23	1097.71
663.57	1092.56
663.91	1088.12
664.25	1089.29
664.60	1089.75
664.94	1085.07
665.28	1081.33
665.62	1077.35
665.96	1074.54
666.30	1071.26
666.64	1070.09
666.98	1076.88
667.32	1084.37
667.66	1080.63
668.01	1069.86
668.35	1069.16
668.69	1070.33
669.03	1060.96
669.37	1063.77
669.71	1075.94
670.05	1087.65
670.39	1083.90
670.73	1087.18
671.07	1091.39
671.41	1085.31
671.75	1074.54
672.09	1071.97
672.43	1078.28
672.77	1064.48
673.11	1067.05
673.45	1063.31
673.79	1066.82
674.13	1070.80
674.47	1075.94
674.81	1070.33
675.15	1075.71
675.49	1081.33
675.83	1077.35
676.17	1075.01
676.51	1088.82
676.85	1086.48
677.19	1080.63
677.53	1069.39
677.87	1071.97
678.21	1064.94
678.55	1064.71
678.89	1059.79
679.23	1064.24
679.57	1069.62
679.90	1070.33
680.24	1063.31
680.58	1063.31
680.92	1062.37
681.26	1067.52
681.60	1066.58
681.94	1067.52
682.28	1064.48
682.62	1068.45
682.96	1053.71
683.29	1056.05
683.63	1064.48
683.97	1069.86
684.31	1070.09
684.65	1071.73
684.99	1066.11
685.33	1071.26
685.67	1077.35
686.00	1074.77
686.34	1082.03
686.68	1082.50
687.02	1076.41
687.36	1078.52
687.70	1082.03
688.03	1073.14
688.37	1069.86
688.71	1068.45
689.05	1067.05
689.39	1068.45
689.72	1079.69
690.06	1085.31
690.40	1102.39
690.74	1106.37
691.08	1093.26
691.41	1096.07
691.75	1099.35
692.09	1088.82
692.43	1086.48
692.76	1098.18
693.10	1091.63
693.44	1083.67
693.78	1085.31
694.11	1083.20
694.45	1084.60
694.79	1081.80
695.13	1095.60
695.46	1082.26
695.80	1085.54
696.14	1078.75
696.48	1083.43
696.81	1072.67
697.15	1073.37
697.49	1075.01
697.82	1092.33
698.16	1087.88
698.50	1093.97
698.83	1101.46
699.17	1088.82
699.51	1069.39
699.84	1075.01
700.18	1071.97
700.52	1078.52
700.85	1082.50
701.19	1087.41
701.53	1081.09
701.86	1082.97
702.20	1074.54
702.54	1078.05
702.87	1090.92
703.21	1091.16
703.55	1087.88
703.88	1094.90
704.22	1093.97
704.55	1087.88
704.89	1089.05
705.23	1083.20
705.56	1075.71
705.90	1078.52
706.23	1073.37
706.57	1069.86
706.91	1071.26
707.24	1073.14
707.58	1075.24
707.91	1075.24
708.25	1079.46
708.58	1088.82
708.92	1089.75
709.26	1080.63
709.59	1083.20
709.93	1076.65
710.26	1072.43
710.60	1068.69
710.93	1074.07
711.27	1071.50
711.60	1077.11
711.94	1076.41
712.27	1073.37
712.61	1076.18
712.94	1071.03
713.28	1069.86
713.61	1064.94
713.95	1072.67
714.28	1070.80
714.62	1081.80
714.95	1091.63
715.29	1100.52
715.62	1096.78
715.96	1097.01
716.29	1087.88
716.63	1085.31
716.96	1084.84
717.29	1096.78
717.63	1077.35
717.96	1079.22
718.30	1081.09
718.63	1076.65
718.97	1067.99
719.30	1090.92
719.63	1091.86
719.97	1078.28
720.30	1077.58
720.64	1076.41
720.97	1058.62
721.30	1055.11
721.64	1056.99
721.97	1065.41
722.31	1070.80
722.64	1082.73
722.97	1073.14
723.31	1069.62
723.64	1068.69
723.97	1075.94
724.31	1073.14
724.64	1083.67
724.98	1084.84
725.31	1089.99
725.64	1078.75
725.98	1075.48
726.31	1083.43
726.64	1084.60
726.97	1084.14
727.31	1091.39
727.64	1092.09
727.97	1095.84
728.31	1100.29
728.64	1092.33
728.97	1086.01
729.31	1091.63
729.64	1081.09
729.97	1082.03
730.30	1077.82
730.64	1079.22
730.97	1078.52
731.30	1077.82
731.63	1079.22
731.97	1083.20
732.30	1076.41
732.63	1078.52
732.96	1088.12
733.30	1087.18
733.63	1086.24
733.96	1099.58
734.29	1094.20
734.63	1089.05
734.96	1086.71
735.29	1087.41
735.62	1076.88
735.95	1087.41
736.29	1083.67
736.62	1089.75
736.95	1086.24
737.28	1082.03
737.61	1070.56
737.94	1065.88
738.28	1067.05
738.61	1065.65
738.94	1071.26
739.27	1076.41
739.60	1081.56
739.93	1079.46
740.27	1086.01
740.60	1083.43
740.93	1085.07
741.26	1094.90
741.59	1092.56
741.92	1097.95
742.25	1100.05
742.58	1093.26
742.91	1081.33
743.25	1076.65
743.58	1068.92
743.91	1080.16
744.24	1086.24
744.57	1093.97
744.90	1104.73
745.23	1102.63
745.56	1100.99
745.89	1100.05
746.22	1103.09
746.55	1095.84
746.88	1103.33
747.21	1089.75
747.54	1088.58
747.87	1078.75
748.20	1081.56
748.53	1082.26
748.87	1086.24
749.20	1087.18
749.53	1100.52
749.86	1094.43
750.19	1082.03
750.52	1090.46
750.85	1081.80
751.18	1071.03
751.51	1073.37
751.84	1081.56
752.16	1073.84
752.49	1087.88
752.82	1092.80
753.15	1088.35
753.48	1093.50
753.81	1091.39
754.14	1077.35
754.47	1080.16
754.80	1082.26
755.13	1074.07
755.46	1075.01
755.79	1083.43
756.12	1078.28
756.45	1080.86
756.78	1085.77
757.11	1091.63
757.43	1090.92
757.76	1093.73
758.09	1093.73
758.42	1095.60
758.75	1094.90
759.08	1097.01
759.41	1096.54
759.74	1093.97
760.07	1081.80
760.39	1078.28
760.72	1071.97
761.05	1076.41
761.38	1086.71
761.71	1087.65
762.04	1091.86
762.36	1091.86
762.69	1081.56
763.02	1078.05
763.35	1088.12
763.68	1088.35
764.01	1089.52
764.33	1087.65
764.66	1087.88
764.99	1078.99
765.32	1069.86
765.65	1069.86
765.97	1081.80
766.30	1071.73
