SpectraSuite Data File
++++++++++++++++++++++++++++++++++++
Date: Mon Aug 26 10:26:01 PDT 2019
User: corrico
Dark Spectrum Present: No
Reference Spectrum Present: No
Number of Sampled Component Spectra: 1
Spectrometers: USB2+H06089
Integration Time (usec): 10000 (USB2+H06089)
Spectra Averaged: 2 (USB2+H06089)
Boxcar Smoothing: 2 (USB2+H06089)
Correct for Electrical Dark: No (USB2+H06089)
Strobe/Lamp Enabled: No (USB2+H06089)
Correct for Detector Non-linearity: No (USB2+H06089)
Correct for Stray Light: No (USB2+H06089)
Number of Pixels in Processed Spectrum: 2048
>>>>>Begin Processed Spectral Data<<<<<
339.70	1064.94
340.07	1064.94
340.45	1022.35
340.82	987.47
341.19	957.28
341.57	922.87
341.94	911.17
342.31	901.11
342.69	901.81
343.06	892.91
343.43	897.13
343.81	906.49
344.18	901.34
344.55	909.30
344.93	924.28
345.30	930.13
345.67	931.77
346.04	941.13
346.42	944.64
346.79	950.02
347.16	958.45
347.54	962.43
347.91	972.49
348.28	984.66
348.65	993.32
349.03	1001.75
349.40	1009.47
349.77	1016.26
350.14	1020.47
350.52	1026.79
350.89	1029.13
351.26	1029.13
351.63	1038.26
352.01	1027.26
352.38	1030.77
352.75	1031.94
353.12	1047.62
353.50	1049.26
353.87	1063.77
354.24	1068.22
354.61	1076.88
354.98	1078.99
355.36	1081.56
355.73	1092.80
356.10	1092.80
356.47	1093.73
356.84	1096.54
357.22	1095.60
357.59	1092.33
357.96	1092.09
358.33	1093.50
358.70	1104.73
359.08	1105.44
359.45	1105.20
359.82	1102.86
360.19	1104.73
360.56	1083.67
360.94	1070.09
361.31	1062.60
361.68	1063.07
362.05	1057.69
362.42	1053.48
362.79	1060.73
363.16	1073.14
363.54	1071.97
363.91	1064.48
364.28	1065.41
364.65	1059.79
365.02	1052.30
365.39	1052.07
365.76	1053.71
366.14	1058.39
366.51	1057.92
366.88	1063.31
367.25	1068.92
367.62	1079.69
367.99	1077.82
368.36	1093.03
368.73	1088.35
369.10	1083.20
369.48	1081.80
369.85	1086.48
370.22	1084.14
370.59	1088.35
370.96	1081.56
371.33	1079.92
371.70	1077.82
372.07	1074.31
372.44	1070.56
372.81	1074.07
373.18	1059.79
373.55	1060.73
373.93	1063.07
374.30	1058.86
374.67	1064.71
375.04	1064.71
375.41	1056.75
375.78	1054.41
376.15	1052.07
376.52	1046.69
376.89	1060.73
377.26	1065.88
377.63	1068.45
378.00	1078.99
378.37	1080.39
378.74	1077.58
379.11	1076.41
379.48	1076.65
379.85	1063.77
380.22	1065.41
380.59	1064.01
380.96	1075.24
381.33	1078.75
381.70	1085.07
382.07	1086.01
382.44	1096.54
382.81	1091.39
383.18	1077.58
383.55	1084.14
383.92	1089.52
384.29	1078.75
384.66	1067.99
385.03	1075.01
385.40	1060.96
385.77	1052.07
386.14	1052.07
386.51	1062.14
386.88	1069.62
387.25	1081.56
387.62	1078.05
387.99	1080.63
388.36	1082.03
388.73	1071.73
389.10	1073.84
389.46	1082.03
389.83	1086.48
390.20	1081.56
390.57	1084.84
390.94	1073.37
391.31	1068.22
391.68	1055.35
392.05	1054.88
392.42	1051.13
392.79	1052.30
393.16	1057.92
393.53	1064.94
393.89	1069.86
394.26	1075.94
394.63	1082.73
395.00	1077.35
395.37	1072.90
395.74	1067.75
396.11	1070.33
396.48	1072.90
396.84	1072.90
397.21	1081.56
397.58	1083.90
397.95	1077.35
398.32	1073.14
398.69	1081.09
399.06	1075.94
399.42	1075.24
399.79	1075.71
400.16	1075.24
400.53	1068.45
400.90	1067.75
401.27	1069.62
401.64	1071.03
402.00	1060.73
402.37	1055.58
402.74	1059.09
403.11	1063.77
403.48	1062.37
403.84	1081.80
404.21	1089.52
404.58	1085.77
404.95	1076.88
405.32	1078.28
405.68	1065.41
406.05	1071.50
406.42	1075.48
406.79	1073.37
407.16	1079.22
407.52	1078.75
407.89	1071.50
408.26	1065.88
408.63	1073.60
408.99	1075.48
409.36	1072.20
409.73	1069.16
410.10	1072.43
410.47	1077.82
410.83	1068.45
411.20	1078.52
411.57	1085.77
411.94	1091.86
412.30	1081.09
412.67	1074.77
413.04	1074.54
413.40	1064.24
413.77	1059.33
414.14	1058.62
414.51	1067.05
414.87	1066.82
415.24	1076.65
415.61	1077.35
415.97	1081.56
416.34	1091.86
416.71	1097.24
417.08	1089.52
417.44	1093.26
417.81	1088.82
418.18	1077.11
418.54	1073.14
418.91	1064.48
419.28	1056.28
419.64	1060.50
420.01	1057.69
420.38	1053.48
420.74	1075.01
421.11	1081.09
421.48	1090.92
421.84	1098.88
422.21	1101.69
422.58	1096.31
422.94	1093.03
423.31	1088.58
423.68	1083.43
424.04	1080.63
424.41	1082.26
424.77	1079.22
425.14	1064.24
425.51	1056.99
425.87	1057.22
426.24	1048.56
426.61	1049.26
426.97	1065.18
427.34	1081.80
427.70	1082.26
428.07	1088.12
428.44	1083.90
428.80	1077.58
429.17	1071.03
429.53	1072.43
429.90	1070.09
430.27	1067.05
430.63	1068.92
431.00	1065.41
431.36	1058.86
431.73	1058.39
432.09	1072.43
432.46	1077.82
432.83	1082.97
433.19	1084.60
433.56	1077.11
433.92	1070.56
434.29	1068.22
434.65	1059.79
435.02	1061.20
435.38	1069.86
435.75	1073.60
436.11	1066.82
436.48	1074.07
436.84	1074.77
437.21	1073.84
437.57	1070.80
437.94	1072.67
438.30	1066.58
438.67	1073.14
439.03	1081.33
439.40	1094.20
439.76	1106.61
440.13	1105.90
440.49	1096.78
440.86	1096.07
441.22	1082.50
441.59	1068.92
441.95	1067.99
442.32	1076.88
442.68	1075.48
443.05	1081.33
443.41	1082.97
443.78	1087.65
444.14	1089.99
444.51	1094.20
444.87	1097.48
445.24	1097.01
445.60	1110.12
445.96	1105.20
446.33	1094.67
446.69	1084.84
447.06	1097.71
447.42	1086.94
447.79	1079.22
448.15	1075.01
448.51	1084.14
448.88	1073.14
449.24	1074.54
449.61	1075.71
449.97	1080.63
450.33	1081.33
450.70	1086.71
451.06	1079.92
451.43	1086.94
451.79	1093.73
452.15	1092.33
452.52	1083.43
452.88	1080.86
453.24	1078.75
453.61	1073.37
453.97	1068.45
454.34	1069.16
454.70	1069.16
455.06	1068.69
455.43	1068.45
455.79	1064.48
456.15	1066.11
456.52	1078.52
456.88	1073.84
457.24	1079.46
457.61	1079.46
457.97	1076.88
458.33	1071.03
458.70	1071.73
459.06	1066.11
459.42	1075.24
459.79	1069.16
460.15	1064.48
460.51	1083.43
460.88	1085.07
461.24	1082.03
461.60	1097.95
461.96	1099.58
462.33	1087.41
462.69	1082.26
463.05	1082.26
463.42	1074.54
463.78	1075.48
464.14	1069.39
464.50	1079.46
464.87	1082.50
465.23	1092.56
465.59	1094.90
465.95	1089.99
466.32	1077.35
466.68	1077.58
467.04	1081.09
467.40	1072.20
467.77	1089.52
468.13	1101.92
468.49	1098.18
468.85	1085.31
469.22	1089.75
469.58	1083.90
469.94	1079.69
470.30	1077.58
470.66	1075.94
471.03	1077.58
471.39	1071.73
471.75	1063.54
472.11	1060.03
472.47	1064.94
472.84	1069.39
473.20	1069.62
473.56	1071.50
473.92	1069.62
474.28	1063.54
474.65	1062.14
475.01	1067.28
475.37	1071.73
475.73	1075.48
476.09	1078.75
476.45	1072.67
476.81	1066.58
477.18	1063.07
477.54	1071.03
477.90	1068.22
478.26	1076.88
478.62	1078.52
478.98	1080.63
479.34	1083.20
479.71	1088.82
480.07	1093.26
480.43	1092.33
480.79	1081.56
481.15	1079.69
481.51	1076.88
481.87	1075.94
482.23	1072.90
482.59	1073.60
482.96	1071.97
483.32	1072.20
483.68	1067.28
484.04	1075.94
484.40	1081.33
484.76	1070.33
485.12	1067.05
485.48	1054.41
485.84	1049.26
486.20	1050.20
486.56	1056.28
486.92	1056.28
487.28	1070.33
487.64	1075.01
488.00	1082.26
488.37	1080.39
488.73	1087.18
489.09	1094.20
489.45	1087.41
489.81	1077.82
490.17	1076.88
490.53	1080.63
490.89	1068.69
491.25	1076.18
491.61	1078.99
491.97	1084.84
492.33	1074.31
492.69	1073.14
493.05	1067.28
493.41	1068.45
493.77	1068.45
494.13	1075.48
494.49	1082.50
494.85	1083.20
495.21	1083.90
495.57	1079.92
495.93	1073.60
496.29	1070.09
496.64	1078.99
497.00	1084.14
497.36	1083.43
497.72	1092.09
498.08	1099.35
498.44	1103.56
498.80	1101.22
499.16	1108.01
499.52	1111.52
499.88	1107.54
500.24	1096.07
500.60	1093.26
500.96	1089.75
501.32	1087.18
501.68	1089.75
502.03	1088.82
502.39	1100.29
502.75	1098.65
503.11	1090.69
503.47	1104.26
503.83	1105.67
504.19	1100.29
504.55	1095.84
504.91	1094.67
505.26	1071.97
505.62	1075.01
505.98	1074.77
506.34	1083.90
506.70	1093.73
507.06	1103.33
507.42	1100.29
507.78	1099.35
508.13	1108.24
508.49	1104.03
508.85	1099.12
509.21	1100.05
509.57	1099.35
509.93	1083.20
510.28	1087.65
510.64	1082.03
511.00	1078.28
511.36	1092.33
511.72	1101.22
512.07	1104.26
512.43	1115.03
512.79	1120.65
513.15	1103.56
513.51	1101.46
513.86	1094.67
514.22	1093.73
514.58	1094.43
514.94	1095.37
515.30	1097.95
515.65	1095.14
516.01	1093.03
516.37	1086.94
516.73	1095.37
517.08	1085.31
517.44	1099.35
517.80	1093.26
518.16	1095.14
518.51	1089.05
518.87	1093.03
519.23	1090.22
519.59	1093.97
519.94	1093.50
520.30	1096.31
520.66	1100.75
521.01	1090.46
521.37	1099.35
521.73	1099.82
522.09	1102.86
522.44	1093.73
522.80	1100.29
523.16	1099.35
523.51	1107.54
523.87	1093.97
524.23	1098.41
524.58	1098.18
524.94	1079.69
525.30	1064.94
525.65	1076.18
526.01	1085.31
526.37	1080.16
526.72	1091.63
527.08	1109.65
527.44	1109.65
527.79	1099.58
528.15	1084.37
528.51	1086.48
528.86	1074.77
529.22	1065.18
529.58	1060.50
529.93	1078.05
530.29	1081.09
530.65	1075.01
531.00	1086.24
531.36	1097.95
531.71	1088.82
532.07	1089.29
532.43	1098.65
532.78	1098.18
533.14	1094.43
533.49	1095.37
533.85	1087.18
534.21	1084.14
534.56	1085.77
534.92	1093.26
535.27	1093.73
535.63	1090.92
535.98	1093.50
536.34	1093.26
536.69	1081.56
537.05	1088.58
537.41	1096.07
537.76	1101.69
538.12	1097.71
538.47	1096.07
538.83	1096.54
539.18	1089.05
539.54	1084.60
539.89	1078.28
540.25	1088.58
540.60	1086.48
540.96	1094.90
541.31	1102.86
541.67	1111.99
542.02	1111.29
542.38	1114.56
542.73	1105.90
543.09	1095.14
543.44	1094.20
543.80	1098.41
544.15	1092.33
544.51	1096.07
544.86	1095.84
545.22	1089.52
545.57	1073.14
545.93	1076.41
546.28	1085.54
546.64	1086.48
546.99	1097.48
547.35	1097.24
547.70	1092.56
548.05	1077.82
548.41	1069.62
548.76	1051.60
549.12	1067.99
549.47	1066.58
549.83	1073.84
550.18	1086.48
550.53	1094.90
550.89	1094.20
551.24	1100.99
551.60	1100.99
551.95	1099.12
552.30	1097.01
552.66	1090.46
553.01	1080.63
553.37	1076.88
553.72	1066.58
554.07	1066.35
554.43	1057.22
554.78	1059.79
555.13	1058.16
555.49	1073.14
555.84	1079.69
556.19	1091.16
556.55	1089.99
556.90	1093.26
557.26	1086.01
557.61	1075.01
557.96	1070.09
558.32	1079.69
558.67	1084.84
559.02	1086.48
559.37	1095.14
559.73	1092.80
560.08	1088.58
560.43	1086.01
560.79	1089.99
561.14	1086.24
561.49	1093.03
561.85	1091.63
562.20	1085.54
562.55	1082.03
562.90	1080.39
563.26	1076.41
563.61	1079.46
563.96	1081.09
564.32	1065.65
564.67	1063.77
565.02	1056.75
565.37	1052.77
565.73	1058.39
566.08	1071.97
566.43	1074.31
566.78	1080.63
567.14	1083.20
567.49	1075.01
567.84	1075.48
568.19	1079.92
568.54	1082.97
568.90	1088.35
569.25	1095.60
569.60	1092.33
569.95	1097.48
570.31	1090.22
570.66	1088.12
571.01	1084.14
571.36	1091.39
571.71	1077.58
572.06	1085.54
572.42	1079.46
572.77	1071.97
573.12	1063.54
573.47	1063.77
573.82	1063.31
574.18	1062.37
574.53	1063.31
574.88	1066.82
575.23	1074.54
575.58	1069.62
575.93	1068.45
576.28	1078.28
576.64	1090.92
576.99	1087.18
577.34	1098.18
577.69	1095.60
578.04	1091.63
578.39	1080.39
578.74	1087.65
579.09	1095.60
579.44	1101.69
579.80	1103.33
580.15	1101.46
580.50	1099.58
580.85	1082.97
581.20	1086.01
581.55	1083.90
581.90	1081.33
582.25	1078.28
582.60	1077.11
582.95	1077.82
583.30	1082.26
583.65	1090.46
584.00	1087.18
584.35	1086.01
584.71	1088.58
585.06	1083.90
585.41	1078.52
585.76	1074.31
586.11	1067.52
586.46	1059.56
586.81	1059.33
587.16	1056.28
587.51	1066.82
587.86	1071.73
588.21	1082.03
588.56	1085.77
588.91	1093.03
589.26	1085.07
589.61	1094.43
589.96	1088.58
590.31	1079.22
590.66	1078.28
591.01	1092.56
591.36	1082.26
591.71	1076.18
592.06	1093.26
592.41	1083.90
592.76	1082.03
593.10	1079.46
593.45	1086.24
593.80	1081.80
594.15	1087.88
594.50	1086.71
594.85	1097.95
595.20	1090.46
595.55	1080.86
595.90	1077.35
596.25	1076.18
596.60	1075.94
596.95	1077.11
597.30	1080.63
597.64	1135.86
597.99	1139.14
598.34	1133.76
598.69	1129.78
599.04	1130.48
599.39	1071.97
599.74	1067.52
600.09	1058.86
600.44	1066.82
600.78	1071.97
601.13	1083.90
601.48	1087.88
601.83	1103.56
602.18	1100.75
602.53	1090.92
602.88	1085.77
603.22	1080.63
603.57	1078.99
603.92	1076.41
604.27	1082.50
604.62	1081.09
604.97	1072.20
605.31	1071.73
605.66	1073.84
606.01	1074.77
606.36	1073.84
606.71	1079.69
607.05	1078.75
607.40	1088.35
607.75	1081.56
608.10	1082.26
608.44	1084.84
608.79	1089.29
609.14	1074.54
609.49	1081.80
609.84	1089.99
610.18	1093.50
610.53	1089.75
610.88	1102.86
611.23	1113.39
611.57	1105.67
611.92	1108.95
612.27	1105.90
612.62	1104.97
612.96	1099.12
613.31	1106.37
613.66	1098.88
614.00	1105.44
614.35	1101.69
614.70	1105.44
615.05	1100.52
615.39	1097.01
615.74	1083.20
616.09	1082.97
616.43	1073.14
616.78	1072.20
617.13	1075.71
617.47	1079.92
617.82	1078.99
618.17	1090.46
618.51	1089.75
618.86	1088.58
619.21	1092.33
619.55	1089.52
619.90	1081.09
620.25	1085.07
620.59	1082.73
620.94	1084.14
621.29	1086.48
621.63	1082.26
621.98	1080.16
622.32	1074.54
622.67	1088.12
623.02	1086.01
623.36	1086.48
623.71	1092.80
624.05	1102.86
624.40	1087.65
624.75	1079.46
625.09	1079.46
625.44	1068.92
625.78	1070.09
626.13	1066.35
626.48	1080.86
626.82	1073.37
627.17	1067.52
627.51	1067.75
627.86	1065.41
628.20	1056.28
628.55	1059.79
628.89	1062.14
629.24	1050.67
629.58	1053.71
629.93	1050.43
630.28	1054.18
630.62	1066.35
630.97	1067.28
631.31	1069.39
631.66	1075.24
632.00	1080.63
632.35	1071.73
632.69	1081.09
633.04	1079.22
633.38	1085.77
633.73	1082.73
634.07	1086.01
634.42	1085.31
634.76	1086.24
635.11	1079.69
635.45	1072.67
635.79	1081.09
636.14	1081.56
636.48	1078.28
636.83	1081.33
637.17	1084.84
637.52	1068.22
637.86	1070.56
638.21	1069.39
638.55	1077.82
638.89	1085.07
639.24	1079.92
639.58	1073.14
639.93	1078.99
640.27	1070.33
640.61	1067.52
640.96	1076.18
641.30	1079.22
641.65	1072.90
641.99	1069.39
642.33	1061.43
642.68	1060.96
643.02	1056.99
643.37	1067.99
643.71	1076.88
644.05	1078.52
644.40	1079.69
644.74	1075.01
645.08	1075.71
645.43	1067.99
645.77	1079.22
646.11	1090.46
646.46	1098.18
646.80	1095.37
647.14	1094.20
647.49	1084.60
647.83	1071.26
648.17	1078.28
648.52	1075.24
648.86	1085.31
649.20	1089.75
649.55	1106.37
649.89	1095.60
650.23	1099.82
650.57	1086.94
650.92	1074.77
651.26	1061.67
651.60	1074.07
651.95	1083.43
652.29	1084.60
652.63	1090.69
652.97	1095.60
653.32	1083.67
653.66	1069.86
654.00	1084.14
654.34	1087.65
654.69	1082.73
655.03	1090.22
655.37	1079.69
655.71	1073.37
656.05	1067.99
656.40	1064.01
656.74	1061.43
657.08	1063.54
657.42	1058.16
657.76	1062.14
658.11	1071.97
658.45	1071.26
658.79	1080.39
659.13	1089.75
659.47	1087.88
659.82	1089.75
660.16	1091.86
660.50	1091.16
660.84	1086.24
661.18	1093.26
661.52	1082.03
661.87	1070.09
662.21	1072.20
662.55	1067.28
662.89	1065.88
663.23	1069.62
663.57	1078.75
663.91	1075.48
664.25	1083.43
664.60	1076.88
664.94	1071.03
665.28	1070.80
665.62	1082.26
665.96	1080.63
666.30	1084.37
666.64	1088.58
666.98	1088.82
667.32	1075.71
667.66	1077.11
668.01	1079.46
668.35	1085.54
668.69	1086.94
669.03	1088.82
669.37	1084.14
669.71	1079.69
670.05	1087.41
670.39	1079.22
670.73	1089.29
671.07	1087.88
671.41	1086.48
671.75	1070.33
672.09	1078.52
672.43	1079.22
672.77	1083.67
673.11	1081.80
673.45	1078.75
673.79	1072.43
674.13	1059.79
674.47	1054.18
674.81	1061.67
675.15	1067.05
675.49	1066.35
675.83	1062.60
676.17	1058.86
676.51	1062.14
676.85	1066.35
677.19	1064.48
677.53	1059.79
677.87	1064.48
678.21	1062.84
678.55	1065.41
678.89	1073.60
679.23	1080.39
679.57	1080.16
679.90	1071.26
680.24	1068.92
680.58	1072.20
680.92	1074.77
681.26	1069.39
681.60	1073.14
681.94	1065.65
682.28	1064.01
682.62	1065.65
682.96	1076.41
683.29	1075.01
683.63	1084.37
683.97	1079.69
684.31	1079.46
684.65	1072.43
684.99	1067.28
685.33	1067.75
685.67	1069.86
686.00	1072.90
686.34	1072.20
686.68	1081.56
687.02	1074.77
687.36	1081.80
687.70	1077.35
688.03	1077.82
688.37	1078.99
688.71	1081.56
689.05	1070.33
689.39	1082.73
689.72	1086.48
690.06	1079.22
690.40	1079.22
690.74	1083.90
691.08	1069.62
691.41	1072.43
691.75	1085.31
692.09	1082.26
692.43	1088.58
692.76	1098.18
693.10	1098.65
693.44	1095.37
693.78	1093.97
694.11	1091.63
694.45	1090.92
694.79	1078.05
695.13	1074.31
695.46	1086.94
695.80	1081.56
696.14	1076.18
696.48	1087.65
696.81	1092.33
697.15	1090.46
697.49	1093.26
697.82	1087.65
698.16	1087.88
698.50	1091.39
698.83	1088.58
699.17	1084.37
699.51	1091.86
699.84	1098.18
700.18	1085.77
700.52	1090.22
700.85	1088.82
701.19	1088.58
701.53	1078.75
701.86	1082.97
702.20	1077.11
702.54	1090.69
702.87	1086.24
703.21	1083.20
703.55	1080.86
703.88	1079.22
704.22	1062.60
704.55	1070.33
704.89	1076.18
705.23	1073.14
705.56	1074.54
705.90	1077.35
706.23	1066.11
706.57	1062.60
706.91	1067.05
707.24	1065.88
707.58	1068.92
707.91	1075.01
708.25	1072.67
708.58	1068.92
708.92	1079.92
709.26	1085.31
709.59	1081.33
709.93	1081.80
710.26	1085.07
710.60	1078.99
710.93	1075.71
711.27	1078.99
711.60	1083.20
711.94	1081.09
712.27	1079.92
712.61	1079.92
712.94	1067.75
713.28	1074.07
713.61	1077.58
713.95	1066.11
714.28	1064.24
714.62	1075.01
714.95	1071.50
715.29	1064.24
715.62	1075.48
715.96	1070.80
716.29	1077.58
716.63	1075.24
716.96	1086.94
717.29	1090.22
717.63	1095.84
717.96	1087.65
718.30	1080.16
718.63	1073.14
718.97	1069.39
719.30	1070.09
719.63	1078.52
719.97	1088.35
720.30	1093.26
720.64	1086.94
720.97	1088.82
721.30	1086.01
721.64	1080.39
721.97	1076.88
722.31	1081.33
722.64	1078.99
722.97	1077.82
723.31	1079.46
723.64	1082.73
723.97	1094.90
724.31	1099.82
724.64	1092.80
724.98	1087.41
725.31	1093.73
725.64	1073.84
725.98	1073.84
726.31	1082.73
726.64	1082.03
726.97	1072.20
727.31	1079.46
727.64	1071.03
727.97	1074.31
728.31	1074.31
728.64	1074.07
728.97	1073.84
729.31	1076.88
729.64	1070.33
729.97	1079.46
730.30	1067.28
730.64	1071.50
730.97	1074.31
731.30	1082.03
731.63	1080.63
731.97	1090.92
732.30	1083.90
732.63	1080.16
732.96	1074.54
733.30	1077.35
733.63	1093.03
733.96	1101.46
734.29	1107.07
734.63	1107.78
734.96	1102.39
735.29	1088.12
735.62	1080.39
735.95	1071.26
736.29	1060.96
736.62	1061.67
736.95	1072.67
737.28	1063.31
737.61	1065.18
737.94	1077.35
738.28	1078.05
738.61	1067.28
738.94	1080.39
739.27	1080.86
739.60	1076.88
739.93	1069.62
740.27	1074.77
740.60	1072.43
740.93	1068.22
741.26	1070.80
741.59	1073.14
741.92	1062.60
742.25	1069.39
742.58	1078.28
742.91	1082.50
743.25	1088.35
743.58	1089.52
743.91	1086.48
744.24	1079.92
744.57	1080.16
744.90	1087.41
745.23	1090.22
745.56	1088.12
745.89	1088.58
746.22	1074.07
746.55	1064.71
746.88	1065.41
747.21	1065.88
747.54	1069.16
747.87	1077.82
748.20	1087.41
748.53	1093.73
748.87	1086.48
749.20	1091.16
749.53	1101.46
749.86	1086.24
750.19	1084.37
750.52	1096.31
750.85	1090.46
751.18	1075.71
751.51	1078.99
751.84	1077.11
752.16	1066.35
752.49	1068.45
752.82	1072.43
753.15	1076.18
753.48	1074.77
753.81	1075.01
754.14	1078.28
754.47	1073.60
754.80	1068.92
755.13	1069.62
755.46	1079.92
755.79	1075.48
756.12	1079.46
756.45	1080.39
756.78	1081.56
757.11	1074.54
757.43	1069.62
757.76	1062.37
758.09	1066.35
758.42	1067.52
758.75	1069.39
759.08	1074.31
759.41	1082.03
759.74	1081.33
760.07	1074.54
760.39	1078.52
760.72	1085.54
761.05	1088.82
761.38	1085.77
761.71	1089.99
762.04	1083.67
762.36	1080.63
762.69	1084.60
763.02	1089.29
763.35	1088.82
763.68	1086.71
764.01	1086.24
764.33	1081.80
764.66	1079.92
764.99	1081.09
765.32	1086.71
765.65	1086.01
765.97	1082.73
766.30	1085.54
