SpectraSuite Data File
++++++++++++++++++++++++++++++++++++
Date: Mon Aug 26 10:26:08 PDT 2019
User: corrico
Dark Spectrum Present: No
Reference Spectrum Present: No
Number of Sampled Component Spectra: 1
Spectrometers: USB2+H06089
Integration Time (usec): 10000 (USB2+H06089)
Spectra Averaged: 20 (USB2+H06089)
Boxcar Smoothing: 2 (USB2+H06089)
Correct for Electrical Dark: No (USB2+H06089)
Strobe/Lamp Enabled: No (USB2+H06089)
Correct for Detector Non-linearity: No (USB2+H06089)
Correct for Stray Light: No (USB2+H06089)
Number of Pixels in Processed Spectrum: 2048
>>>>>Begin Processed Spectral Data<<<<<
339.70	1032.06
340.07	1032.06
340.45	993.91
340.82	972.26
341.19	948.53
341.57	923.22
341.94	914.28
342.31	907.14
342.69	902.53
343.06	898.84
343.43	896.03
343.81	897.67
344.18	899.42
344.55	904.66
344.93	912.41
345.30	924.93
345.67	935.25
346.04	943.47
346.42	949.93
346.79	954.56
347.16	958.07
347.54	960.27
347.91	968.63
348.28	978.55
348.65	990.54
349.03	1000.16
349.40	1012.23
349.77	1023.02
350.14	1028.81
350.52	1035.01
350.89	1042.36
351.26	1047.23
351.63	1052.07
352.01	1057.88
352.38	1060.47
352.75	1062.25
353.12	1065.55
353.50	1068.03
353.87	1071.12
354.24	1076.48
354.61	1078.43
354.98	1079.43
355.36	1078.66
355.73	1077.44
356.10	1078.80
356.47	1080.74
356.84	1083.50
357.22	1085.99
357.59	1087.90
357.96	1086.94
358.33	1086.06
358.70	1086.34
359.08	1082.50
359.45	1083.39
359.82	1080.95
360.19	1081.63
360.56	1078.28
360.94	1079.08
361.31	1078.43
361.68	1079.64
362.05	1078.71
362.42	1078.68
362.79	1077.42
363.16	1074.91
363.54	1073.44
363.91	1073.53
364.28	1077.18
364.65	1076.90
365.02	1073.93
365.39	1069.67
365.76	1070.56
366.14	1067.87
366.51	1068.81
366.88	1071.45
367.25	1074.49
367.62	1071.43
367.99	1067.17
368.36	1064.94
368.73	1064.90
369.10	1065.01
369.48	1064.55
369.85	1067.28
370.22	1069.41
370.59	1071.71
370.96	1071.26
371.33	1071.99
371.70	1071.92
372.07	1073.91
372.44	1072.41
372.81	1072.78
373.18	1071.73
373.55	1068.59
373.93	1066.70
374.30	1067.24
374.67	1068.24
375.04	1069.20
375.41	1072.69
375.78	1072.90
376.15	1072.60
376.52	1071.90
376.89	1072.01
377.26	1072.74
377.63	1072.83
378.00	1074.14
378.37	1075.41
378.74	1078.47
379.11	1080.65
379.48	1081.21
379.85	1079.36
380.22	1078.40
380.59	1077.61
380.96	1075.85
381.33	1077.70
381.70	1075.87
382.07	1076.58
382.44	1074.38
382.81	1072.97
383.18	1073.11
383.55	1074.63
383.92	1075.20
384.29	1079.57
384.66	1082.73
385.03	1081.28
385.40	1082.19
385.77	1082.99
386.14	1078.36
386.51	1072.13
386.88	1071.52
387.25	1067.75
387.62	1064.73
387.99	1064.31
388.36	1069.65
388.73	1070.96
389.10	1075.76
389.46	1076.76
389.83	1077.44
390.20	1077.82
390.57	1073.79
390.94	1069.84
391.31	1068.50
391.68	1068.85
392.05	1066.91
392.42	1069.34
392.79	1073.46
393.16	1073.23
393.53	1071.22
393.89	1075.03
394.26	1072.95
394.63	1071.50
395.00	1073.84
395.37	1075.71
395.74	1071.17
396.11	1073.72
396.48	1078.10
396.84	1074.73
397.21	1076.44
397.58	1080.67
397.95	1079.97
398.32	1078.61
398.69	1083.60
399.06	1082.71
399.42	1079.36
399.79	1081.07
400.16	1078.57
400.53	1076.72
400.90	1078.78
401.27	1080.30
401.64	1079.13
402.00	1078.33
402.37	1080.37
402.74	1078.47
403.11	1079.57
403.48	1076.60
403.84	1075.27
404.21	1074.98
404.58	1078.21
404.95	1076.74
405.32	1079.76
405.68	1078.54
406.05	1077.75
406.42	1075.90
406.79	1076.79
407.16	1078.38
407.52	1080.88
407.89	1079.90
408.26	1078.71
408.63	1077.42
408.99	1078.43
409.36	1079.76
409.73	1079.88
410.10	1077.84
410.47	1077.63
410.83	1076.23
411.20	1076.58
411.57	1076.46
411.94	1077.75
412.30	1077.77
412.67	1081.70
413.04	1081.14
413.40	1083.67
413.77	1086.97
414.14	1087.04
414.51	1084.60
414.87	1084.11
415.24	1084.16
415.61	1080.56
415.97	1080.88
416.34	1079.15
416.71	1081.09
417.08	1080.56
417.44	1082.01
417.81	1085.26
418.18	1087.88
418.54	1085.33
418.91	1087.44
419.28	1084.72
419.64	1082.73
420.01	1080.48
420.38	1081.54
420.74	1077.58
421.11	1080.51
421.48	1079.43
421.84	1080.79
422.21	1080.51
422.58	1081.44
422.94	1083.22
423.31	1085.10
423.68	1084.89
424.04	1085.77
424.41	1088.49
424.77	1089.92
425.14	1090.43
425.51	1090.71
425.87	1093.57
426.24	1090.48
426.61	1087.58
426.97	1087.97
427.34	1088.21
427.70	1086.59
428.07	1086.17
428.44	1088.65
428.80	1087.04
429.17	1086.08
429.53	1087.53
429.90	1086.24
430.27	1082.76
430.63	1082.92
431.00	1083.74
431.36	1079.76
431.73	1085.12
432.09	1086.34
432.46	1086.76
432.83	1084.16
433.19	1081.61
433.56	1080.74
433.92	1082.01
434.29	1081.91
434.65	1085.10
435.02	1090.10
435.38	1089.05
435.75	1089.33
436.11	1086.34
436.48	1087.25
436.84	1087.18
437.21	1086.94
437.57	1084.53
437.94	1086.50
438.30	1088.77
438.67	1089.59
439.03	1088.42
439.40	1087.39
439.76	1085.96
440.13	1081.12
440.49	1079.34
440.86	1078.75
441.22	1080.72
441.59	1085.45
441.95	1087.39
442.32	1089.59
442.68	1090.95
443.05	1089.10
443.41	1086.36
443.78	1083.22
444.14	1079.71
444.51	1077.72
444.87	1080.56
445.24	1078.59
445.60	1078.85
445.96	1083.69
446.33	1086.48
446.69	1086.57
447.06	1088.75
447.42	1088.93
447.79	1084.14
448.15	1084.89
448.51	1084.18
448.88	1085.87
449.24	1086.48
449.61	1085.54
449.97	1083.04
450.33	1085.38
450.70	1082.10
451.06	1081.26
451.43	1083.32
451.79	1084.67
452.15	1080.06
452.52	1082.22
452.88	1079.85
453.24	1081.02
453.61	1080.65
453.97	1084.93
454.34	1085.00
454.70	1090.57
455.06	1088.96
455.43	1090.17
455.79	1086.36
456.15	1084.74
456.52	1083.18
456.88	1085.52
457.24	1081.82
457.61	1081.91
457.97	1083.27
458.33	1085.14
458.70	1083.34
459.06	1085.89
459.42	1085.77
459.79	1085.10
460.15	1082.94
460.51	1085.68
460.88	1086.76
461.24	1089.24
461.60	1090.81
461.96	1091.67
462.33	1089.73
462.69	1089.12
463.05	1084.53
463.42	1082.85
463.78	1085.59
464.14	1083.97
464.50	1082.97
464.87	1087.72
465.23	1087.58
465.59	1087.74
465.95	1089.71
466.32	1090.69
466.68	1091.81
467.04	1093.08
467.40	1091.11
467.77	1092.07
468.13	1092.12
468.49	1091.16
468.85	1092.16
469.22	1090.64
469.58	1091.60
469.94	1090.55
470.30	1087.55
470.66	1084.81
471.03	1084.04
471.39	1080.51
471.75	1082.15
472.11	1086.29
472.47	1088.26
472.84	1090.43
473.20	1094.83
473.56	1094.34
473.92	1093.55
474.28	1093.55
474.65	1090.32
475.01	1089.38
475.37	1093.45
475.73	1097.03
476.09	1097.29
476.45	1101.32
476.81	1103.91
477.18	1102.81
477.54	1101.41
477.90	1102.51
478.26	1101.67
478.62	1103.52
478.98	1104.31
479.34	1106.02
479.71	1107.52
480.07	1109.60
480.43	1108.95
480.79	1110.09
481.15	1111.31
481.51	1114.91
481.87	1118.94
482.23	1117.98
482.59	1119.10
482.96	1120.32
483.32	1121.47
483.68	1125.19
484.04	1133.87
484.40	1137.17
484.76	1143.07
485.12	1146.79
485.48	1148.71
485.84	1148.78
486.20	1151.66
486.56	1152.85
486.92	1156.81
487.28	1161.77
487.64	1164.37
488.00	1167.86
488.37	1172.70
488.73	1180.00
489.09	1182.58
489.45	1189.60
489.81	1197.23
490.17	1203.34
490.53	1211.27
490.89	1219.21
491.25	1226.00
491.61	1232.57
491.97	1238.33
492.33	1245.89
492.69	1256.61
493.05	1266.49
493.41	1278.31
493.77	1290.06
494.13	1299.40
494.49	1310.21
494.85	1324.09
495.21	1334.99
495.57	1348.31
495.93	1357.58
496.29	1366.62
496.64	1374.64
497.00	1387.21
497.36	1401.63
497.72	1419.18
498.08	1438.73
498.44	1462.30
498.80	1486.99
499.16	1505.08
499.52	1525.12
499.88	1548.01
500.24	1572.09
500.60	1596.78
500.96	1629.25
501.32	1658.32
501.68	1682.99
502.03	1708.87
502.39	1739.25
502.75	1771.13
503.11	1809.21
503.47	1855.83
503.83	1892.72
504.19	1927.52
504.55	1967.08
504.91	2007.22
505.26	2045.82
505.62	2093.23
505.98	2145.08
506.34	2191.05
506.70	2234.49
507.06	2283.36
507.42	2340.47
507.78	2397.32
508.13	2468.42
508.49	2543.69
508.85	2619.71
509.21	2694.85
509.57	2780.44
509.93	2861.94
510.28	2945.70
510.64	3032.40
511.00	3127.21
511.36	3209.55
511.72	3293.18
512.07	3385.19
512.43	3477.59
512.79	3565.97
513.15	3659.76
513.51	3745.00
513.86	3834.66
514.22	3932.66
514.58	4034.48
514.94	4148.15
515.30	4281.80
515.65	4408.40
516.01	4531.46
516.37	4660.87
516.73	4794.52
517.08	4926.36
517.44	5061.10
517.80	5188.31
518.16	5311.59
518.51	5404.74
518.87	5480.60
519.23	5558.94
519.59	5634.58
519.94	5702.50
520.30	5792.15
520.66	5868.14
521.01	5953.43
521.37	6044.57
521.73	6131.36
522.09	6208.58
522.44	6322.75
522.80	6434.79
523.16	6549.76
523.51	6653.30
523.87	6765.93
524.23	6855.15
524.58	6885.97
524.94	6907.25
525.30	6934.19
525.65	6934.42
526.01	6916.63
526.37	6916.42
526.72	6896.83
527.08	6863.18
527.44	6824.63
527.79	6781.61
528.15	6741.28
528.51	6702.40
528.86	6656.13
529.22	6610.80
529.58	6560.90
529.93	6515.72
530.29	6471.16
530.65	6423.41
531.00	6367.66
531.36	6312.73
531.71	6243.03
532.07	6173.79
532.43	6104.09
532.78	6037.48
533.14	5966.75
533.49	5890.78
533.85	5805.44
534.21	5721.65
534.56	5634.18
534.92	5534.22
535.27	5446.99
535.63	5363.27
535.98	5277.84
536.34	5199.94
536.69	5142.04
537.05	5063.91
537.41	4993.86
537.76	4933.47
538.12	4870.16
538.47	4798.19
538.83	4737.69
539.18	4672.15
539.54	4599.95
539.89	4529.57
540.25	4472.20
540.60	4409.38
540.96	4333.69
541.31	4257.86
541.67	4181.91
542.02	4102.91
542.38	4044.28
542.73	3988.86
543.09	3937.51
543.44	3886.13
543.80	3833.47
544.15	3771.45
544.51	3718.95
544.86	3663.43
545.22	3609.71
545.57	3561.64
545.93	3516.91
546.28	3481.97
546.64	3447.82
546.99	3408.26
547.35	3367.12
547.70	3332.69
548.05	3286.02
548.41	3241.13
548.76	3198.13
549.12	3151.81
549.47	3102.10
549.83	3051.75
550.18	2994.50
550.53	2944.98
550.89	2901.61
551.24	2852.53
551.60	2813.79
551.95	2777.47
552.30	2736.23
552.66	2706.46
553.01	2677.83
553.37	2637.90
553.72	2614.03
554.07	2593.59
554.43	2560.92
554.78	2533.35
555.13	2505.43
555.49	2467.77
555.84	2428.68
556.19	2386.57
556.55	2346.46
556.90	2315.96
557.26	2283.22
557.61	2251.78
557.96	2225.85
558.32	2195.77
558.67	2167.76
559.02	2142.55
559.37	2117.88
559.73	2088.48
560.08	2062.67
560.43	2033.46
560.79	2010.38
561.14	1982.57
561.49	1961.56
561.85	1942.15
562.20	1926.85
562.55	1903.56
562.90	1889.87
563.26	1876.52
563.61	1855.90
563.96	1833.79
564.32	1817.71
564.67	1798.87
565.02	1779.88
565.37	1766.47
565.73	1750.16
566.08	1732.16
566.43	1713.48
566.78	1691.72
567.14	1670.89
567.49	1653.14
567.84	1640.69
568.19	1630.21
568.54	1622.46
568.90	1610.29
569.25	1597.04
569.60	1583.00
569.95	1571.74
570.31	1557.35
570.66	1548.69
571.01	1539.16
571.36	1526.83
571.71	1514.51
572.06	1505.60
572.42	1494.08
572.77	1482.38
573.12	1472.52
573.47	1464.31
573.82	1453.24
574.18	1443.83
574.53	1435.75
574.88	1425.53
575.23	1413.36
575.58	1402.00
575.93	1393.04
576.28	1380.68
576.64	1378.72
576.99	1371.55
577.34	1366.08
577.69	1358.49
578.04	1353.58
578.39	1343.35
578.74	1337.10
579.09	1332.35
579.44	1327.55
579.80	1322.66
580.15	1318.00
580.50	1310.84
580.85	1306.65
581.20	1298.93
581.55	1290.24
581.90	1286.87
582.25	1280.69
582.60	1276.69
582.95	1274.94
583.30	1274.21
583.65	1269.27
584.00	1267.28
584.35	1258.97
584.71	1253.19
585.06	1246.69
585.41	1237.61
585.76	1231.89
586.11	1228.41
586.46	1224.59
586.81	1222.72
587.16	1219.00
587.51	1216.96
587.86	1214.18
588.21	1211.34
588.56	1209.05
588.91	1208.51
589.26	1203.81
589.61	1196.27
589.96	1192.13
590.31	1188.36
590.66	1183.23
591.01	1181.90
591.36	1180.31
591.71	1177.62
592.06	1173.45
592.41	1172.82
592.76	1165.68
593.10	1162.52
593.45	1159.88
593.80	1161.23
594.15	1157.25
594.50	1161.02
594.85	1162.73
595.20	1159.74
595.55	1158.87
595.90	1161.61
596.25	1158.19
596.60	1155.87
596.95	1156.62
597.30	1153.11
597.64	1199.24
597.99	1199.97
598.34	1199.27
598.69	1199.50
599.04	1199.95
599.39	1145.60
599.74	1142.95
600.09	1141.53
600.44	1138.06
600.78	1136.61
601.13	1137.48
601.48	1138.27
601.83	1136.26
602.18	1135.35
602.53	1132.05
602.88	1132.02
603.22	1124.58
603.57	1121.87
603.92	1122.90
604.27	1122.43
604.62	1120.67
604.97	1120.27
605.31	1119.17
605.66	1115.31
606.01	1114.45
606.36	1112.64
606.71	1113.74
607.05	1115.87
607.40	1117.44
607.75	1117.14
608.10	1115.10
608.44	1114.09
608.79	1113.86
609.14	1111.33
609.49	1107.68
609.84	1109.67
610.18	1110.91
610.53	1110.16
610.88	1111.92
611.23	1116.01
611.57	1112.83
611.92	1109.65
612.27	1107.42
612.62	1104.94
612.96	1099.93
613.31	1101.55
613.66	1102.88
614.00	1103.23
614.35	1101.08
614.70	1101.41
615.05	1099.65
615.39	1097.06
615.74	1093.76
616.09	1093.90
616.43	1093.38
616.78	1092.12
617.13	1090.41
617.47	1091.81
617.82	1094.90
618.17	1095.32
618.51	1095.98
618.86	1103.68
619.21	1105.88
619.55	1106.46
619.90	1107.10
620.25	1107.33
620.59	1103.02
620.94	1101.90
621.29	1101.01
621.63	1097.59
621.98	1095.23
622.32	1095.25
622.67	1098.13
623.02	1096.00
623.36	1097.06
623.71	1097.55
624.05	1096.73
624.40	1088.98
624.75	1091.88
625.09	1091.86
625.44	1090.69
625.78	1089.64
626.13	1094.76
626.48	1093.94
626.82	1094.79
627.17	1095.60
627.51	1095.44
627.86	1091.81
628.20	1088.37
628.55	1090.32
628.89	1089.38
629.24	1090.90
629.58	1092.26
629.93	1091.06
630.28	1087.44
630.62	1088.82
630.97	1085.14
631.31	1085.99
631.66	1086.78
632.00	1088.65
632.35	1087.13
632.69	1089.31
633.04	1088.16
633.38	1087.30
633.73	1086.83
634.07	1090.78
634.42	1089.89
634.76	1087.95
635.11	1087.04
635.45	1086.48
635.79	1081.44
636.14	1081.58
636.48	1085.21
636.83	1085.75
637.17	1085.91
637.52	1089.26
637.86	1091.32
638.21	1091.06
638.55	1090.99
638.89	1091.77
639.24	1091.49
639.58	1090.81
639.93	1085.96
640.27	1085.45
640.61	1085.35
640.96	1085.73
641.30	1084.79
641.65	1087.88
641.99	1089.33
642.33	1086.10
642.68	1082.83
643.02	1083.88
643.37	1081.44
643.71	1081.49
644.05	1082.94
644.40	1083.06
644.74	1084.56
645.08	1086.36
645.43	1085.40
645.77	1086.57
646.11	1088.16
646.46	1084.30
646.80	1081.14
647.14	1083.29
647.49	1080.58
647.83	1080.13
648.17	1083.39
648.52	1083.74
648.86	1081.73
649.20	1085.70
649.55	1088.47
649.89	1085.96
650.23	1091.42
650.57	1093.24
650.92	1092.75
651.26	1088.14
651.60	1088.54
651.95	1086.43
652.29	1085.80
652.63	1082.29
652.97	1085.70
653.32	1084.00
653.66	1084.51
654.00	1081.12
654.34	1084.65
654.69	1084.11
655.03	1084.58
655.37	1082.26
655.71	1083.81
656.05	1081.49
656.40	1077.42
656.74	1079.74
657.08	1081.66
657.42	1081.35
657.76	1078.80
658.11	1082.22
658.45	1080.23
658.79	1080.48
659.13	1081.07
659.47	1083.13
659.82	1081.63
660.16	1082.50
660.50	1079.60
660.84	1079.90
661.18	1080.93
661.52	1080.70
661.87	1082.22
662.21	1084.91
662.55	1082.59
662.89	1081.28
663.23	1080.77
663.57	1076.23
663.91	1075.08
664.25	1078.99
664.60	1079.60
664.94	1082.12
665.28	1084.91
665.62	1084.77
665.96	1085.77
666.30	1085.66
666.64	1087.23
666.98	1085.05
667.32	1085.75
667.66	1083.48
668.01	1084.89
668.35	1084.79
668.69	1086.94
669.03	1085.59
669.37	1084.74
669.71	1081.33
670.05	1077.35
670.39	1075.17
670.73	1075.97
671.07	1075.76
671.41	1076.93
671.75	1078.14
672.09	1080.70
672.43	1081.84
672.77	1085.99
673.11	1086.69
673.45	1088.14
673.79	1087.37
674.13	1087.67
674.47	1083.62
674.81	1085.31
675.15	1083.86
675.49	1084.02
675.83	1080.25
676.17	1081.77
676.51	1079.67
676.85	1080.98
677.19	1085.56
677.53	1091.27
677.87	1090.83
678.21	1087.76
678.55	1085.70
678.89	1081.19
679.23	1079.29
679.57	1079.41
679.90	1082.66
680.24	1085.00
680.58	1085.80
680.92	1082.15
681.26	1083.22
681.60	1080.30
681.94	1079.67
682.28	1077.65
682.62	1079.53
682.96	1076.06
683.29	1079.81
683.63	1078.80
683.97	1081.98
684.31	1080.11
684.65	1079.60
684.99	1077.54
685.33	1078.82
685.67	1076.86
686.00	1079.74
686.34	1080.20
686.68	1084.32
687.02	1085.87
687.36	1086.80
687.70	1088.58
688.03	1089.12
688.37	1086.38
688.71	1087.44
689.05	1086.13
689.39	1083.60
689.72	1085.24
690.06	1083.67
690.40	1081.56
690.74	1080.88
691.08	1082.15
691.41	1083.13
691.75	1083.55
692.09	1082.38
692.43	1082.99
692.76	1079.83
693.10	1076.53
693.44	1078.38
693.78	1079.83
694.11	1079.71
694.45	1082.36
694.79	1086.50
695.13	1087.25
695.46	1087.97
695.80	1086.78
696.14	1087.16
696.48	1086.50
696.81	1084.53
697.15	1082.01
697.49	1080.86
697.82	1081.07
698.16	1080.41
698.50	1083.15
698.83	1085.54
699.17	1087.25
699.51	1083.93
699.84	1082.38
700.18	1079.15
700.52	1084.04
700.85	1086.15
701.19	1090.03
701.53	1091.39
701.86	1091.86
702.20	1083.83
702.54	1079.53
702.87	1080.63
703.21	1079.92
703.55	1078.71
703.88	1081.80
704.22	1084.21
704.55	1083.57
704.89	1082.73
705.23	1085.99
705.56	1085.77
705.90	1088.42
706.23	1084.53
706.57	1086.59
706.91	1084.00
707.24	1082.66
707.58	1079.76
707.91	1082.01
708.25	1082.99
708.58	1082.17
708.92	1082.03
709.26	1084.11
709.59	1084.11
709.93	1083.36
710.26	1084.77
710.60	1084.74
710.93	1084.81
711.27	1083.41
711.60	1083.97
711.94	1085.87
712.27	1084.11
712.61	1082.85
712.94	1084.84
713.28	1081.30
713.61	1078.59
713.95	1080.86
714.28	1081.51
714.62	1080.20
714.95	1083.08
715.29	1084.63
715.62	1084.46
715.96	1085.12
716.29	1085.49
716.63	1084.60
716.96	1088.61
717.29	1088.28
717.63	1088.30
717.96	1090.27
718.30	1088.42
718.63	1084.91
718.97	1083.62
719.30	1081.63
719.63	1081.12
719.97	1083.13
720.30	1082.71
720.64	1085.75
720.97	1084.84
721.30	1084.14
721.64	1083.11
721.97	1083.71
722.31	1080.88
722.64	1082.45
722.97	1080.09
723.31	1081.19
723.64	1077.14
723.97	1077.11
724.31	1073.72
724.64	1072.67
724.98	1071.12
725.31	1071.73
725.64	1072.83
725.98	1074.68
726.31	1078.61
726.64	1080.56
726.97	1083.36
727.31	1082.99
727.64	1085.63
727.97	1082.47
728.31	1084.74
728.64	1086.01
728.97	1083.62
729.31	1084.51
729.64	1084.89
729.97	1078.92
730.30	1076.44
730.64	1077.96
730.97	1075.20
731.30	1074.82
731.63	1079.17
731.97	1078.33
732.30	1079.24
732.63	1077.28
732.96	1077.42
733.30	1073.53
733.63	1075.66
733.96	1076.25
734.29	1081.35
734.63	1081.42
734.96	1083.13
735.29	1081.00
735.62	1081.05
735.95	1079.31
736.29	1083.32
736.62	1084.60
736.95	1088.35
737.28	1085.28
737.61	1084.58
737.94	1081.37
738.28	1085.10
738.61	1083.67
738.94	1086.78
739.27	1087.51
739.60	1089.99
739.93	1087.93
740.27	1083.93
740.60	1084.00
740.93	1083.97
741.26	1080.88
741.59	1078.40
741.92	1079.78
742.25	1081.75
742.58	1080.37
742.91	1080.74
743.25	1079.97
743.58	1079.83
743.91	1079.67
744.24	1077.89
744.57	1079.95
744.90	1081.63
745.23	1083.39
745.56	1082.73
745.89	1086.43
746.22	1081.91
746.55	1079.10
746.88	1080.18
747.21	1076.25
747.54	1076.55
747.87	1081.87
748.20	1082.80
748.53	1082.66
748.87	1086.99
749.20	1085.14
749.53	1082.57
749.86	1082.66
750.19	1081.07
750.52	1079.27
750.85	1082.03
751.18	1083.36
751.51	1082.15
751.84	1083.39
752.16	1083.29
752.49	1080.02
752.82	1077.40
753.15	1080.79
753.48	1079.78
753.81	1080.39
754.14	1081.33
754.47	1082.83
754.80	1083.06
755.13	1083.79
755.46	1078.52
755.79	1077.40
756.12	1081.28
756.45	1079.36
756.78	1078.94
757.11	1082.97
757.43	1081.75
757.76	1077.40
758.09	1076.04
758.42	1078.80
758.75	1077.84
759.08	1078.82
759.41	1078.28
759.74	1080.65
760.07	1080.51
760.39	1083.57
760.72	1085.10
761.05	1085.17
761.38	1084.81
761.71	1083.50
762.04	1080.79
762.36	1082.78
762.69	1082.85
763.02	1083.18
763.35	1081.47
763.68	1079.34
764.01	1075.01
764.33	1076.97
764.66	1075.24
764.99	1073.04
765.32	1076.23
765.65	1077.54
765.97	1076.83
766.30	1079.41
