SpectraSuite Data File
++++++++++++++++++++++++++++++++++++
Date: Mon Aug 26 10:26:05 PDT 2019
User: corrico
Dark Spectrum Present: No
Reference Spectrum Present: No
Number of Sampled Component Spectra: 1
Spectrometers: USB2+H06089
Integration Time (usec): 10000 (USB2+H06089)
Spectra Averaged: 20 (USB2+H06089)
Boxcar Smoothing: 2 (USB2+H06089)
Correct for Electrical Dark: No (USB2+H06089)
Strobe/Lamp Enabled: No (USB2+H06089)
Correct for Detector Non-linearity: No (USB2+H06089)
Correct for Stray Light: No (USB2+H06089)
Number of Pixels in Processed Spectrum: 2048
>>>>>Begin Processed Spectral Data<<<<<
339.70	1028.20
340.07	1028.20
340.45	994.80
340.82	974.20
341.19	952.62
341.57	929.71
341.94	920.98
342.31	914.59
342.69	910.09
343.06	906.30
343.43	903.14
343.81	902.04
344.18	902.77
344.55	906.04
344.93	910.05
345.30	917.21
345.67	925.56
346.04	935.00
346.42	945.44
346.79	954.84
347.16	960.88
347.54	969.80
347.91	975.04
348.28	979.87
348.65	988.01
349.03	999.20
349.40	1005.42
349.77	1015.89
350.14	1024.57
350.52	1032.97
350.89	1038.78
351.26	1045.17
351.63	1051.13
352.01	1054.06
352.38	1058.86
352.75	1062.46
353.12	1065.06
353.50	1066.89
353.87	1070.98
354.24	1067.92
354.61	1069.27
354.98	1070.70
355.36	1072.41
355.73	1071.40
356.10	1074.10
356.47	1074.42
356.84	1076.72
357.22	1075.20
357.59	1077.77
357.96	1080.46
358.33	1081.89
358.70	1079.48
359.08	1080.11
359.45	1078.78
359.82	1077.07
360.19	1076.95
360.56	1076.32
360.94	1077.02
361.31	1077.23
361.68	1075.99
362.05	1072.90
362.42	1071.85
362.79	1071.61
363.16	1069.81
363.54	1068.67
363.91	1068.06
364.28	1068.17
364.65	1067.73
365.02	1067.64
365.39	1067.68
365.76	1068.48
366.14	1068.83
366.51	1068.43
366.88	1069.46
367.25	1071.73
367.62	1072.06
367.99	1068.85
368.36	1066.91
368.73	1066.37
369.10	1063.16
369.48	1062.16
369.85	1069.41
370.22	1069.06
370.59	1069.81
370.96	1070.35
371.33	1071.22
371.70	1065.65
372.07	1068.69
372.44	1065.60
372.81	1068.95
373.18	1071.45
373.55	1075.15
373.93	1071.31
374.30	1074.91
374.67	1074.87
375.04	1071.99
375.41	1070.72
375.78	1071.29
376.15	1070.70
376.52	1064.43
376.89	1064.99
377.26	1064.62
377.63	1064.03
378.00	1065.46
378.37	1071.03
378.74	1071.50
379.11	1073.56
379.48	1075.27
379.85	1074.91
380.22	1075.48
380.59	1073.65
380.96	1071.94
381.33	1073.88
381.70	1072.85
382.07	1068.41
382.44	1069.77
382.81	1070.42
383.18	1067.89
383.55	1066.86
383.92	1070.65
384.29	1070.72
384.66	1069.06
385.03	1068.99
385.40	1070.07
385.77	1068.57
386.14	1069.58
386.51	1072.71
386.88	1075.76
387.25	1075.45
387.62	1077.98
387.99	1076.67
388.36	1076.34
388.73	1075.90
389.10	1078.17
389.46	1079.55
389.83	1080.60
390.20	1077.40
390.57	1074.75
390.94	1074.00
391.31	1072.18
391.68	1073.02
392.05	1076.15
392.42	1078.07
392.79	1078.14
393.16	1071.99
393.53	1070.35
393.89	1071.29
394.26	1070.75
394.63	1070.51
395.00	1073.95
395.37	1073.28
395.74	1075.13
396.11	1076.25
396.48	1074.49
396.84	1076.67
397.21	1080.56
397.58	1075.62
397.95	1075.85
398.32	1076.06
398.69	1073.16
399.06	1072.08
399.42	1071.97
399.79	1070.05
400.16	1069.39
400.53	1071.92
400.90	1070.61
401.27	1072.08
401.64	1073.88
402.00	1077.00
402.37	1079.95
402.74	1081.07
403.11	1082.43
403.48	1081.12
403.84	1079.97
404.21	1077.54
404.58	1076.53
404.95	1074.42
405.32	1074.07
405.68	1072.11
406.05	1074.82
406.42	1074.00
406.79	1074.21
407.16	1077.70
407.52	1079.06
407.89	1074.98
408.26	1075.45
408.63	1077.25
408.99	1075.87
409.36	1075.92
409.73	1078.28
410.10	1081.09
410.47	1080.34
410.83	1078.45
411.20	1078.36
411.57	1072.85
411.94	1074.52
412.30	1071.99
412.67	1071.61
413.04	1074.84
413.40	1078.24
413.77	1073.58
414.14	1075.20
414.51	1076.15
414.87	1073.18
415.24	1071.43
415.61	1076.08
415.97	1076.04
416.34	1075.01
416.71	1074.73
417.08	1077.49
417.44	1073.07
417.81	1072.46
418.18	1074.12
418.54	1077.33
418.91	1079.34
419.28	1079.78
419.64	1082.15
420.01	1081.47
420.38	1078.50
420.74	1076.44
421.11	1077.28
421.48	1077.25
421.84	1074.19
422.21	1074.49
422.58	1072.01
422.94	1070.19
423.31	1070.89
423.68	1074.47
424.04	1074.91
424.41	1076.08
424.77	1080.34
425.14	1078.68
425.51	1079.20
425.87	1078.80
426.24	1081.00
426.61	1079.27
426.97	1078.94
427.34	1075.76
427.70	1075.90
428.07	1073.67
428.44	1070.68
428.80	1067.71
429.17	1068.55
429.53	1069.09
429.90	1070.16
430.27	1073.35
430.63	1077.35
431.00	1078.31
431.36	1076.18
431.73	1074.91
432.09	1073.11
432.46	1075.59
432.83	1078.21
433.19	1079.43
433.56	1082.50
433.92	1084.16
434.29	1081.91
434.65	1079.76
435.02	1079.60
435.38	1079.76
435.75	1079.34
436.11	1075.73
436.48	1078.64
436.84	1084.09
437.21	1083.41
437.57	1085.35
437.94	1087.41
438.30	1085.61
438.67	1080.25
439.03	1080.34
439.40	1077.79
439.76	1077.37
440.13	1078.28
440.49	1076.74
440.86	1074.82
441.22	1074.56
441.59	1075.43
441.95	1076.11
442.32	1076.20
442.68	1080.34
443.05	1083.88
443.41	1086.27
443.78	1083.60
444.14	1082.69
444.51	1081.96
444.87	1080.56
445.24	1080.34
445.60	1082.64
445.96	1085.05
446.33	1084.30
446.69	1080.77
447.06	1078.96
447.42	1075.78
447.79	1076.39
448.15	1072.95
448.51	1077.93
448.88	1079.50
449.24	1081.40
449.61	1080.86
449.97	1082.73
450.33	1078.57
450.70	1078.10
451.06	1078.12
451.43	1079.43
451.79	1080.04
452.15	1081.30
452.52	1081.56
452.88	1083.39
453.24	1086.31
453.61	1087.76
453.97	1090.46
454.34	1087.02
454.70	1083.34
455.06	1080.81
455.43	1079.01
455.79	1075.01
456.15	1078.52
456.52	1080.51
456.88	1078.64
457.24	1079.22
457.61	1080.34
457.97	1076.86
458.33	1073.70
458.70	1074.21
459.06	1073.02
459.42	1074.40
459.79	1075.50
460.15	1078.94
460.51	1079.90
460.88	1080.18
461.24	1080.58
461.60	1083.43
461.96	1080.72
462.33	1079.20
462.69	1082.52
463.05	1081.14
463.42	1079.20
463.78	1081.47
464.14	1083.97
464.50	1081.82
464.87	1078.96
465.23	1081.16
465.59	1080.32
465.95	1079.43
466.32	1081.77
466.68	1084.67
467.04	1079.85
467.40	1082.08
467.77	1081.77
468.13	1080.06
468.49	1079.71
468.85	1081.56
469.22	1080.65
469.58	1079.99
469.94	1077.98
470.30	1075.92
470.66	1077.23
471.03	1077.84
471.39	1080.34
471.75	1084.58
472.11	1086.06
472.47	1088.42
472.84	1085.73
473.20	1083.27
473.56	1078.68
473.92	1080.20
474.28	1078.52
474.65	1077.40
475.01	1078.07
475.37	1078.52
475.73	1079.10
476.09	1078.40
476.45	1079.97
476.81	1076.74
477.18	1076.13
477.54	1074.10
477.90	1073.56
478.26	1074.17
478.62	1075.90
478.98	1077.86
479.34	1080.11
479.71	1080.56
480.07	1083.27
480.43	1084.39
480.79	1082.99
481.15	1081.77
481.51	1079.97
481.87	1078.89
482.23	1080.25
482.59	1078.82
482.96	1078.07
483.32	1080.34
483.68	1082.19
484.04	1084.56
484.40	1086.71
484.76	1088.40
485.12	1088.33
485.48	1083.71
485.84	1081.70
486.20	1084.37
486.56	1082.92
486.92	1079.92
487.28	1081.75
487.64	1079.76
488.00	1077.68
488.37	1077.70
488.73	1079.53
489.09	1080.95
489.45	1081.07
489.81	1080.27
490.17	1080.53
490.53	1082.45
490.89	1080.04
491.25	1080.34
491.61	1080.11
491.97	1077.40
492.33	1076.58
492.69	1077.65
493.05	1078.14
493.41	1078.61
493.77	1084.00
494.13	1086.99
494.49	1086.64
494.85	1086.41
495.21	1085.91
495.57	1086.22
495.93	1082.61
496.29	1083.18
496.64	1084.53
497.00	1083.79
497.36	1081.40
497.72	1081.94
498.08	1082.94
498.44	1085.12
498.80	1084.72
499.16	1083.50
499.52	1083.60
499.88	1082.05
500.24	1077.18
500.60	1081.28
500.96	1082.64
501.32	1083.41
501.68	1084.81
502.03	1084.37
502.39	1082.59
502.75	1081.19
503.11	1082.15
503.47	1080.16
503.83	1081.14
504.19	1081.63
504.55	1084.02
504.91	1083.55
505.26	1088.47
505.62	1089.36
505.98	1088.49
506.34	1088.58
506.70	1087.18
507.06	1082.80
507.42	1081.91
507.78	1084.46
508.13	1083.74
508.49	1084.86
508.85	1084.44
509.21	1086.15
509.57	1082.19
509.93	1080.46
510.28	1080.06
510.64	1079.74
511.00	1079.46
511.36	1078.92
511.72	1079.95
512.07	1079.01
512.43	1082.52
512.79	1085.19
513.15	1086.92
513.51	1087.83
513.86	1091.18
514.22	1091.37
514.58	1089.59
514.94	1090.67
515.30	1091.27
515.65	1090.10
516.01	1086.48
516.37	1084.51
516.73	1086.17
517.08	1082.87
517.44	1083.86
517.80	1085.82
518.16	1086.10
518.51	1085.38
518.87	1086.17
519.23	1083.43
519.59	1085.45
519.94	1087.69
520.30	1089.24
520.66	1091.32
521.01	1093.52
521.37	1090.71
521.73	1090.81
522.09	1086.43
522.44	1088.86
522.80	1090.85
523.16	1091.53
523.51	1090.53
523.87	1096.33
524.23	1097.10
524.58	1092.68
524.94	1094.69
525.30	1097.43
525.65	1094.67
526.01	1089.96
526.37	1091.16
526.72	1088.72
527.08	1083.20
527.44	1083.32
527.79	1084.16
528.15	1084.23
528.51	1086.15
528.86	1091.27
529.22	1089.38
529.58	1090.43
529.93	1090.50
530.29	1091.60
530.65	1087.86
531.00	1085.91
531.36	1087.37
531.71	1090.64
532.07	1087.39
532.43	1087.46
532.78	1090.85
533.14	1087.88
533.49	1084.72
533.85	1089.17
534.21	1089.71
534.56	1088.30
534.92	1089.12
535.27	1088.07
535.63	1085.87
535.98	1086.59
536.34	1086.55
536.69	1087.30
537.05	1089.78
537.41	1089.07
537.76	1092.30
538.12	1091.20
538.47	1092.75
538.83	1090.99
539.18	1089.57
539.54	1086.13
539.89	1088.91
540.25	1086.90
540.60	1088.30
540.96	1088.61
541.31	1087.58
541.67	1085.96
542.02	1085.73
542.38	1087.93
542.73	1091.91
543.09	1093.66
543.44	1092.12
543.80	1093.31
544.15	1093.03
544.51	1092.45
544.86	1088.70
545.22	1092.47
545.57	1090.57
545.93	1088.26
546.28	1087.41
546.64	1090.83
546.99	1086.38
547.35	1090.01
547.70	1090.74
548.05	1088.65
548.41	1087.48
548.76	1091.77
549.12	1090.10
549.47	1087.97
549.83	1087.90
550.18	1086.43
550.53	1085.05
550.89	1084.63
551.24	1082.36
551.60	1079.95
551.95	1082.45
552.30	1079.22
552.66	1081.82
553.01	1082.50
553.37	1083.50
553.72	1079.90
554.07	1081.40
554.43	1077.79
554.78	1079.06
555.13	1081.23
555.49	1083.76
555.84	1085.45
556.19	1086.27
556.55	1084.67
556.90	1081.30
557.26	1081.47
557.61	1081.47
557.96	1077.61
558.32	1080.30
558.67	1082.80
559.02	1080.86
559.37	1082.26
559.73	1086.01
560.08	1084.81
560.43	1082.73
560.79	1084.49
561.14	1081.73
561.49	1078.87
561.85	1079.71
562.20	1081.05
562.55	1080.79
562.90	1082.43
563.26	1084.30
563.61	1082.31
563.96	1080.95
564.32	1080.09
564.67	1077.93
565.02	1076.08
565.37	1077.93
565.73	1079.43
566.08	1082.24
566.43	1084.25
566.78	1083.36
567.14	1081.63
567.49	1081.49
567.84	1080.20
568.19	1078.47
568.54	1077.86
568.90	1076.15
569.25	1074.35
569.60	1076.18
569.95	1074.21
570.31	1076.76
570.66	1078.59
571.01	1078.43
571.36	1076.95
571.71	1080.11
572.06	1084.09
572.42	1083.50
572.77	1085.80
573.12	1082.59
573.47	1081.80
573.82	1077.61
574.18	1079.62
574.53	1077.70
574.88	1080.16
575.23	1080.86
575.58	1080.11
575.93	1077.61
576.28	1081.09
576.64	1081.73
576.99	1078.54
577.34	1078.52
577.69	1079.85
578.04	1079.92
578.39	1078.64
578.74	1082.24
579.09	1083.76
579.44	1084.16
579.80	1083.43
580.15	1087.32
580.50	1086.31
580.85	1085.84
581.20	1085.42
581.55	1082.31
581.90	1078.71
582.25	1078.57
582.60	1077.79
582.95	1079.22
583.30	1079.01
583.65	1078.94
584.00	1078.52
584.35	1079.83
584.71	1082.59
585.06	1085.21
585.41	1083.39
585.76	1080.77
586.11	1080.13
586.46	1073.70
586.81	1074.33
587.16	1078.03
587.51	1078.33
587.86	1078.40
588.21	1082.31
588.56	1079.55
588.91	1077.14
589.26	1079.55
589.61	1077.18
589.96	1076.93
590.31	1079.95
590.66	1082.10
591.01	1083.43
591.36	1085.05
591.71	1084.42
592.06	1082.94
592.41	1083.41
592.76	1081.07
593.10	1082.66
593.45	1079.60
593.80	1078.03
594.15	1076.20
594.50	1075.66
594.85	1077.16
595.20	1075.80
595.55	1081.70
595.90	1082.40
596.25	1083.48
596.60	1078.96
596.95	1082.10
597.30	1077.30
597.64	1128.49
597.99	1132.70
598.34	1134.83
598.69	1137.31
599.04	1140.71
599.39	1088.84
599.74	1087.32
600.09	1087.46
600.44	1087.11
600.78	1085.10
601.13	1086.85
601.48	1084.96
601.83	1083.90
602.18	1082.54
602.53	1081.23
602.88	1076.81
603.22	1079.41
603.57	1078.92
603.92	1081.87
604.27	1082.66
604.62	1085.12
604.97	1081.12
605.31	1080.70
605.66	1078.68
606.01	1079.67
606.36	1077.75
606.71	1082.03
607.05	1085.19
607.40	1082.38
607.75	1081.58
608.10	1083.62
608.44	1080.11
608.79	1078.21
609.14	1080.63
609.49	1084.98
609.84	1088.02
610.18	1090.95
610.53	1094.15
610.88	1098.20
611.23	1095.72
611.57	1096.31
611.92	1095.56
612.27	1095.96
612.62	1095.18
612.96	1093.15
613.31	1090.92
613.66	1089.03
614.00	1085.42
614.35	1081.02
614.70	1079.53
615.05	1077.86
615.39	1076.55
615.74	1077.35
616.09	1081.26
616.43	1079.67
616.78	1078.26
617.13	1079.60
617.47	1077.37
617.82	1075.08
618.17	1077.75
618.51	1081.89
618.86	1079.88
619.21	1082.73
619.55	1082.78
619.90	1084.18
620.25	1083.86
620.59	1086.90
620.94	1085.80
621.29	1084.23
621.63	1083.15
621.98	1082.87
622.32	1082.12
622.67	1081.16
623.02	1081.05
623.36	1082.08
623.71	1079.06
624.05	1079.62
624.40	1083.39
624.75	1082.83
625.09	1081.47
625.44	1081.14
625.78	1078.82
626.13	1074.63
626.48	1074.07
626.82	1071.52
627.17	1072.92
627.51	1075.52
627.86	1079.71
628.20	1083.15
628.55	1085.94
628.89	1091.77
629.24	1092.28
629.58	1090.92
629.93	1088.16
630.28	1092.23
630.62	1087.27
630.97	1087.18
631.31	1087.32
631.66	1086.80
632.00	1080.86
632.35	1082.03
632.69	1079.13
633.04	1074.31
633.38	1073.77
633.73	1075.48
634.07	1073.84
634.42	1074.33
634.76	1079.50
635.11	1083.62
635.45	1082.90
635.79	1081.44
636.14	1082.36
636.48	1080.34
636.83	1078.52
637.17	1078.52
637.52	1081.84
637.86	1083.27
638.21	1085.33
638.55	1085.14
638.89	1086.87
639.24	1083.88
639.58	1080.23
639.93	1078.21
640.27	1077.56
640.61	1076.15
640.96	1076.86
641.30	1078.12
641.65	1077.96
641.99	1076.86
642.33	1078.64
642.68	1081.54
643.02	1082.38
643.37	1084.42
643.71	1087.81
644.05	1088.82
644.40	1083.93
644.74	1083.86
645.08	1080.86
645.43	1079.03
645.77	1076.32
646.11	1080.09
646.46	1079.81
646.80	1081.44
647.14	1081.80
647.49	1085.21
647.83	1084.46
648.17	1084.65
648.52	1084.56
648.86	1084.44
649.20	1082.61
649.55	1082.43
649.89	1083.71
650.23	1084.89
650.57	1083.06
650.92	1082.73
651.26	1082.64
651.60	1081.84
651.95	1082.61
652.29	1087.32
652.63	1085.31
652.97	1083.79
653.32	1081.23
653.66	1078.00
654.00	1073.81
654.34	1074.59
654.69	1074.87
655.03	1079.29
655.37	1079.57
655.71	1080.93
656.05	1081.87
656.40	1081.30
656.74	1079.46
657.08	1082.80
657.42	1082.57
657.76	1079.69
658.11	1081.23
658.45	1082.40
658.79	1080.56
659.13	1081.82
659.47	1086.13
659.82	1086.64
660.16	1086.55
660.50	1086.03
660.84	1084.35
661.18	1085.12
661.52	1082.64
661.87	1080.04
662.21	1080.48
662.55	1082.54
662.89	1080.04
663.23	1080.18
663.57	1082.40
663.91	1081.84
664.25	1080.88
664.60	1081.09
664.94	1082.94
665.28	1081.05
665.62	1081.84
665.96	1080.16
666.30	1078.59
666.64	1079.90
666.98	1078.82
667.32	1074.52
667.66	1077.02
668.01	1079.27
668.35	1076.65
668.69	1078.66
669.03	1081.07
669.37	1078.96
669.71	1079.90
670.05	1083.04
670.39	1081.94
670.73	1082.99
671.07	1082.45
671.41	1078.75
671.75	1075.71
672.09	1077.61
672.43	1076.74
672.77	1079.69
673.11	1084.63
673.45	1087.51
673.79	1088.12
674.13	1088.56
674.47	1087.48
674.81	1083.81
675.15	1080.65
675.49	1079.95
675.83	1079.76
676.17	1079.71
676.51	1079.10
676.85	1081.96
677.19	1081.49
677.53	1082.97
677.87	1082.01
678.21	1081.94
678.55	1083.39
678.89	1083.13
679.23	1083.46
679.57	1085.84
679.90	1087.74
680.24	1086.27
680.58	1088.63
680.92	1087.60
681.26	1087.34
681.60	1085.89
681.94	1085.38
682.28	1084.30
682.62	1082.17
682.96	1082.83
683.29	1080.81
683.63	1080.27
683.97	1078.43
684.31	1081.37
684.65	1080.51
684.99	1082.24
685.33	1082.99
685.67	1085.28
686.00	1085.89
686.34	1088.35
686.68	1090.36
687.02	1088.09
687.36	1084.86
687.70	1084.89
688.03	1078.87
688.37	1076.13
688.71	1079.24
689.05	1083.57
689.39	1082.01
689.72	1085.05
690.06	1087.06
690.40	1083.22
690.74	1079.81
691.08	1078.61
691.41	1077.09
691.75	1075.38
692.09	1076.65
692.43	1074.77
692.76	1072.25
693.10	1073.74
693.44	1077.58
693.78	1079.50
694.11	1081.35
694.45	1086.50
694.79	1083.50
695.13	1079.36
695.46	1077.14
695.80	1077.25
696.14	1075.27
696.48	1077.00
696.81	1079.55
697.15	1080.53
697.49	1083.32
697.82	1083.88
698.16	1082.66
698.50	1082.66
698.83	1079.71
699.17	1078.71
699.51	1077.91
699.84	1080.04
700.18	1079.36
700.52	1080.88
700.85	1078.10
701.19	1078.24
701.53	1076.69
701.86	1077.14
702.20	1078.33
702.54	1081.05
702.87	1081.68
703.21	1083.71
703.55	1083.39
703.88	1084.32
704.22	1083.04
704.55	1081.91
704.89	1080.06
705.23	1081.30
705.56	1081.42
705.90	1077.75
706.23	1079.15
706.57	1081.35
706.91	1079.34
707.24	1077.51
707.58	1082.61
707.91	1080.37
708.25	1079.81
708.58	1080.37
708.92	1079.48
709.26	1077.56
709.59	1081.91
709.93	1081.37
710.26	1079.01
710.60	1081.75
710.93	1079.90
711.27	1077.16
711.60	1076.60
711.94	1079.43
712.27	1076.44
712.61	1078.52
712.94	1079.03
713.28	1079.78
713.61	1077.07
713.95	1077.89
714.28	1077.72
714.62	1078.24
714.95	1078.78
715.29	1078.00
715.62	1075.94
715.96	1075.97
716.29	1074.14
716.63	1070.40
716.96	1070.94
717.29	1075.55
717.63	1074.24
717.96	1075.71
718.30	1079.08
718.63	1082.85
718.97	1082.92
719.30	1085.77
719.63	1086.24
719.97	1083.48
720.30	1081.56
720.64	1079.67
720.97	1078.80
721.30	1076.39
721.64	1077.77
721.97	1075.27
722.31	1075.05
722.64	1076.48
722.97	1074.91
723.31	1077.40
723.64	1078.71
723.97	1076.23
724.31	1077.98
724.64	1080.34
724.98	1078.64
725.31	1077.79
725.64	1085.59
725.98	1082.57
726.31	1084.16
726.64	1083.50
726.97	1084.67
727.31	1078.92
727.64	1076.74
727.97	1075.45
728.31	1075.08
728.64	1073.74
728.97	1077.47
729.31	1081.37
729.64	1081.66
729.97	1082.15
730.30	1083.95
730.64	1079.62
730.97	1078.57
731.30	1079.83
731.63	1081.73
731.97	1084.51
732.30	1085.87
732.63	1086.20
732.96	1084.89
733.30	1087.18
733.63	1088.63
733.96	1087.27
734.29	1086.69
734.63	1087.90
734.96	1084.44
735.29	1080.09
735.62	1083.67
735.95	1084.77
736.29	1084.44
736.62	1085.77
736.95	1085.54
737.28	1083.93
737.61	1081.84
737.94	1082.12
738.28	1082.71
738.61	1080.32
738.94	1078.50
739.27	1078.85
739.60	1082.08
739.93	1081.47
740.27	1085.31
740.60	1085.38
740.93	1085.47
741.26	1082.83
741.59	1078.31
741.92	1078.43
742.25	1078.07
742.58	1075.59
742.91	1075.43
743.25	1079.34
743.58	1077.58
743.91	1077.07
744.24	1080.13
744.57	1079.48
744.90	1078.85
745.23	1080.34
745.56	1082.64
745.89	1082.10
746.22	1082.22
746.55	1082.17
746.88	1079.03
747.21	1082.31
747.54	1081.51
747.87	1081.58
748.20	1080.13
748.53	1082.31
748.87	1081.82
749.20	1079.69
749.53	1079.95
749.86	1080.98
750.19	1082.31
750.52	1081.19
750.85	1083.08
751.18	1080.27
751.51	1079.92
751.84	1081.02
752.16	1078.17
752.49	1078.78
752.82	1078.78
753.15	1076.90
753.48	1076.08
753.81	1078.64
754.14	1080.06
754.47	1082.05
754.80	1083.97
755.13	1084.00
755.46	1081.49
755.79	1078.19
756.12	1081.56
756.45	1084.18
756.78	1084.21
757.11	1087.02
757.43	1089.85
757.76	1088.33
758.09	1083.50
758.42	1080.11
758.75	1076.20
759.08	1072.36
759.41	1068.22
759.74	1070.21
760.07	1073.67
760.39	1075.99
760.72	1079.38
761.05	1083.53
761.38	1087.44
761.71	1082.17
762.04	1082.80
762.36	1079.71
762.69	1077.14
763.02	1073.00
763.35	1077.61
763.68	1075.92
764.01	1080.06
764.33	1083.48
764.66	1085.91
764.99	1086.66
765.32	1089.43
765.65	1087.67
765.97	1083.86
766.30	1083.64
