SpectraSuite Data File
++++++++++++++++++++++++++++++++++++
Date: Mon Aug 26 10:26:11 PDT 2019
User: corrico
Dark Spectrum Present: No
Reference Spectrum Present: No
Number of Sampled Component Spectra: 1
Spectrometers: USB2+H06089
Integration Time (usec): 10000 (USB2+H06089)
Spectra Averaged: 20 (USB2+H06089)
Boxcar Smoothing: 2 (USB2+H06089)
Correct for Electrical Dark: No (USB2+H06089)
Strobe/Lamp Enabled: No (USB2+H06089)
Correct for Detector Non-linearity: No (USB2+H06089)
Correct for Stray Light: No (USB2+H06089)
Number of Pixels in Processed Spectrum: 2048
>>>>>Begin Processed Spectral Data<<<<<
339.70	1051.02
340.07	1051.02
340.45	1008.93
340.82	982.39
341.19	954.96
341.57	926.59
341.94	915.97
342.31	908.67
342.69	904.85
343.06	902.28
343.43	901.48
343.81	902.44
344.18	906.70
344.55	908.10
344.93	912.20
345.30	919.03
345.67	927.04
346.04	934.67
346.42	945.83
346.79	954.61
347.16	961.56
347.54	970.99
347.91	978.67
348.28	989.56
348.65	999.41
349.03	1009.54
349.40	1017.83
349.77	1021.99
350.14	1030.21
350.52	1037.09
350.89	1042.15
351.26	1048.21
351.63	1060.47
352.01	1061.13
352.38	1067.57
352.75	1075.52
353.12	1077.56
353.50	1077.23
353.87	1080.44
354.24	1080.06
354.61	1080.58
354.98	1085.80
355.36	1086.31
355.73	1089.85
356.10	1090.67
356.47	1089.43
356.84	1089.26
357.22	1090.29
357.59	1089.52
357.96	1089.78
358.33	1088.82
358.70	1088.86
359.08	1087.93
359.45	1090.01
359.82	1094.27
360.19	1095.84
360.56	1091.56
360.94	1093.26
361.31	1087.74
361.68	1083.32
362.05	1083.67
362.42	1086.08
362.79	1085.75
363.16	1087.55
363.54	1087.18
363.91	1082.90
364.28	1079.53
364.65	1075.08
365.02	1076.01
365.39	1076.27
365.76	1077.25
366.14	1080.46
366.51	1084.56
366.88	1082.26
367.25	1082.78
367.62	1084.35
367.99	1085.40
368.36	1083.62
368.73	1085.82
369.10	1084.84
369.48	1083.93
369.85	1080.95
370.22	1080.32
370.59	1079.36
370.96	1076.86
371.33	1074.45
371.70	1071.73
372.07	1073.98
372.44	1074.49
372.81	1079.55
373.18	1081.35
373.55	1087.37
373.93	1088.30
374.30	1089.52
374.67	1087.58
375.04	1086.48
375.41	1084.28
375.78	1082.36
376.15	1079.36
376.52	1081.35
376.89	1084.53
377.26	1083.15
377.63	1081.96
378.00	1081.63
378.37	1078.92
378.74	1080.13
379.11	1079.38
379.48	1080.79
379.85	1083.71
380.22	1086.22
380.59	1085.47
380.96	1088.86
381.33	1087.48
381.70	1088.40
382.07	1088.00
382.44	1088.23
382.81	1087.30
383.18	1088.65
383.55	1083.22
383.92	1084.04
384.29	1083.90
384.66	1084.16
385.03	1085.26
385.40	1089.29
385.77	1086.62
386.14	1085.31
386.51	1085.99
386.88	1085.96
387.25	1082.92
387.62	1083.32
387.99	1085.73
388.36	1084.42
388.73	1083.39
389.10	1089.85
389.46	1090.22
389.83	1087.51
390.20	1088.47
390.57	1088.16
390.94	1086.20
391.31	1085.45
391.68	1087.65
392.05	1089.89
392.42	1091.56
392.79	1088.91
393.16	1090.50
393.53	1090.06
393.89	1089.12
394.26	1087.58
394.63	1090.13
395.00	1089.29
395.37	1087.97
395.74	1087.93
396.11	1090.62
396.48	1090.81
396.84	1092.68
397.21	1093.15
397.58	1090.99
397.95	1090.53
398.32	1087.37
398.69	1084.98
399.06	1088.98
399.42	1092.75
399.79	1092.16
400.16	1093.78
400.53	1096.17
400.90	1091.44
401.27	1087.60
401.64	1089.36
402.00	1090.50
402.37	1089.66
402.74	1093.26
403.11	1095.39
403.48	1092.84
403.84	1094.46
404.21	1095.63
404.58	1098.44
404.95	1100.38
405.32	1100.26
405.68	1096.35
406.05	1097.17
406.42	1095.32
406.79	1092.49
407.16	1093.85
407.52	1097.55
407.89	1100.87
408.26	1100.36
408.63	1103.84
408.99	1106.68
409.36	1110.42
409.73	1110.19
410.10	1110.35
410.47	1110.77
410.83	1109.46
411.20	1108.03
411.57	1106.37
411.94	1108.31
412.30	1108.01
412.67	1108.17
413.04	1106.70
413.40	1107.94
413.77	1105.81
414.14	1106.63
414.51	1108.36
414.87	1110.16
415.24	1106.61
415.61	1106.16
415.97	1106.96
416.34	1107.07
416.71	1106.00
417.08	1110.02
417.44	1112.64
417.81	1113.37
418.18	1113.30
418.54	1113.14
418.91	1115.36
419.28	1114.94
419.64	1112.81
420.01	1111.73
420.38	1114.00
420.74	1112.08
421.11	1113.93
421.48	1114.70
421.84	1115.50
422.21	1116.01
422.58	1115.17
422.94	1112.62
423.31	1114.35
423.68	1116.90
424.04	1115.50
424.41	1117.86
424.77	1119.45
425.14	1118.07
425.51	1117.37
425.87	1118.82
426.24	1117.58
426.61	1118.17
426.97	1120.79
427.34	1121.70
427.70	1123.90
428.07	1120.20
428.44	1121.12
428.80	1118.26
429.17	1117.23
429.53	1118.68
429.90	1121.40
430.27	1121.44
430.63	1123.22
431.00	1122.08
431.36	1118.68
431.73	1119.83
432.09	1121.28
432.46	1122.36
432.83	1126.15
433.19	1125.40
433.56	1124.86
433.92	1123.93
434.29	1122.17
434.65	1121.12
435.02	1124.07
435.38	1126.08
435.75	1122.52
436.11	1122.64
436.48	1123.36
436.84	1121.16
437.21	1120.06
437.57	1121.51
437.94	1121.58
438.30	1120.18
438.67	1117.54
439.03	1115.94
439.40	1117.84
439.76	1118.33
440.13	1116.13
440.49	1114.82
440.86	1116.72
441.22	1115.90
441.59	1114.75
441.95	1116.90
442.32	1117.35
442.68	1113.60
443.05	1112.11
443.41	1114.31
443.78	1113.21
444.14	1115.66
444.51	1119.90
444.87	1120.46
445.24	1117.35
445.60	1114.66
445.96	1113.49
446.33	1110.05
446.69	1110.91
447.06	1111.15
447.42	1115.73
447.79	1115.34
448.15	1116.74
448.51	1115.43
448.88	1120.48
449.24	1118.94
449.61	1118.45
449.97	1121.16
450.33	1120.58
450.70	1112.06
451.06	1108.76
451.43	1112.22
451.79	1111.78
452.15	1112.60
452.52	1115.41
452.88	1119.08
453.24	1114.19
453.61	1111.45
453.97	1110.26
454.34	1110.70
454.70	1110.94
455.06	1115.15
455.43	1119.97
455.79	1121.19
456.15	1122.45
456.52	1123.43
456.88	1125.40
457.24	1119.55
457.61	1123.18
457.97	1124.30
458.33	1123.15
458.70	1118.61
459.06	1120.53
459.42	1118.17
459.79	1117.79
460.15	1117.30
460.51	1119.41
460.88	1120.86
461.24	1122.26
461.60	1122.05
461.96	1121.12
462.33	1124.37
462.69	1122.87
463.05	1121.94
463.42	1121.28
463.78	1123.36
464.14	1121.94
464.50	1121.82
464.87	1123.41
465.23	1126.08
465.59	1126.62
465.95	1129.00
466.32	1131.34
466.68	1132.49
467.04	1135.53
467.40	1139.26
467.77	1139.75
468.13	1145.06
468.49	1145.11
468.85	1149.62
469.22	1149.18
469.58	1149.58
469.94	1149.37
470.30	1155.05
470.66	1152.64
471.03	1158.47
471.39	1163.95
471.75	1165.68
472.11	1167.55
472.47	1173.40
472.84	1172.40
473.20	1176.17
473.56	1179.37
473.92	1182.16
474.28	1183.59
474.65	1187.82
475.01	1188.38
475.37	1194.26
475.73	1201.26
476.09	1210.01
476.45	1216.94
476.81	1226.60
477.18	1234.98
477.54	1242.89
477.90	1247.44
478.26	1257.90
478.62	1264.45
478.98	1272.08
479.34	1280.32
479.71	1287.95
480.07	1299.37
480.43	1316.57
480.79	1329.92
481.15	1345.01
481.51	1361.77
481.87	1377.12
482.23	1389.41
482.59	1407.01
482.96	1425.41
483.32	1445.63
483.68	1463.68
484.04	1488.11
484.40	1511.17
484.76	1531.11
485.12	1555.61
485.48	1582.90
485.84	1606.19
486.20	1633.41
486.56	1666.84
486.92	1699.98
487.28	1730.52
487.64	1765.79
488.00	1804.51
488.37	1840.39
488.73	1880.53
489.09	1923.94
489.45	1975.25
489.81	2022.95
490.17	2074.39
490.53	2125.46
490.89	2178.76
491.25	2222.50
491.61	2284.18
491.97	2349.41
492.33	2416.42
492.69	2491.17
493.05	2577.44
493.41	2656.74
493.77	2740.91
494.13	2837.88
494.49	2932.13
494.85	3033.92
495.21	3135.76
495.57	3249.08
495.93	3359.60
496.29	3480.10
496.64	3607.87
497.00	3739.26
497.36	3870.99
497.72	4014.98
498.08	4171.14
498.44	4339.17
498.80	4507.82
499.16	4692.00
499.52	4880.20
499.88	5069.02
500.24	5249.05
500.60	5454.36
500.96	5663.98
501.32	5871.42
501.68	6105.24
502.03	6367.61
502.39	6633.08
502.75	6913.73
503.11	7232.77
503.47	7551.76
503.83	7893.92
504.19	8245.03
504.55	8613.41
504.91	8973.89
505.26	9333.28
505.62	9759.38
505.98	10205.18
506.34	10642.21
506.70	11116.89
507.06	11672.53
507.42	12186.94
507.78	12726.55
508.13	13340.09
508.49	13997.43
508.85	14634.81
509.21	15288.31
509.57	16024.81
509.93	16743.09
510.28	17459.30
510.64	18254.21
511.00	19059.66
511.36	19865.95
511.72	20753.23
512.07	21722.93
512.43	22633.99
512.79	23636.09
513.15	24658.46
513.51	25576.81
513.86	26492.80
514.22	27521.45
514.58	28550.95
514.94	29553.62
515.30	30693.25
515.65	31874.12
516.01	33063.39
516.37	34186.80
516.73	35343.19
517.08	36383.79
517.44	37309.87
517.80	38292.05
518.16	39311.90
518.51	40352.29
518.87	41409.53
519.23	42590.80
519.59	43675.54
519.94	44789.66
520.30	45853.67
520.66	46795.45
521.01	47696.58
521.37	48524.71
521.73	49157.15
522.09	49722.79
522.44	50352.93
522.80	50792.36
523.16	51101.90
523.51	51373.61
523.87	51584.56
524.23	51810.92
524.58	51985.31
524.94	52264.00
525.30	52570.49
525.65	52926.14
526.01	53084.52
526.37	53309.28
526.72	53484.49
527.08	53548.18
527.44	53411.98
527.79	53326.56
528.15	53173.65
528.51	53009.62
528.86	52829.38
529.22	52569.79
529.58	52157.76
529.93	51719.59
530.29	51037.28
530.65	50380.94
531.00	49807.72
531.36	49202.62
531.71	48549.12
532.07	47984.59
532.43	47260.87
532.78	46471.27
533.14	45794.57
533.49	45111.49
533.85	44526.26
534.21	43993.34
534.56	43500.64
534.92	42894.04
535.27	42227.48
535.63	41339.43
535.98	40436.36
536.34	39525.56
536.69	38697.72
537.05	37953.78
537.41	37328.60
537.76	36721.67
538.12	35909.81
538.47	35126.83
538.83	34400.82
539.18	33667.90
539.54	32924.53
539.89	32425.81
540.25	31999.17
540.60	31438.45
540.96	30748.65
541.31	30175.10
541.67	29685.62
542.02	29087.36
542.38	28565.28
542.73	28089.82
543.09	27507.50
543.44	26835.53
543.80	26262.14
544.15	25714.20
544.51	25296.09
544.86	24960.62
545.22	24672.27
545.57	24276.29
545.93	23744.52
546.28	23207.63
546.64	22696.88
546.99	22133.84
547.35	21649.14
547.70	21241.63
548.05	20812.39
548.41	20347.40
548.76	19855.09
549.12	19401.47
549.47	18986.43
549.83	18624.79
550.18	18307.18
550.53	18018.03
550.89	17672.21
551.24	17266.23
551.60	16858.62
551.95	16471.96
552.30	16118.75
552.66	15805.12
553.01	15528.28
553.37	15204.10
553.72	14860.86
554.07	14518.53
554.43	14182.99
554.78	13844.25
555.13	13541.66
555.49	13179.86
555.84	12828.29
556.19	12470.89
556.55	12126.90
556.90	11794.29
557.26	11566.48
557.61	11346.50
557.96	11096.99
558.32	10870.38
558.67	10642.60
559.02	10352.31
559.37	10071.93
559.73	9871.82
560.08	9664.87
560.43	9450.66
560.79	9265.43
561.14	9068.38
561.49	8840.46
561.85	8626.77
562.20	8444.86
562.55	8284.44
562.90	8108.41
563.26	7942.47
563.61	7779.94
563.96	7568.31
564.32	7347.15
564.67	7156.94
565.02	6989.00
565.37	6836.21
565.73	6698.50
566.08	6560.29
566.43	6419.36
566.78	6260.23
567.14	6123.59
567.49	6010.07
567.84	5879.94
568.19	5764.60
568.54	5667.09
568.90	5547.77
569.25	5434.14
569.60	5343.79
569.95	5257.76
570.31	5158.40
570.66	5061.55
571.01	4954.80
571.36	4859.19
571.71	4755.43
572.06	4659.44
572.42	4581.22
572.77	4495.26
573.12	4401.59
573.47	4319.95
573.82	4243.34
574.18	4163.56
574.53	4096.38
574.88	4041.12
575.23	3969.62
575.58	3892.90
575.93	3812.26
576.28	3736.27
576.64	3662.59
576.99	3588.63
577.34	3515.58
577.69	3451.33
578.04	3383.46
578.39	3311.55
578.74	3253.09
579.09	3202.39
579.44	3137.65
579.80	3072.49
580.15	3025.07
580.50	2970.65
580.85	2913.83
581.20	2871.30
581.55	2827.74
581.90	2775.13
582.25	2732.86
582.60	2689.30
582.95	2646.44
583.30	2614.52
583.65	2575.29
584.00	2529.74
584.35	2497.70
584.71	2458.26
585.06	2414.38
585.41	2379.79
585.76	2350.53
586.11	2312.43
586.46	2275.63
586.81	2245.58
587.16	2214.97
587.51	2191.56
587.86	2167.24
588.21	2145.03
588.56	2119.96
588.91	2095.62
589.26	2066.88
589.61	2043.87
589.96	2026.90
590.31	2003.24
590.66	1979.74
591.01	1959.26
591.36	1936.86
591.71	1904.89
592.06	1885.35
592.41	1865.88
592.76	1845.47
593.10	1822.83
593.45	1810.03
593.80	1792.34
594.15	1771.90
594.50	1757.16
594.85	1742.32
595.20	1726.26
595.55	1711.59
595.90	1701.62
596.25	1688.63
596.60	1674.93
596.95	1662.83
597.30	1652.39
597.64	1691.83
597.99	1681.16
598.34	1668.33
598.69	1653.07
599.04	1639.01
599.39	1571.55
599.74	1551.96
600.09	1540.54
600.44	1528.91
600.78	1519.01
601.13	1512.92
601.48	1506.13
601.83	1494.92
602.18	1481.72
602.53	1468.26
602.88	1458.46
603.22	1448.89
603.57	1445.73
603.92	1439.76
604.27	1432.76
604.62	1425.34
604.97	1420.63
605.31	1410.64
605.66	1407.74
606.01	1399.43
606.36	1392.60
606.71	1383.33
607.05	1376.21
607.40	1364.30
607.75	1357.63
608.10	1349.41
608.44	1340.52
608.79	1334.48
609.14	1329.05
609.49	1326.05
609.84	1320.51
610.18	1316.76
610.53	1311.54
610.88	1307.52
611.23	1301.81
611.57	1297.38
611.92	1292.89
612.27	1288.07
612.62	1283.32
612.96	1278.21
613.31	1272.85
613.66	1267.70
614.00	1264.17
614.35	1260.26
614.70	1254.78
615.05	1253.19
615.39	1250.62
615.74	1245.45
616.09	1242.50
616.43	1241.70
616.78	1234.33
617.13	1228.45
617.47	1223.16
617.82	1216.80
618.17	1209.64
618.51	1210.62
618.86	1210.31
619.21	1207.69
619.55	1207.46
619.90	1209.45
620.25	1204.67
620.59	1200.02
620.94	1198.73
621.29	1193.21
621.63	1187.21
621.98	1186.56
622.32	1181.62
622.67	1180.52
623.02	1178.13
623.36	1178.16
623.71	1176.03
624.05	1174.15
624.40	1173.97
624.75	1175.42
625.09	1176.35
625.44	1173.64
625.78	1175.09
626.13	1172.80
626.48	1168.82
626.82	1162.40
627.17	1161.23
627.51	1158.75
627.86	1156.46
628.20	1158.28
628.55	1158.78
628.89	1155.27
629.24	1151.15
629.58	1149.69
629.93	1148.24
630.28	1147.33
630.62	1144.59
630.97	1146.56
631.31	1142.44
631.66	1139.26
632.00	1139.00
632.35	1137.29
632.69	1136.68
633.04	1136.73
633.38	1137.55
633.73	1133.12
634.07	1135.58
634.42	1134.93
634.76	1132.98
635.11	1127.81
635.45	1128.89
635.79	1124.44
636.14	1120.53
636.48	1122.83
636.83	1124.14
637.17	1122.64
637.52	1123.43
637.86	1122.24
638.21	1119.24
638.55	1118.80
638.89	1117.61
639.24	1117.56
639.58	1120.65
639.93	1116.27
640.27	1115.76
640.61	1113.11
640.96	1111.66
641.30	1112.92
641.65	1118.64
641.99	1118.07
642.33	1117.42
642.68	1118.66
643.02	1115.73
643.37	1113.28
643.71	1113.95
644.05	1116.90
644.40	1118.31
644.74	1117.68
645.08	1115.38
645.43	1111.82
645.77	1111.43
646.11	1106.96
646.46	1104.85
646.80	1108.97
647.14	1109.11
647.49	1106.44
647.83	1106.11
648.17	1107.75
648.52	1105.48
648.86	1107.82
649.20	1112.29
649.55	1111.54
649.89	1109.09
650.23	1106.82
650.57	1101.78
650.92	1097.22
651.26	1100.82
651.60	1101.20
651.95	1100.71
652.29	1099.07
652.63	1101.18
652.97	1096.42
653.32	1096.10
653.66	1096.45
654.00	1101.41
654.34	1102.23
654.69	1102.37
655.03	1103.82
655.37	1105.29
655.71	1103.96
656.05	1100.75
656.40	1103.19
656.74	1101.25
657.08	1099.47
657.42	1098.93
657.76	1097.97
658.11	1099.84
658.45	1099.77
658.79	1100.78
659.13	1100.68
659.47	1100.82
659.82	1094.20
660.16	1094.67
660.50	1092.49
660.84	1093.87
661.18	1091.70
661.52	1094.86
661.87	1093.85
662.21	1095.11
662.55	1092.07
662.89	1093.66
663.23	1092.54
663.57	1092.68
663.91	1093.22
664.25	1096.05
664.60	1096.99
664.94	1096.89
665.28	1093.40
665.62	1093.01
665.96	1091.20
666.30	1093.94
666.64	1093.99
666.98	1094.11
667.32	1093.85
667.66	1095.42
668.01	1093.59
668.35	1094.83
668.69	1096.12
669.03	1094.46
669.37	1092.26
669.71	1091.95
670.05	1092.49
670.39	1091.42
670.73	1090.95
671.07	1091.93
671.41	1091.58
671.75	1091.30
672.09	1095.30
672.43	1096.49
672.77	1097.99
673.11	1095.84
673.45	1094.25
673.79	1094.04
674.13	1095.18
674.47	1094.55
674.81	1097.50
675.15	1097.20
675.49	1094.57
675.83	1092.96
676.17	1091.86
676.51	1091.60
676.85	1094.06
677.19	1095.02
677.53	1093.36
677.87	1093.08
678.21	1090.69
678.55	1090.83
678.89	1092.12
679.23	1094.41
679.57	1095.07
679.90	1095.46
680.24	1095.32
680.58	1095.44
680.92	1096.59
681.26	1097.55
681.60	1095.98
681.94	1094.11
682.28	1091.58
682.62	1093.52
682.96	1090.81
683.29	1093.87
683.63	1092.40
683.97	1091.81
684.31	1089.33
684.65	1088.96
684.99	1086.52
685.33	1089.85
685.67	1091.88
686.00	1089.66
686.34	1091.04
686.68	1095.09
687.02	1093.45
687.36	1094.29
687.70	1095.42
688.03	1095.42
688.37	1092.14
688.71	1089.92
689.05	1086.99
689.39	1087.53
689.72	1087.48
690.06	1087.88
690.40	1093.12
690.74	1097.06
691.08	1096.80
691.41	1095.91
691.75	1096.07
692.09	1090.99
692.43	1090.64
692.76	1089.36
693.10	1092.47
693.44	1093.33
693.78	1096.05
694.11	1094.81
694.45	1096.17
694.79	1094.93
695.13	1095.11
695.46	1093.33
695.80	1092.73
696.14	1090.76
696.48	1089.82
696.81	1090.15
697.15	1092.89
697.49	1093.19
697.82	1094.88
698.16	1094.46
698.50	1091.53
698.83	1088.54
699.17	1088.16
699.51	1088.47
699.84	1086.66
700.18	1084.56
700.52	1085.91
700.85	1085.14
701.19	1085.94
701.53	1089.57
701.86	1091.60
702.20	1088.70
702.54	1088.42
702.87	1083.81
703.21	1083.88
703.55	1083.83
703.88	1086.90
704.22	1090.43
704.55	1093.33
704.89	1092.12
705.23	1094.04
705.56	1090.24
705.90	1089.54
706.23	1089.43
706.57	1089.17
706.91	1085.21
707.24	1086.87
707.58	1086.41
707.91	1086.57
708.25	1089.29
708.58	1093.15
708.92	1095.25
709.26	1097.48
709.59	1100.40
709.93	1094.67
710.26	1093.83
710.60	1091.86
710.93	1090.64
711.27	1089.45
711.60	1091.98
711.94	1089.85
712.27	1090.46
712.61	1088.98
712.94	1087.67
713.28	1088.96
713.61	1092.28
713.95	1095.14
714.28	1095.49
714.62	1096.49
714.95	1097.50
715.29	1095.77
715.62	1092.96
715.96	1090.60
716.29	1087.58
716.63	1083.39
716.96	1083.15
717.29	1082.24
717.63	1082.57
717.96	1083.15
718.30	1085.77
718.63	1087.04
718.97	1086.55
719.30	1084.32
719.63	1083.13
719.97	1083.71
720.30	1085.70
720.64	1086.48
720.97	1089.07
721.30	1091.18
721.64	1090.53
721.97	1089.38
722.31	1089.31
722.64	1089.17
722.97	1091.42
723.31	1090.41
723.64	1087.83
723.97	1087.41
724.31	1090.76
724.64	1087.55
724.98	1087.20
725.31	1087.02
725.64	1087.58
725.98	1086.71
726.31	1087.11
726.64	1088.19
726.97	1090.50
727.31	1090.41
727.64	1089.73
727.97	1091.58
728.31	1088.84
728.64	1087.18
728.97	1089.61
729.31	1087.53
729.64	1085.10
729.97	1090.48
730.30	1091.84
730.64	1088.51
730.97	1089.82
731.30	1089.50
731.63	1087.13
731.97	1083.60
732.30	1082.03
732.63	1083.60
732.96	1087.06
733.30	1085.26
733.63	1087.18
733.96	1091.77
734.29	1089.14
734.63	1088.77
734.96	1092.00
735.29	1089.52
735.62	1089.92
735.95	1091.42
736.29	1087.04
736.62	1087.09
736.95	1092.40
737.28	1091.39
737.61	1089.96
737.94	1090.88
738.28	1090.32
738.61	1086.13
738.94	1086.36
739.27	1086.99
739.60	1090.71
739.93	1090.01
740.27	1091.60
740.60	1093.10
740.93	1092.89
741.26	1091.60
741.59	1092.42
741.92	1094.34
742.25	1092.12
742.58	1089.82
742.91	1087.88
743.25	1086.64
743.58	1086.48
743.91	1087.60
744.24	1088.12
744.57	1087.62
744.90	1084.81
745.23	1081.87
745.56	1078.40
745.89	1080.30
746.22	1081.54
746.55	1083.29
746.88	1085.63
747.21	1088.44
747.54	1087.67
747.87	1087.23
748.20	1087.53
748.53	1083.46
748.87	1082.29
749.20	1080.70
749.53	1083.53
749.86	1084.81
750.19	1088.77
750.52	1086.90
750.85	1086.73
751.18	1083.29
751.51	1085.42
751.84	1085.21
752.16	1089.92
752.49	1090.06
752.82	1092.09
753.15	1086.45
753.48	1087.41
753.81	1085.68
754.14	1088.61
754.47	1088.82
754.80	1089.73
755.13	1086.76
755.46	1084.96
755.79	1084.79
756.12	1085.31
756.45	1089.40
756.78	1088.56
757.11	1088.75
757.43	1086.78
757.76	1086.29
758.09	1082.76
758.42	1084.44
758.75	1084.81
759.08	1083.60
759.41	1083.81
759.74	1086.76
760.07	1087.72
760.39	1085.10
760.72	1084.70
761.05	1079.97
761.38	1075.05
761.71	1075.48
762.04	1077.91
762.36	1080.18
762.69	1082.64
763.02	1084.98
