SpectraSuite Data File
++++++++++++++++++++++++++++++++++++
Date: Mon Aug 26 10:26:13 PDT 2019
User: corrico
Dark Spectrum Present: No
Reference Spectrum Present: No
Number of Sampled Component Spectra: 1
Spectrometers: USB2+H06089
Integration Time (usec): 10000 (USB2+H06089)
Spectra Averaged: 20 (USB2+H06089)
Boxcar Smoothing: 2 (USB2+H06089)
Correct for Electrical Dark: No (USB2+H06089)
Strobe/Lamp Enabled: No (USB2+H06089)
Correct for Detector Non-linearity: No (USB2+H06089)
Correct for Stray Light: No (USB2+H06089)
Number of Pixels in Processed Spectrum: 2048
>>>>>Begin Processed Spectral Data<<<<<
339.70	1031.36
340.07	1031.36
340.45	993.72
340.82	971.30
341.19	947.12
341.57	922.55
341.94	914.21
342.31	905.16
342.69	903.00
343.06	897.34
343.43	897.08
343.81	896.80
344.18	898.30
344.55	898.72
344.93	907.99
345.30	909.42
345.67	920.86
346.04	932.61
346.42	943.91
346.79	951.83
347.16	963.48
347.54	968.40
347.91	975.47
348.28	983.73
348.65	992.86
349.03	1002.31
349.40	1017.27
349.77	1028.41
350.14	1037.63
350.52	1045.14
350.89	1056.47
351.26	1058.16
351.63	1063.49
352.01	1063.80
352.38	1068.06
352.75	1068.88
353.12	1073.67
353.50	1076.37
353.87	1084.37
354.24	1085.03
354.61	1086.36
354.98	1090.01
355.36	1091.04
355.73	1088.89
356.10	1093.80
356.47	1095.63
356.84	1094.27
357.22	1094.08
357.59	1096.00
357.96	1096.96
358.33	1093.33
358.70	1091.04
359.08	1088.19
359.45	1087.60
359.82	1086.64
360.19	1089.99
360.56	1092.21
360.94	1091.58
361.31	1090.27
361.68	1086.71
362.05	1083.04
362.42	1079.76
362.79	1081.96
363.16	1081.42
363.54	1082.15
363.91	1084.16
364.28	1087.30
364.65	1084.51
365.02	1082.76
365.39	1078.54
365.76	1079.69
366.14	1076.23
366.51	1078.05
366.88	1081.16
367.25	1082.90
367.62	1080.11
367.99	1079.38
368.36	1077.28
368.73	1074.28
369.10	1075.85
369.48	1078.66
369.85	1081.56
370.22	1082.87
370.59	1084.11
370.96	1084.25
371.33	1081.70
371.70	1079.20
372.07	1078.21
372.44	1079.55
372.81	1080.09
373.18	1080.11
373.55	1082.52
373.93	1084.18
374.30	1082.80
374.67	1083.36
375.04	1082.01
375.41	1081.07
375.78	1078.75
376.15	1077.82
376.52	1075.15
376.89	1075.66
377.26	1077.07
377.63	1081.12
378.00	1081.37
378.37	1083.29
378.74	1084.60
379.11	1084.02
379.48	1083.11
379.85	1085.87
380.22	1086.13
380.59	1087.34
380.96	1088.07
381.33	1087.39
381.70	1086.73
382.07	1088.12
382.44	1087.48
382.81	1086.24
383.18	1090.69
383.55	1091.81
383.92	1088.51
384.29	1088.49
384.66	1089.66
385.03	1085.56
385.40	1083.57
385.77	1083.25
386.14	1084.21
386.51	1084.18
386.88	1081.63
387.25	1080.46
387.62	1082.64
387.99	1081.82
388.36	1082.85
388.73	1087.06
389.10	1090.99
389.46	1092.68
389.83	1093.03
390.20	1092.40
390.57	1090.57
390.94	1088.82
391.31	1089.29
391.68	1088.00
392.05	1083.43
392.42	1084.00
392.79	1085.80
393.16	1084.51
393.53	1087.32
393.89	1090.95
394.26	1093.62
394.63	1087.62
395.00	1086.48
395.37	1085.56
395.74	1085.82
396.11	1083.46
396.48	1088.16
396.84	1088.42
397.21	1087.51
397.58	1089.73
397.95	1089.99
398.32	1091.02
398.69	1092.33
399.06	1092.68
399.42	1089.87
399.79	1092.19
400.16	1092.54
400.53	1095.04
400.90	1096.14
401.27	1099.79
401.64	1098.37
402.00	1098.30
402.37	1100.03
402.74	1098.72
403.11	1095.91
403.48	1095.46
403.84	1097.85
404.21	1095.18
404.58	1098.18
404.95	1101.50
405.32	1106.21
405.68	1103.75
406.05	1103.80
406.42	1106.21
406.79	1103.98
407.16	1103.68
407.52	1106.56
407.89	1108.34
408.26	1105.44
408.63	1106.79
408.99	1107.07
409.36	1105.04
409.73	1102.93
410.10	1105.51
410.47	1106.42
410.83	1105.90
411.20	1105.60
411.57	1108.55
411.94	1108.38
412.30	1108.59
412.67	1106.56
413.04	1110.65
413.40	1109.06
413.77	1111.80
414.14	1110.94
414.51	1111.97
414.87	1111.22
415.24	1112.43
415.61	1108.43
415.97	1111.19
416.34	1112.06
416.71	1108.66
417.08	1109.32
417.44	1110.87
417.81	1109.69
418.18	1113.09
418.54	1112.43
418.91	1114.68
419.28	1115.66
419.64	1114.68
420.01	1113.49
420.38	1115.29
420.74	1114.31
421.11	1111.19
421.48	1113.91
421.84	1114.12
422.21	1113.56
422.58	1111.47
422.94	1114.66
423.31	1115.27
423.68	1113.86
424.04	1120.23
424.41	1121.54
424.77	1121.73
425.14	1123.34
425.51	1124.81
425.87	1120.74
426.24	1120.34
426.61	1120.06
426.97	1119.57
427.34	1119.24
427.70	1121.96
428.07	1125.61
428.44	1127.39
428.80	1126.03
429.17	1127.74
429.53	1130.88
429.90	1129.38
430.27	1128.47
430.63	1128.68
431.00	1128.84
431.36	1125.07
431.73	1126.55
432.09	1128.93
432.46	1127.88
432.83	1123.76
433.19	1125.87
433.56	1126.03
433.92	1122.33
434.29	1125.33
434.65	1127.37
435.02	1126.80
435.38	1126.83
435.75	1126.92
436.11	1126.50
436.48	1127.08
436.84	1126.69
437.21	1124.91
437.57	1127.97
437.94	1126.17
438.30	1125.84
438.67	1124.28
439.03	1124.74
439.40	1125.03
439.76	1127.23
440.13	1125.91
440.49	1125.24
440.86	1123.62
441.22	1120.79
441.59	1118.82
441.95	1119.95
442.32	1119.43
442.68	1119.01
443.05	1120.53
443.41	1119.22
443.78	1117.72
444.14	1119.06
444.51	1121.33
444.87	1119.22
445.24	1120.34
445.60	1123.62
445.96	1123.34
446.33	1121.35
446.69	1122.45
447.06	1121.44
447.42	1119.27
447.79	1120.84
448.15	1121.47
448.51	1119.71
448.88	1124.86
449.24	1121.87
449.61	1119.10
449.97	1118.57
450.33	1120.02
450.70	1114.54
451.06	1119.67
451.43	1118.00
451.79	1118.24
452.15	1117.49
452.52	1121.23
452.88	1120.58
453.24	1122.80
453.61	1124.70
453.97	1126.15
454.34	1123.88
454.70	1125.07
455.06	1128.98
455.43	1126.62
455.79	1126.69
456.15	1129.14
456.52	1129.38
456.88	1127.37
457.24	1126.92
457.61	1127.46
457.97	1125.49
458.33	1122.01
458.70	1121.87
459.06	1124.81
459.42	1123.74
459.79	1126.48
460.15	1126.43
460.51	1127.65
460.88	1130.88
461.24	1132.49
461.60	1134.18
461.96	1138.79
462.33	1137.50
462.69	1133.15
463.05	1136.33
463.42	1137.62
463.78	1135.96
464.14	1137.99
464.50	1142.44
464.87	1140.54
465.23	1139.68
465.59	1142.98
465.95	1145.48
466.32	1144.43
466.68	1144.50
467.04	1146.56
467.40	1148.38
467.77	1148.57
468.13	1149.23
468.49	1154.80
468.85	1156.20
469.22	1156.95
469.58	1159.34
469.94	1163.62
470.30	1165.73
470.66	1167.32
471.03	1170.67
471.39	1175.77
471.75	1179.14
472.11	1181.22
472.47	1180.54
472.84	1185.01
473.20	1188.92
473.56	1194.02
473.92	1199.03
474.28	1209.35
474.65	1211.81
475.01	1214.69
475.37	1220.66
475.73	1225.11
476.09	1228.24
476.45	1234.19
476.81	1241.65
477.18	1250.38
477.54	1260.03
477.90	1272.50
478.26	1286.15
478.62	1299.07
478.98	1308.17
479.34	1323.18
479.71	1335.14
480.07	1348.13
480.43	1359.15
480.79	1372.89
481.15	1383.35
481.51	1399.80
481.87	1418.46
482.23	1438.68
482.59	1457.43
482.96	1481.40
483.32	1503.14
483.68	1528.65
484.04	1552.59
484.40	1581.08
484.76	1612.11
485.12	1643.59
485.48	1672.78
485.84	1704.38
486.20	1735.72
486.56	1767.69
486.92	1801.39
487.28	1838.35
487.64	1878.56
488.00	1925.04
488.37	1974.34
488.73	2022.67
489.09	2073.34
489.45	2134.38
489.81	2192.94
490.17	2254.47
490.53	2321.34
490.89	2388.42
491.25	2445.70
491.61	2523.17
491.97	2601.32
492.33	2680.99
492.69	2765.69
493.05	2866.88
493.41	2961.85
493.77	3054.66
494.13	3158.16
494.49	3267.67
494.85	3386.71
495.21	3502.14
495.57	3635.32
495.93	3778.61
496.29	3922.97
496.64	4073.52
497.00	4233.65
497.36	4389.00
497.72	4562.15
498.08	4755.43
498.44	4951.05
498.80	5157.44
499.16	5374.53
499.52	5582.79
499.88	5813.00
500.24	6056.37
500.60	6294.40
500.96	6554.62
501.32	6823.95
501.68	7080.03
502.03	7365.10
502.39	7691.23
502.75	8055.28
503.11	8441.59
503.47	8869.88
503.83	9293.47
504.19	9702.76
504.55	10116.57
504.91	10526.91
505.26	10927.31
505.62	11400.05
505.98	11936.43
506.34	12472.60
506.70	13072.52
507.06	13755.75
507.42	14422.76
507.78	15110.05
508.13	15899.17
508.49	16707.42
508.85	17467.30
509.21	18252.15
509.57	19110.24
509.93	19921.77
510.28	20705.34
510.64	21593.69
511.00	22472.58
511.36	23378.30
511.72	24343.07
512.07	25414.38
512.43	26467.13
512.79	27617.20
513.15	28785.38
513.51	29937.93
513.86	31094.53
514.22	32400.39
514.58	33708.33
514.94	34965.54
515.30	36330.64
515.65	37759.28
516.01	39079.85
516.37	40327.99
516.73	41656.97
517.08	42856.36
517.44	44031.96
517.80	45199.16
518.16	46413.01
518.51	47619.53
518.87	48921.97
519.23	50108.60
519.59	51292.14
519.94	52466.74
520.30	53487.68
520.66	54198.69
521.01	54908.31
521.37	55569.40
521.73	56056.72
522.09	56502.19
522.44	57098.42
522.80	57556.77
523.16	57885.05
523.51	58113.37
523.87	58323.04
524.23	58518.14
524.58	58668.38
524.94	58800.79
525.30	58993.44
525.65	59122.19
526.01	59187.16
526.37	59319.87
526.72	59473.29
527.08	59592.73
527.44	59631.40
527.79	59609.75
528.15	59494.71
528.51	59377.92
528.86	59295.11
529.22	59072.73
529.58	58799.34
529.93	58538.41
530.29	58065.53
530.65	57480.19
531.00	57051.26
531.36	56509.71
531.71	55908.14
532.07	55352.03
532.43	54615.84
532.78	53726.20
533.14	52989.28
533.49	52298.64
533.85	51746.81
534.21	51317.84
534.56	50882.10
534.92	50230.73
535.27	49452.15
535.63	48433.97
535.98	47372.98
536.34	46329.06
536.69	45371.00
537.05	44490.17
537.41	43730.55
537.76	43055.98
538.12	42231.69
538.47	41359.70
538.83	40559.52
539.18	39763.22
539.54	38849.66
539.89	38227.22
540.25	37752.51
540.60	37159.40
540.96	36374.62
541.31	35727.41
541.67	35120.63
542.02	34352.89
542.38	33664.00
542.73	33008.97
543.09	32282.73
543.44	31474.24
543.80	30832.39
544.15	30183.20
544.51	29712.98
544.86	29260.79
545.22	28838.40
545.57	28338.81
545.93	27760.95
546.28	27147.27
546.64	26646.46
546.99	26117.64
547.35	25600.52
547.70	25108.38
548.05	24596.67
548.41	24034.59
548.76	23417.04
549.12	22851.42
549.47	22328.83
549.83	21915.11
550.18	21502.43
550.53	21113.32
550.89	20696.44
551.24	20253.26
551.60	19801.10
551.95	19364.87
552.30	18990.24
552.66	18631.74
553.01	18276.75
553.37	17874.76
553.72	17452.49
554.07	17027.19
554.43	16618.32
554.78	16242.22
555.13	15857.86
555.49	15436.93
555.84	15059.92
556.19	14654.59
556.55	14204.55
556.90	13799.38
557.26	13520.95
557.61	13211.29
557.96	12896.23
558.32	12637.54
558.67	12352.06
559.02	12003.11
559.37	11697.81
559.73	11445.78
560.08	11173.74
560.43	10917.50
560.79	10701.26
561.14	10449.37
561.49	10203.24
561.85	9983.65
562.20	9767.97
562.55	9573.98
562.90	9377.03
563.26	9179.39
563.61	8994.68
563.96	8779.75
564.32	8524.18
564.67	8286.32
565.02	8078.17
565.37	7912.74
565.73	7747.13
566.08	7589.07
566.43	7436.16
566.78	7257.63
567.14	7071.58
567.49	6934.77
567.84	6795.39
568.19	6644.78
568.54	6511.84
568.90	6372.09
569.25	6227.49
569.60	6099.27
569.95	5994.81
570.31	5886.45
570.66	5765.79
571.01	5654.34
571.36	5551.28
571.71	5438.35
572.06	5324.46
572.42	5233.98
572.77	5126.55
573.12	5026.58
573.47	4936.07
573.82	4857.10
574.18	4772.00
574.53	4696.19
574.88	4619.00
575.23	4531.16
575.58	4437.52
575.93	4342.33
576.28	4243.23
576.64	4142.30
576.99	4046.41
577.34	3956.30
577.69	3868.34
578.04	3784.67
578.39	3702.80
578.74	3634.20
579.09	3573.25
579.44	3500.04
579.80	3436.23
580.15	3382.26
580.50	3326.56
580.85	3266.76
581.20	3219.97
581.55	3172.78
581.90	3120.24
582.25	3070.41
582.60	3016.86
582.95	2966.56
583.30	2917.13
583.65	2865.96
584.00	2810.40
584.35	2759.68
584.71	2712.40
585.06	2671.89
585.41	2632.96
585.76	2595.77
586.11	2565.04
586.46	2526.19
586.81	2484.64
587.16	2448.74
587.51	2415.90
587.86	2384.91
588.21	2357.53
588.56	2327.15
588.91	2299.90
589.26	2272.08
589.61	2239.89
589.96	2207.43
590.31	2177.70
590.66	2145.43
591.01	2118.96
591.36	2089.82
591.71	2063.91
592.06	2039.75
592.41	2012.79
592.76	1986.18
593.10	1962.98
593.45	1942.62
593.80	1924.76
594.15	1908.94
594.50	1893.80
594.85	1874.89
595.20	1855.32
595.55	1834.07
595.90	1812.21
596.25	1792.43
596.60	1777.45
596.95	1761.67
597.30	1746.62
597.64	1787.09
597.99	1777.59
598.34	1760.22
598.69	1746.30
599.04	1729.89
599.39	1661.76
599.74	1639.48
600.09	1623.21
600.44	1607.04
600.78	1595.61
601.13	1588.69
601.48	1582.44
601.83	1574.99
602.18	1564.91
602.53	1553.48
602.88	1538.90
603.22	1521.89
603.57	1510.32
603.92	1498.95
604.27	1489.68
604.62	1481.04
604.97	1475.31
605.31	1471.45
605.66	1465.69
606.01	1458.39
606.36	1448.86
606.71	1440.72
607.05	1431.35
607.40	1423.23
607.75	1414.32
608.10	1406.73
608.44	1398.42
608.79	1386.74
609.14	1379.23
609.49	1372.02
609.84	1366.71
610.18	1364.77
610.53	1360.60
610.88	1355.61
611.23	1350.51
611.57	1342.41
611.92	1334.60
612.27	1329.56
612.62	1321.58
612.96	1316.18
613.31	1309.55
613.66	1299.91
614.00	1290.92
614.35	1284.67
614.70	1277.79
615.05	1272.22
615.39	1270.72
615.74	1267.45
616.09	1264.80
616.43	1261.34
616.78	1260.61
617.13	1254.71
617.47	1250.81
617.82	1248.18
618.17	1241.96
618.51	1237.09
618.86	1236.06
619.21	1233.18
619.55	1228.50
619.90	1228.69
620.25	1227.52
620.59	1220.82
620.94	1218.81
621.29	1217.15
621.63	1211.93
621.98	1206.92
622.32	1205.24
622.67	1202.43
623.02	1201.47
623.36	1201.23
623.71	1199.99
624.05	1199.90
624.40	1195.78
624.75	1192.78
625.09	1189.41
625.44	1187.03
625.78	1183.12
626.13	1178.39
626.48	1174.27
626.82	1173.08
627.17	1172.47
627.51	1169.78
627.86	1175.60
628.20	1173.99
628.55	1170.22
628.89	1166.10
629.24	1166.64
629.58	1160.34
629.93	1161.75
630.28	1159.95
630.62	1156.22
630.97	1153.49
631.31	1151.36
631.66	1146.16
632.00	1146.14
632.35	1143.73
632.69	1142.72
633.04	1143.35
633.38	1139.72
633.73	1138.23
634.07	1138.81
634.42	1138.53
634.76	1137.66
635.11	1142.51
635.45	1140.45
635.79	1138.72
636.14	1133.97
636.48	1132.09
636.83	1125.19
637.17	1125.56
637.52	1126.71
637.86	1124.81
638.21	1122.85
638.55	1127.67
638.89	1124.79
639.24	1123.08
639.58	1126.62
639.93	1127.76
640.27	1121.87
640.61	1121.65
640.96	1122.01
641.30	1122.05
641.65	1119.31
641.99	1121.19
642.33	1123.41
642.68	1122.26
643.02	1121.51
643.37	1120.46
643.71	1121.35
644.05	1118.50
644.40	1120.77
644.74	1118.00
645.08	1118.14
645.43	1115.73
645.77	1117.18
646.11	1112.22
646.46	1113.74
646.80	1117.49
647.14	1118.75
647.49	1115.55
647.83	1117.11
648.17	1114.09
648.52	1113.07
648.86	1110.79
649.20	1113.70
649.55	1114.05
649.89	1114.47
650.23	1112.13
650.57	1113.11
650.92	1110.00
651.26	1108.55
651.60	1106.75
651.95	1105.32
652.29	1104.03
652.63	1105.86
652.97	1109.27
653.32	1109.62
653.66	1108.85
654.00	1109.32
654.34	1107.38
654.69	1104.55
655.03	1104.15
655.37	1104.71
655.71	1103.40
656.05	1101.67
656.40	1100.92
656.74	1103.42
657.08	1102.98
657.42	1101.62
657.76	1099.72
658.11	1097.62
658.45	1096.89
658.79	1096.99
659.13	1099.30
659.47	1102.39
659.82	1106.75
660.16	1106.11
660.50	1107.00
660.84	1108.22
661.18	1106.35
661.52	1102.51
661.87	1101.43
662.21	1097.83
662.55	1096.07
662.89	1099.47
663.23	1098.72
663.57	1098.34
663.91	1099.02
664.25	1100.15
664.60	1098.60
664.94	1096.47
665.28	1097.20
665.62	1097.88
665.96	1093.29
666.30	1093.03
666.64	1097.85
666.98	1098.60
667.32	1099.42
667.66	1101.62
668.01	1102.06
668.35	1098.79
668.69	1097.20
669.03	1096.47
669.37	1095.93
669.71	1095.28
670.05	1094.50
670.39	1095.25
670.73	1095.25
671.07	1094.86
671.41	1095.07
671.75	1096.00
672.09	1091.06
672.43	1090.08
672.77	1092.84
673.11	1090.81
673.45	1091.67
673.79	1096.96
674.13	1100.43
674.47	1097.10
674.81	1096.26
675.15	1095.65
675.49	1090.55
675.83	1087.95
676.17	1088.93
676.51	1087.79
676.85	1088.42
677.19	1093.66
677.53	1093.69
677.87	1095.65
678.21	1099.79
678.55	1097.43
678.89	1092.80
679.23	1092.45
679.57	1089.31
679.90	1086.29
680.24	1088.51
680.58	1090.10
680.92	1091.88
681.26	1091.79
681.60	1093.92
681.94	1093.05
682.28	1090.81
682.62	1089.99
682.96	1088.16
683.29	1087.48
683.63	1084.56
683.97	1089.12
684.31	1086.71
684.65	1088.23
684.99	1086.06
685.33	1089.85
685.67	1086.03
686.00	1089.26
686.34	1090.08
686.68	1095.07
687.02	1096.75
687.36	1101.03
687.70	1099.19
688.03	1100.36
688.37	1097.34
688.71	1098.13
689.05	1097.45
689.39	1099.00
689.72	1097.29
690.06	1097.52
690.40	1094.25
690.74	1095.00
691.08	1092.89
691.41	1092.96
691.75	1091.79
692.09	1093.12
692.43	1093.22
692.76	1095.39
693.10	1096.66
693.44	1099.02
693.78	1097.62
694.11	1093.50
694.45	1090.62
694.79	1085.84
695.13	1085.03
695.46	1082.12
695.80	1085.38
696.14	1089.50
696.48	1091.37
696.81	1087.62
697.15	1089.82
697.49	1090.50
697.82	1084.79
698.16	1087.65
698.50	1089.99
698.83	1088.63
699.17	1085.47
699.51	1088.93
699.84	1086.85
700.18	1083.06
700.52	1086.06
700.85	1086.01
701.19	1084.77
701.53	1086.24
701.86	1092.12
702.20	1089.68
702.54	1091.37
702.87	1092.77
703.21	1091.25
703.55	1089.19
703.88	1091.67
704.22	1092.82
704.55	1090.85
704.89	1092.19
705.23	1092.96
705.56	1092.77
705.90	1091.34
706.23	1091.04
706.57	1089.68
706.91	1088.19
707.24	1087.46
707.58	1084.44
707.91	1084.58
708.25	1085.59
708.58	1086.06
708.92	1084.77
709.26	1089.31
709.59	1089.71
709.93	1086.90
710.26	1087.11
710.60	1087.06
710.93	1082.59
711.27	1085.40
711.60	1090.99
711.94	1092.02
712.27	1093.45
712.61	1096.56
712.94	1094.04
713.28	1094.08
713.61	1091.60
713.95	1088.61
714.28	1088.47
714.62	1089.17
714.95	1085.07
715.29	1087.88
715.62	1089.12
715.96	1088.04
716.29	1086.76
716.63	1087.67
716.96	1085.42
717.29	1086.45
717.63	1089.33
717.96	1089.36
718.30	1090.60
718.63	1091.46
718.97	1090.57
719.30	1087.48
719.63	1084.18
719.97	1082.05
720.30	1081.44
720.64	1081.12
720.97	1082.36
721.30	1089.47
721.64	1090.13
721.97	1092.98
722.31	1091.32
722.64	1088.02
722.97	1083.55
723.31	1083.48
723.64	1080.91
723.97	1084.11
724.31	1087.53
724.64	1089.24
724.98	1088.61
725.31	1088.89
725.64	1090.55
725.98	1088.07
726.31	1088.04
726.64	1089.68
726.97	1089.07
727.31	1088.58
727.64	1089.03
727.97	1089.52
728.31	1085.33
728.64	1087.83
728.97	1086.24
729.31	1086.34
729.64	1088.77
729.97	1093.36
730.30	1093.40
730.64	1091.44
730.97	1094.55
731.30	1092.61
731.63	1089.59
731.97	1089.94
732.30	1091.81
732.63	1091.49
732.96	1091.13
733.30	1090.36
733.63	1088.89
733.96	1088.14
734.29	1089.33
734.63	1090.57
734.96	1093.99
735.29	1093.12
735.62	1092.68
735.95	1092.80
736.29	1091.67
736.62	1091.51
736.95	1091.63
737.28	1091.39
737.61	1087.13
737.94	1088.72
738.28	1089.45
738.61	1087.23
738.94	1088.19
739.27	1088.49
739.60	1084.04
739.93	1082.97
740.27	1088.37
740.60	1089.47
740.93	1090.06
741.26	1093.10
741.59	1091.30
741.92	1089.85
742.25	1089.33
742.58	1088.93
742.91	1087.79
743.25	1089.43
743.58	1088.51
743.91	1087.67
744.24	1088.16
744.57	1084.25
744.90	1084.67
745.23	1082.38
745.56	1086.24
745.89	1087.39
746.22	1091.25
746.55	1090.95
746.88	1091.56
747.21	1089.19
747.54	1088.09
747.87	1087.51
748.20	1086.31
748.53	1086.24
748.87	1085.12
749.20	1083.86
749.53	1087.09
749.86	1089.87
750.19	1089.26
750.52	1087.58
750.85	1089.47
751.18	1081.66
751.51	1077.28
751.84	1079.95
752.16	1080.44
752.49	1079.41
752.82	1087.48
753.15	1091.63
753.48	1090.62
753.81	1090.60
754.14	1090.74
754.47	1086.66
754.80	1084.14
755.13	1086.48
755.46	1087.18
755.79	1089.14
756.12	1091.72
756.45	1090.97
756.78	1088.79
757.11	1088.96
757.43	1086.55
757.76	1082.99
758.09	1081.84
758.42	1080.58
758.75	1082.71
759.08	1083.55
759.41	1085.07
759.74	1089.80
760.07	1092.16
760.39	1088.91
760.72	1087.11
761.05	1084.65
761.38	1078.73
761.71	1077.93
762.04	1081.44
762.36	1085.82
762.69	1085.38
763.02	1088.77
