SpectraSuite Data File
++++++++++++++++++++++++++++++++++++
Date: Mon Aug 26 10:26:04 PDT 2019
User: corrico
Dark Spectrum Present: No
Reference Spectrum Present: No
Number of Sampled Component Spectra: 1
Spectrometers: USB2+H06089
Integration Time (usec): 10000 (USB2+H06089)
Spectra Averaged: 20 (USB2+H06089)
Boxcar Smoothing: 2 (USB2+H06089)
Correct for Electrical Dark: No (USB2+H06089)
Strobe/Lamp Enabled: No (USB2+H06089)
Correct for Detector Non-linearity: No (USB2+H06089)
Correct for Stray Light: No (USB2+H06089)
Number of Pixels in Processed Spectrum: 2048
>>>>>Begin Processed Spectral Data<<<<<
339.70	1037.09
340.07	1037.09
340.45	1001.19
340.82	977.97
341.19	954.94
341.57	929.85
341.94	917.89
342.31	908.41
342.69	903.63
343.06	901.04
343.43	898.63
343.81	897.95
344.18	903.77
344.55	907.50
344.93	909.18
345.30	917.33
345.67	928.02
346.04	934.06
346.42	943.94
346.79	955.43
347.16	963.20
347.54	970.29
347.91	976.71
348.28	983.89
348.65	989.13
349.03	994.94
349.40	1001.75
349.77	1007.09
350.14	1015.91
350.52	1022.63
350.89	1030.07
351.26	1040.16
351.63	1047.88
352.01	1051.39
352.38	1058.88
352.75	1061.83
353.12	1064.38
353.50	1066.54
353.87	1068.74
354.24	1068.67
354.61	1072.88
354.98	1074.38
355.36	1078.59
355.73	1079.62
356.10	1081.14
356.47	1082.17
356.84	1082.12
357.22	1083.20
357.59	1084.86
357.96	1083.86
358.33	1080.46
358.70	1077.61
359.08	1077.18
359.45	1074.89
359.82	1075.52
360.19	1079.81
360.56	1081.35
360.94	1077.63
361.31	1077.82
361.68	1078.21
362.05	1072.32
362.42	1069.44
362.79	1073.81
363.16	1073.16
363.54	1071.05
363.91	1073.70
364.28	1077.82
364.65	1073.37
365.02	1072.69
365.39	1072.57
365.76	1074.10
366.14	1071.47
366.51	1072.36
366.88	1072.25
367.25	1069.93
367.62	1070.63
367.99	1070.16
368.36	1069.32
368.73	1068.99
369.10	1072.36
369.48	1069.48
369.85	1069.27
370.22	1068.48
370.59	1067.10
370.96	1064.66
371.33	1063.35
371.70	1063.40
372.07	1063.28
372.44	1064.99
372.81	1064.80
373.18	1067.28
373.55	1068.67
373.93	1068.99
374.30	1067.57
374.67	1069.06
375.04	1067.82
375.41	1068.90
375.78	1071.68
376.15	1069.72
376.52	1069.95
376.89	1067.68
377.26	1065.88
377.63	1065.11
378.00	1070.37
378.37	1070.98
378.74	1073.72
379.11	1075.10
379.48	1070.94
379.85	1073.42
380.22	1073.14
380.59	1070.94
380.96	1070.72
381.33	1074.14
381.70	1071.64
382.07	1071.31
382.44	1072.32
382.81	1071.15
383.18	1070.05
383.55	1070.05
383.92	1070.82
384.29	1069.20
384.66	1071.24
385.03	1074.91
385.40	1076.97
385.77	1077.77
386.14	1079.78
386.51	1079.81
386.88	1077.93
387.25	1074.80
387.62	1074.47
387.99	1076.25
388.36	1075.31
388.73	1075.80
389.10	1078.57
389.46	1076.41
389.83	1077.16
390.20	1075.66
390.57	1075.97
390.94	1074.05
391.31	1075.90
391.68	1071.85
392.05	1077.02
392.42	1077.91
392.79	1078.82
393.16	1076.32
393.53	1080.63
393.89	1075.69
394.26	1077.49
394.63	1075.38
395.00	1076.93
395.37	1077.02
395.74	1079.01
396.11	1075.03
396.48	1075.90
396.84	1077.23
397.21	1074.77
397.58	1074.94
397.95	1075.13
398.32	1076.46
398.69	1073.21
399.06	1075.05
399.42	1077.00
399.79	1077.84
400.16	1076.65
400.53	1077.68
400.90	1074.94
401.27	1072.74
401.64	1070.12
402.00	1069.55
402.37	1071.43
402.74	1073.39
403.11	1074.75
403.48	1078.26
403.84	1075.36
404.21	1078.61
404.58	1077.44
404.95	1075.01
405.32	1074.52
405.68	1076.23
406.05	1070.02
406.42	1068.36
406.79	1068.08
407.16	1067.66
407.52	1068.92
407.89	1070.63
408.26	1076.01
408.63	1078.54
408.99	1079.74
409.36	1079.76
409.73	1078.45
410.10	1074.45
410.47	1075.20
410.83	1075.76
411.20	1076.23
411.57	1078.21
411.94	1080.60
412.30	1076.41
412.67	1073.30
413.04	1070.35
413.40	1068.43
413.77	1066.25
414.14	1067.28
414.51	1067.68
414.87	1069.62
415.24	1073.72
415.61	1073.39
415.97	1073.93
416.34	1075.34
416.71	1074.33
417.08	1073.86
417.44	1075.48
417.81	1075.05
418.18	1073.14
418.54	1072.95
418.91	1070.58
419.28	1069.32
419.64	1066.77
420.01	1067.47
420.38	1071.10
420.74	1076.15
421.11	1078.24
421.48	1081.73
421.84	1081.37
422.21	1079.97
422.58	1077.86
422.94	1076.83
423.31	1077.16
423.68	1078.47
424.04	1078.61
424.41	1078.36
424.77	1080.46
425.14	1078.71
425.51	1082.22
425.87	1082.19
426.24	1080.65
426.61	1077.93
426.97	1082.99
427.34	1078.92
427.70	1079.60
428.07	1082.15
428.44	1083.53
428.80	1081.30
429.17	1081.66
429.53	1081.87
429.90	1081.94
430.27	1080.74
430.63	1080.41
431.00	1079.53
431.36	1078.12
431.73	1076.32
432.09	1076.37
432.46	1075.03
432.83	1074.94
433.19	1075.69
433.56	1074.84
433.92	1077.58
434.29	1076.51
434.65	1077.35
435.02	1076.01
435.38	1076.41
435.75	1076.30
436.11	1075.41
436.48	1074.03
436.84	1074.21
437.21	1075.38
437.57	1071.85
437.94	1075.27
438.30	1077.61
438.67	1078.33
439.03	1078.47
439.40	1076.62
439.76	1073.65
440.13	1073.86
440.49	1074.66
440.86	1075.55
441.22	1079.83
441.59	1081.02
441.95	1082.52
442.32	1082.36
442.68	1081.49
443.05	1079.15
443.41	1079.31
443.78	1076.65
444.14	1073.16
444.51	1075.20
444.87	1076.34
445.24	1075.92
445.60	1074.80
445.96	1078.24
446.33	1076.83
446.69	1076.51
447.06	1076.86
447.42	1077.75
447.79	1077.37
448.15	1076.76
448.51	1077.68
448.88	1079.83
449.24	1077.42
449.61	1078.17
449.97	1076.13
450.33	1071.43
450.70	1069.04
451.06	1072.27
451.43	1071.43
451.79	1073.07
452.15	1079.90
452.52	1081.63
452.88	1082.76
453.24	1083.90
453.61	1083.06
453.97	1080.93
454.34	1078.92
454.70	1077.42
455.06	1077.58
455.43	1079.81
455.79	1079.01
456.15	1079.99
456.52	1082.38
456.88	1081.07
457.24	1078.66
457.61	1076.08
457.97	1076.97
458.33	1074.84
458.70	1072.90
459.06	1075.22
459.42	1078.10
459.79	1077.30
460.15	1076.23
460.51	1078.47
460.88	1078.87
461.24	1080.13
461.60	1077.82
461.96	1078.89
462.33	1080.39
462.69	1079.69
463.05	1078.21
463.42	1082.15
463.78	1082.66
464.14	1076.97
464.50	1074.68
464.87	1073.04
465.23	1072.15
465.59	1069.58
465.95	1074.49
466.32	1076.65
466.68	1079.76
467.04	1079.92
467.40	1081.98
467.77	1082.85
468.13	1081.51
468.49	1079.46
468.85	1079.13
469.22	1079.24
469.58	1078.92
469.94	1078.59
470.30	1079.60
470.66	1079.31
471.03	1080.06
471.39	1078.75
471.75	1079.17
472.11	1079.69
472.47	1078.96
472.84	1075.71
473.20	1075.08
473.56	1077.14
473.92	1078.28
474.28	1079.92
474.65	1085.87
475.01	1086.76
475.37	1083.39
475.73	1086.10
476.09	1085.47
476.45	1081.26
476.81	1082.47
477.18	1083.97
477.54	1081.49
477.90	1079.92
478.26	1079.27
478.62	1078.71
478.98	1079.27
479.34	1075.92
479.71	1078.47
480.07	1079.81
480.43	1080.53
480.79	1080.20
481.15	1083.43
481.51	1084.42
481.87	1087.69
482.23	1086.87
482.59	1082.71
482.96	1084.67
483.32	1082.59
483.68	1082.05
484.04	1084.49
484.40	1091.39
484.76	1090.64
485.12	1091.20
485.48	1088.16
485.84	1086.41
486.20	1084.89
486.56	1085.17
486.92	1086.43
487.28	1087.46
487.64	1086.03
488.00	1085.84
488.37	1082.05
488.73	1080.58
489.09	1082.26
489.45	1083.76
489.81	1083.81
490.17	1082.90
490.53	1079.74
490.89	1078.10
491.25	1077.51
491.61	1076.65
491.97	1077.65
492.33	1080.86
492.69	1080.46
493.05	1079.38
493.41	1079.74
493.77	1078.14
494.13	1076.06
494.49	1076.67
494.85	1080.11
495.21	1080.88
495.57	1083.11
495.93	1082.45
496.29	1083.01
496.64	1080.44
497.00	1080.98
497.36	1081.05
497.72	1080.93
498.08	1080.84
498.44	1080.72
498.80	1076.32
499.16	1075.64
499.52	1080.39
499.88	1082.05
500.24	1082.38
500.60	1087.86
500.96	1088.68
501.32	1089.03
501.68	1087.95
502.03	1088.98
502.39	1085.28
502.75	1086.06
503.11	1084.91
503.47	1083.57
503.83	1083.97
504.19	1085.42
504.55	1087.23
504.91	1086.99
505.26	1088.86
505.62	1089.22
505.98	1089.82
506.34	1085.91
506.70	1084.89
507.06	1082.85
507.42	1081.44
507.78	1081.23
508.13	1082.10
508.49	1085.19
508.85	1086.41
509.21	1088.70
509.57	1088.33
509.93	1090.92
510.28	1088.02
510.64	1088.70
511.00	1087.83
511.36	1088.33
511.72	1089.59
512.07	1090.24
512.43	1088.86
512.79	1090.71
513.15	1091.25
513.51	1087.25
513.86	1089.40
514.22	1090.32
514.58	1090.32
514.94	1090.90
515.30	1093.76
515.65	1092.96
516.01	1093.03
516.37	1092.87
516.73	1095.04
517.08	1093.57
517.44	1095.53
517.80	1095.98
518.16	1095.32
518.51	1093.85
518.87	1096.56
519.23	1095.77
519.59	1098.58
519.94	1097.38
520.30	1098.93
520.66	1101.06
521.01	1103.16
521.37	1102.21
521.73	1101.88
522.09	1101.25
522.44	1099.72
522.80	1099.30
523.16	1099.26
523.51	1099.54
523.87	1101.11
524.23	1102.84
524.58	1100.71
524.94	1100.05
525.30	1101.81
525.65	1100.80
526.01	1099.42
526.37	1099.19
526.72	1099.30
527.08	1099.26
527.44	1098.34
527.79	1098.83
528.15	1101.41
528.51	1104.43
528.86	1105.20
529.22	1105.06
529.58	1105.72
529.93	1103.42
530.29	1100.10
530.65	1100.99
531.00	1101.74
531.36	1099.26
531.71	1103.77
532.07	1104.97
532.43	1101.64
532.78	1102.44
533.14	1104.92
533.49	1102.65
533.85	1107.31
534.21	1109.27
534.56	1108.06
534.92	1109.16
535.27	1105.65
535.63	1102.21
535.98	1101.34
536.34	1102.39
536.69	1097.43
537.05	1099.56
537.41	1095.75
537.76	1094.01
538.12	1091.91
538.47	1096.96
538.83	1098.20
539.18	1101.53
539.54	1101.39
539.89	1102.67
540.25	1099.37
540.60	1098.41
540.96	1098.39
541.31	1104.71
541.67	1105.76
542.02	1110.33
542.38	1110.79
542.73	1106.70
543.09	1102.86
543.44	1100.57
543.80	1099.51
544.15	1100.54
544.51	1105.06
544.86	1107.54
545.22	1112.57
545.57	1110.51
545.93	1110.79
546.28	1110.21
546.64	1108.29
546.99	1103.89
547.35	1102.58
547.70	1099.12
548.05	1099.51
548.41	1098.09
548.76	1095.56
549.12	1094.32
549.47	1095.44
549.83	1094.08
550.18	1094.36
550.53	1097.71
550.89	1098.67
551.24	1094.32
551.60	1095.00
551.95	1092.42
552.30	1089.50
552.66	1088.44
553.01	1088.79
553.37	1086.64
553.72	1088.70
554.07	1090.74
554.43	1092.66
554.78	1093.94
555.13	1093.17
555.49	1090.76
555.84	1089.45
556.19	1088.09
556.55	1086.92
556.90	1085.82
557.26	1085.59
557.61	1086.69
557.96	1084.58
558.32	1083.97
558.67	1085.19
559.02	1084.56
559.37	1080.67
559.73	1080.37
560.08	1083.18
560.43	1084.42
560.79	1084.32
561.14	1084.32
561.49	1084.81
561.85	1083.76
562.20	1079.13
562.55	1082.19
562.90	1084.25
563.26	1086.22
563.61	1086.08
563.96	1088.49
564.32	1088.40
564.67	1090.27
565.02	1088.77
565.37	1089.14
565.73	1087.09
566.08	1081.80
566.43	1079.34
566.78	1079.06
567.14	1078.66
567.49	1079.41
567.84	1083.57
568.19	1083.88
568.54	1083.83
568.90	1082.22
569.25	1083.60
569.60	1082.19
569.95	1079.64
570.31	1077.77
570.66	1079.67
571.01	1076.08
571.36	1074.21
571.71	1075.31
572.06	1077.44
572.42	1076.95
572.77	1079.57
573.12	1080.13
573.47	1082.26
573.82	1083.90
574.18	1082.90
574.53	1086.57
574.88	1089.87
575.23	1091.39
575.58	1089.73
575.93	1091.51
576.28	1088.19
576.64	1084.18
576.99	1082.10
577.34	1081.98
577.69	1082.40
578.04	1083.34
578.39	1084.42
578.74	1087.97
579.09	1086.41
579.44	1083.76
579.80	1081.98
580.15	1086.50
580.50	1080.58
580.85	1082.33
581.20	1083.11
581.55	1082.90
581.90	1080.67
582.25	1082.73
582.60	1079.99
582.95	1081.12
583.30	1082.73
583.65	1080.70
584.00	1080.41
584.35	1081.49
584.71	1080.11
585.06	1079.41
585.41	1082.38
585.76	1082.73
586.11	1085.70
586.46	1086.13
586.81	1085.61
587.16	1086.03
587.51	1089.26
587.86	1088.23
588.21	1090.32
588.56	1091.65
588.91	1090.69
589.26	1088.82
589.61	1086.13
589.96	1082.66
590.31	1080.30
590.66	1077.42
591.01	1077.58
591.36	1080.41
591.71	1082.83
592.06	1087.58
592.41	1092.42
592.76	1090.03
593.10	1088.47
593.45	1088.19
593.80	1085.17
594.15	1084.14
594.50	1083.39
594.85	1084.07
595.20	1083.25
595.55	1081.02
595.90	1079.08
596.25	1081.87
596.60	1082.15
596.95	1081.80
597.30	1083.01
597.64	1135.11
597.99	1138.81
598.34	1140.89
598.69	1141.48
599.04	1146.07
599.39	1096.31
599.74	1091.51
600.09	1088.51
600.44	1088.51
600.78	1082.12
601.13	1080.13
601.48	1079.55
601.83	1076.67
602.18	1075.36
602.53	1077.68
602.88	1079.03
603.22	1077.82
603.57	1081.12
603.92	1082.59
604.27	1083.46
604.62	1084.58
604.97	1084.67
605.31	1084.28
605.66	1084.63
606.01	1085.12
606.36	1083.08
606.71	1086.24
607.05	1088.00
607.40	1089.14
607.75	1086.87
608.10	1084.86
608.44	1081.89
608.79	1080.56
609.14	1081.75
609.49	1087.88
609.84	1092.89
610.18	1099.02
610.53	1105.53
610.88	1109.58
611.23	1112.08
611.57	1113.91
611.92	1111.12
612.27	1107.03
612.62	1103.84
612.96	1099.70
613.31	1093.47
613.66	1091.37
614.00	1092.77
614.35	1091.88
614.70	1090.62
615.05	1091.39
615.39	1093.01
615.74	1089.33
616.09	1085.80
616.43	1083.97
616.78	1083.53
617.13	1081.54
617.47	1082.50
617.82	1082.36
618.17	1084.53
618.51	1086.50
618.86	1088.63
619.21	1082.57
619.55	1085.17
619.90	1084.28
620.25	1084.09
620.59	1080.44
620.94	1084.56
621.29	1082.57
621.63	1084.21
621.98	1081.66
622.32	1085.05
622.67	1085.00
623.02	1086.66
623.36	1082.71
623.71	1086.45
624.05	1086.20
624.40	1086.38
624.75	1087.25
625.09	1088.30
625.44	1084.46
625.78	1083.11
626.13	1084.09
626.48	1080.63
626.82	1079.27
627.17	1084.30
627.51	1086.34
627.86	1085.26
628.20	1082.50
628.55	1085.12
628.89	1081.66
629.24	1080.86
629.58	1081.30
629.93	1083.83
630.28	1081.98
630.62	1080.48
630.97	1081.75
631.31	1081.44
631.66	1083.76
632.00	1085.82
632.35	1086.43
632.69	1085.07
633.04	1084.89
633.38	1084.81
633.73	1081.30
634.07	1080.77
634.42	1076.37
634.76	1077.28
635.11	1076.65
635.45	1078.14
635.79	1075.69
636.14	1078.21
636.48	1078.64
636.83	1075.52
637.17	1075.10
637.52	1077.65
637.86	1075.52
638.21	1073.88
638.55	1077.49
638.89	1079.78
639.24	1080.02
639.58	1083.25
639.93	1085.28
640.27	1087.83
640.61	1089.00
640.96	1088.33
641.30	1089.61
641.65	1087.69
641.99	1085.00
642.33	1082.78
642.68	1085.87
643.02	1082.97
643.37	1081.98
643.71	1082.19
644.05	1083.25
644.40	1082.50
644.74	1082.64
645.08	1085.84
645.43	1086.62
645.77	1085.24
646.11	1083.97
646.46	1084.35
646.80	1083.55
647.14	1081.54
647.49	1082.59
647.83	1084.58
648.17	1082.05
648.52	1080.65
648.86	1082.15
649.20	1083.20
649.55	1079.41
649.89	1080.86
650.23	1084.09
650.57	1081.02
650.92	1080.11
651.26	1083.13
651.60	1083.50
651.95	1081.23
652.29	1087.34
652.63	1086.08
652.97	1085.91
653.32	1085.31
653.66	1083.90
654.00	1079.29
654.34	1079.81
654.69	1079.06
655.03	1078.73
655.37	1079.85
655.71	1082.50
656.05	1083.69
656.40	1080.79
656.74	1083.22
657.08	1084.77
657.42	1082.50
657.76	1081.94
658.11	1085.21
658.45	1086.94
658.79	1086.13
659.13	1086.55
659.47	1088.75
659.82	1087.74
660.16	1088.49
660.50	1087.79
660.84	1088.40
661.18	1083.53
661.52	1082.43
661.87	1079.88
662.21	1080.56
662.55	1079.92
662.89	1082.29
663.23	1081.98
663.57	1081.28
663.91	1080.48
664.25	1083.41
664.60	1085.45
664.94	1090.53
665.28	1090.90
665.62	1091.67
665.96	1089.87
666.30	1087.46
666.64	1084.58
666.98	1085.03
667.32	1083.46
667.66	1082.05
668.01	1082.78
668.35	1086.13
668.69	1083.69
669.03	1086.48
669.37	1085.73
669.71	1086.08
670.05	1083.25
670.39	1084.44
670.73	1083.81
671.07	1084.72
671.41	1083.79
671.75	1081.33
672.09	1080.86
672.43	1079.99
672.77	1082.03
673.11	1082.99
673.45	1083.97
673.79	1083.32
674.13	1083.13
674.47	1081.80
674.81	1079.64
675.15	1081.70
675.49	1083.81
675.83	1083.60
676.17	1084.07
676.51	1084.00
676.85	1081.28
677.19	1081.07
677.53	1080.79
677.87	1077.89
678.21	1079.97
678.55	1077.51
678.89	1077.49
679.23	1079.36
679.57	1080.06
679.90	1076.20
680.24	1078.52
680.58	1079.08
680.92	1076.25
681.26	1076.48
681.60	1077.28
681.94	1077.14
682.28	1074.91
682.62	1076.65
682.96	1076.25
683.29	1075.99
683.63	1079.90
683.97	1081.44
684.31	1080.77
684.65	1082.59
684.99	1081.98
685.33	1079.36
685.67	1079.36
686.00	1079.92
686.34	1079.55
686.68	1081.75
687.02	1082.29
687.36	1080.41
687.70	1081.70
688.03	1080.23
688.37	1079.97
688.71	1079.95
689.05	1080.44
689.39	1079.43
689.72	1080.93
690.06	1082.80
690.40	1079.67
690.74	1080.34
691.08	1078.43
691.41	1079.60
691.75	1078.92
692.09	1079.64
692.43	1079.81
692.76	1079.46
693.10	1076.69
693.44	1074.35
693.78	1078.89
694.11	1079.36
694.45	1079.71
694.79	1080.02
695.13	1081.26
695.46	1081.19
695.80	1079.67
696.14	1083.74
696.48	1083.60
696.81	1085.75
697.15	1078.61
697.49	1079.06
697.82	1075.05
698.16	1073.58
698.50	1068.13
698.83	1073.86
699.17	1077.00
699.51	1074.73
699.84	1079.27
700.18	1084.21
700.52	1082.71
700.85	1078.54
701.19	1083.50
701.53	1079.67
701.86	1078.71
702.20	1076.34
702.54	1076.95
702.87	1074.35
703.21	1079.88
703.55	1082.03
703.88	1083.60
704.22	1086.45
704.55	1087.44
704.89	1085.54
705.23	1082.19
705.56	1082.31
705.90	1080.67
706.23	1080.46
706.57	1080.58
706.91	1082.03
707.24	1083.83
707.58	1082.54
707.91	1080.02
708.25	1077.70
708.58	1079.13
708.92	1081.75
709.26	1085.05
709.59	1088.77
709.93	1087.13
710.26	1084.67
710.60	1079.88
710.93	1078.31
711.27	1075.62
711.60	1078.43
711.94	1079.83
712.27	1085.47
712.61	1084.72
712.94	1085.73
713.28	1084.89
713.61	1085.52
713.95	1081.05
714.28	1081.16
714.62	1080.84
714.95	1079.31
715.29	1078.68
715.62	1078.89
715.96	1078.40
716.29	1079.06
716.63	1081.51
716.96	1080.48
717.29	1081.89
717.63	1082.87
717.96	1084.28
718.30	1082.76
718.63	1084.21
718.97	1085.52
719.30	1087.16
719.63	1089.12
719.97	1091.13
720.30	1092.59
720.64	1092.09
720.97	1088.49
721.30	1085.84
721.64	1086.59
721.97	1084.93
722.31	1083.97
722.64	1087.39
722.97	1087.69
723.31	1085.10
723.64	1084.84
723.97	1084.28
724.31	1087.76
724.64	1088.04
724.98	1087.13
725.31	1085.38
725.64	1084.42
725.98	1076.69
726.31	1073.88
726.64	1076.25
726.97	1074.66
727.31	1075.48
727.64	1079.34
727.97	1081.61
728.31	1080.51
728.64	1084.79
728.97	1083.11
729.31	1081.84
729.64	1081.26
729.97	1080.70
730.30	1081.02
730.64	1081.02
730.97	1079.81
731.30	1078.87
731.63	1080.51
731.97	1079.92
732.30	1079.06
732.63	1082.31
732.96	1084.30
733.30	1084.02
733.63	1080.11
733.96	1081.26
734.29	1080.79
734.63	1081.14
734.96	1079.13
735.29	1080.46
735.62	1083.46
735.95	1079.74
736.29	1078.36
736.62	1078.36
736.95	1080.98
737.28	1079.95
737.61	1081.05
737.94	1085.80
738.28	1085.68
738.61	1088.51
738.94	1087.25
739.27	1088.65
739.60	1084.98
739.93	1088.51
740.27	1085.05
740.60	1086.80
740.93	1088.16
741.26	1088.54
741.59	1085.00
741.92	1080.48
742.25	1081.23
742.58	1079.95
742.91	1080.98
743.25	1079.08
743.58	1083.34
743.91	1080.02
744.24	1079.83
744.57	1076.44
744.90	1078.57
745.23	1077.49
745.56	1077.58
745.89	1078.87
746.22	1082.08
746.55	1085.12
746.88	1085.35
747.21	1086.01
747.54	1082.80
747.87	1079.85
748.20	1076.58
748.53	1077.65
748.87	1081.40
749.20	1084.72
749.53	1084.86
749.86	1085.82
750.19	1083.69
750.52	1078.68
750.85	1078.10
751.18	1078.66
751.51	1080.84
751.84	1081.58
752.16	1084.11
752.49	1085.47
752.82	1086.97
753.15	1085.31
753.48	1087.09
753.81	1085.00
754.14	1081.40
754.47	1081.40
754.80	1079.90
755.13	1082.01
755.46	1085.89
755.79	1085.70
756.12	1089.38
756.45	1090.43
756.78	1089.26
757.11	1085.45
757.43	1087.30
757.76	1082.83
758.09	1083.81
758.42	1080.46
758.75	1081.16
759.08	1083.57
759.41	1084.04
759.74	1081.82
760.07	1078.12
760.39	1076.76
760.72	1073.00
761.05	1071.66
761.38	1074.12
761.71	1079.17
762.04	1080.91
762.36	1083.60
762.69	1084.37
763.02	1082.61
763.35	1082.76
763.68	1083.46
764.01	1082.97
764.33	1081.58
764.66	1082.97
764.99	1084.49
765.32	1083.76
765.65	1084.79
765.97	1087.67
766.30	1087.93
