SpectraSuite Data File
++++++++++++++++++++++++++++++++++++
Date: Mon Aug 26 10:26:01 PDT 2019
User: corrico
Dark Spectrum Present: No
Reference Spectrum Present: No
Number of Sampled Component Spectra: 1
Spectrometers: USB2+H06089
Integration Time (usec): 10000 (USB2+H06089)
Spectra Averaged: 2 (USB2+H06089)
Boxcar Smoothing: 2 (USB2+H06089)
Correct for Electrical Dark: No (USB2+H06089)
Strobe/Lamp Enabled: No (USB2+H06089)
Correct for Detector Non-linearity: No (USB2+H06089)
Correct for Stray Light: No (USB2+H06089)
Number of Pixels in Processed Spectrum: 2048
>>>>>Begin Processed Spectral Data<<<<<
339.70	1038.03
340.07	1038.03
340.45	999.64
340.82	976.00
341.19	945.58
341.57	920.77
341.94	897.60
342.31	888.70
342.69	884.02
343.06	892.68
343.43	886.83
343.81	899.00
344.18	910.00
344.55	923.34
344.93	920.53
345.30	927.32
345.67	932.70
346.04	931.07
346.42	938.79
346.79	951.90
347.16	963.60
347.54	968.51
347.91	978.58
348.28	976.00
348.65	979.98
349.03	987.71
349.40	997.77
349.77	1007.83
350.14	1016.73
350.52	1019.07
350.89	1029.13
351.26	1043.18
351.63	1046.22
352.01	1049.50
352.38	1069.16
352.75	1071.03
353.12	1068.69
353.50	1070.09
353.87	1073.37
354.24	1072.43
354.61	1064.01
354.98	1073.14
355.36	1069.62
355.73	1064.01
356.10	1062.14
356.47	1069.86
356.84	1059.33
357.22	1067.75
357.59	1073.84
357.96	1071.50
358.33	1060.73
358.70	1071.26
359.08	1068.45
359.45	1064.94
359.82	1052.07
360.19	1056.52
360.56	1044.82
360.94	1047.62
361.31	1051.37
361.68	1054.65
362.05	1056.05
362.42	1059.33
362.79	1056.99
363.16	1057.22
363.54	1056.75
363.91	1061.90
364.28	1061.90
364.65	1059.33
365.02	1047.62
365.39	1057.22
365.76	1056.52
366.14	1052.77
366.51	1061.43
366.88	1069.86
367.25	1071.03
367.62	1071.97
367.99	1075.71
368.36	1063.07
368.73	1077.35
369.10	1074.07
369.48	1075.71
369.85	1077.58
370.22	1087.18
370.59	1082.26
370.96	1090.22
371.33	1085.31
371.70	1078.28
372.07	1089.99
372.44	1085.77
372.81	1079.22
373.18	1072.90
373.55	1075.94
373.93	1062.60
374.30	1068.69
374.67	1055.82
375.04	1065.88
375.41	1059.79
375.78	1061.43
376.15	1047.62
376.52	1046.92
376.89	1039.90
377.26	1046.92
377.63	1045.75
378.00	1049.26
378.37	1050.20
378.74	1052.54
379.11	1059.33
379.48	1059.56
379.85	1061.20
380.22	1080.63
380.59	1082.03
380.96	1075.24
381.33	1087.65
381.70	1091.16
382.07	1080.86
382.44	1084.37
382.81	1091.86
383.18	1082.50
383.55	1075.71
383.92	1084.14
384.29	1092.33
384.66	1086.94
385.03	1092.56
385.40	1098.18
385.77	1097.48
386.14	1087.65
386.51	1084.84
386.88	1073.84
387.25	1067.75
387.62	1064.94
387.99	1068.45
388.36	1075.94
388.73	1079.46
389.10	1091.16
389.46	1089.99
389.83	1087.88
390.20	1091.39
390.57	1093.73
390.94	1088.12
391.31	1091.39
391.68	1090.22
392.05	1085.77
392.42	1088.82
392.79	1082.50
393.16	1083.67
393.53	1075.71
393.89	1064.01
394.26	1052.07
394.63	1052.54
395.00	1049.03
395.37	1060.50
395.74	1073.60
396.11	1076.88
396.48	1085.31
396.84	1078.28
397.21	1080.16
397.58	1074.07
397.95	1070.33
398.32	1065.41
398.69	1074.54
399.06	1070.33
399.42	1080.16
399.79	1078.99
400.16	1084.37
400.53	1084.84
400.90	1088.35
401.27	1082.97
401.64	1100.52
402.00	1097.48
402.37	1091.63
402.74	1082.50
403.11	1076.88
403.48	1064.48
403.84	1067.28
404.21	1057.92
404.58	1060.50
404.95	1057.22
405.32	1056.52
405.68	1058.16
406.05	1076.18
406.42	1079.92
406.79	1088.82
407.16	1090.92
407.52	1089.52
407.89	1084.84
408.26	1083.20
408.63	1069.16
408.99	1072.43
409.36	1067.28
409.73	1060.96
410.10	1048.09
410.47	1060.73
410.83	1055.11
411.20	1054.41
411.57	1055.58
411.94	1069.62
412.30	1067.52
412.67	1071.03
413.04	1071.73
413.40	1082.50
413.77	1082.50
414.14	1087.18
414.51	1097.48
414.87	1099.82
415.24	1088.82
415.61	1085.31
415.97	1071.03
416.34	1058.16
416.71	1063.31
417.08	1072.67
417.44	1071.03
417.81	1076.88
418.18	1080.63
418.54	1072.43
418.91	1071.73
419.28	1075.71
419.64	1086.24
420.01	1085.77
420.38	1086.01
420.74	1080.39
421.11	1085.07
421.48	1081.56
421.84	1076.65
422.21	1077.82
422.58	1080.16
422.94	1080.39
423.31	1075.01
423.68	1080.86
424.04	1083.20
424.41	1079.69
424.77	1082.26
425.14	1088.58
425.51	1077.35
425.87	1075.01
426.24	1082.73
426.61	1075.24
426.97	1074.54
427.34	1081.09
427.70	1081.80
428.07	1073.37
428.44	1074.31
428.80	1072.43
429.17	1075.94
429.53	1082.03
429.90	1076.88
430.27	1068.69
430.63	1074.07
431.00	1078.99
431.36	1076.65
431.73	1078.99
432.09	1090.22
432.46	1075.71
432.83	1071.50
433.19	1058.16
433.56	1061.43
433.92	1051.60
434.29	1057.69
434.65	1054.18
435.02	1068.69
435.38	1064.48
435.75	1071.50
436.11	1064.48
436.48	1070.33
436.84	1070.80
437.21	1069.62
437.57	1063.77
437.94	1079.69
438.30	1076.88
438.67	1070.33
439.03	1067.75
439.40	1074.07
439.76	1065.88
440.13	1059.56
440.49	1064.24
440.86	1076.41
441.22	1089.29
441.59	1085.07
441.95	1093.03
442.32	1095.60
442.68	1098.65
443.05	1087.18
443.41	1097.01
443.78	1093.73
444.14	1106.14
444.51	1105.67
444.87	1102.63
445.24	1106.84
445.60	1112.46
445.96	1101.92
446.33	1108.95
446.69	1108.71
447.06	1108.01
447.42	1110.12
447.79	1104.03
448.15	1090.22
448.51	1097.01
448.88	1090.69
449.24	1085.77
449.61	1079.92
449.97	1078.99
450.33	1068.92
450.70	1060.50
451.06	1059.56
451.43	1071.97
451.79	1075.71
452.15	1079.22
452.52	1088.82
452.88	1100.52
453.24	1088.58
453.61	1083.67
453.97	1079.69
454.34	1077.11
454.70	1062.84
455.06	1068.22
455.43	1076.65
455.79	1085.54
456.15	1084.84
456.52	1089.52
456.88	1093.73
457.24	1087.18
457.61	1089.75
457.97	1098.18
458.33	1101.46
458.70	1093.97
459.06	1098.41
459.42	1091.63
459.79	1089.05
460.15	1088.35
460.51	1086.71
460.88	1081.56
461.24	1089.75
461.60	1081.33
461.96	1078.05
462.33	1086.24
462.69	1087.88
463.05	1082.97
463.42	1090.69
463.78	1094.20
464.14	1086.71
464.50	1082.50
464.87	1084.60
465.23	1080.63
465.59	1076.65
465.95	1074.77
466.32	1072.67
466.68	1056.05
467.04	1047.39
467.40	1039.43
467.77	1045.99
468.13	1057.22
468.49	1079.22
468.85	1087.65
469.22	1098.41
469.58	1088.12
469.94	1084.37
470.30	1061.90
470.66	1067.52
471.03	1063.77
471.39	1069.16
471.75	1064.24
472.11	1081.09
472.47	1078.99
472.84	1081.56
473.20	1087.65
473.56	1101.69
473.92	1097.48
474.28	1104.73
474.65	1100.75
475.01	1098.65
475.37	1088.12
475.73	1089.05
476.09	1076.88
476.45	1083.90
476.81	1083.20
477.18	1081.80
477.54	1074.07
477.90	1074.31
478.26	1066.11
478.62	1071.03
478.98	1075.71
479.34	1077.82
479.71	1074.77
480.07	1073.14
480.43	1068.92
480.79	1064.24
481.15	1064.24
481.51	1072.67
481.87	1073.14
482.23	1074.31
482.59	1068.92
482.96	1074.54
483.32	1076.65
483.68	1078.52
484.04	1076.65
484.40	1083.90
484.76	1085.07
485.12	1093.50
485.48	1099.82
485.84	1098.88
486.20	1093.03
486.56	1093.73
486.92	1079.46
487.28	1075.24
487.64	1072.20
488.00	1072.90
488.37	1073.14
488.73	1059.56
489.09	1061.43
489.45	1064.48
489.81	1075.71
490.17	1079.22
490.53	1086.48
490.89	1083.90
491.25	1084.60
491.61	1080.86
491.97	1077.58
492.33	1086.01
492.69	1087.88
493.05	1093.73
493.41	1092.33
493.77	1087.41
494.13	1082.03
494.49	1078.05
494.85	1068.22
495.21	1061.90
495.57	1071.26
495.93	1073.84
496.29	1080.16
496.64	1082.03
497.00	1091.16
497.36	1078.28
497.72	1076.18
498.08	1071.50
498.44	1069.39
498.80	1056.05
499.16	1059.56
499.52	1060.03
499.88	1062.14
500.24	1065.88
500.60	1073.84
500.96	1077.11
501.32	1078.99
501.68	1078.75
502.03	1076.41
502.39	1075.48
502.75	1072.20
503.11	1075.94
503.47	1077.58
503.83	1082.97
504.19	1092.80
504.55	1102.63
504.91	1098.18
505.26	1100.99
505.62	1102.16
505.98	1103.80
506.34	1093.26
506.70	1095.84
507.06	1089.05
507.42	1084.37
507.78	1085.07
508.13	1087.88
508.49	1077.58
508.85	1079.92
509.21	1079.22
509.57	1073.37
509.93	1075.48
510.28	1084.60
510.64	1085.54
511.00	1091.39
511.36	1085.07
511.72	1087.18
512.07	1084.14
512.43	1090.46
512.79	1088.58
513.15	1093.03
513.51	1088.35
513.86	1085.54
514.22	1078.52
514.58	1074.07
514.94	1077.35
515.30	1074.77
515.65	1075.71
516.01	1080.86
516.37	1096.07
516.73	1088.12
517.08	1088.35
517.44	1100.75
517.80	1108.48
518.16	1104.97
518.51	1109.65
518.87	1114.80
519.23	1105.44
519.59	1092.80
519.94	1089.52
520.30	1091.39
520.66	1089.99
521.01	1080.86
521.37	1072.43
521.73	1072.90
522.09	1075.01
522.44	1076.65
522.80	1090.22
523.16	1105.44
523.51	1101.22
523.87	1099.12
524.23	1107.31
524.58	1099.12
524.94	1089.75
525.30	1093.50
525.65	1093.26
526.01	1078.52
526.37	1082.03
526.72	1077.82
527.08	1081.80
527.44	1087.18
527.79	1087.41
528.15	1083.90
528.51	1107.07
528.86	1103.33
529.22	1089.52
529.58	1077.11
529.93	1080.16
530.29	1073.60
530.65	1070.80
531.00	1071.73
531.36	1094.90
531.71	1099.58
532.07	1093.26
532.43	1091.86
532.78	1097.95
533.14	1091.39
533.49	1089.99
533.85	1090.69
534.21	1089.75
534.56	1089.52
534.92	1092.09
535.27	1099.58
535.63	1094.67
535.98	1093.03
536.34	1099.12
536.69	1093.26
537.05	1086.48
537.41	1089.52
537.76	1099.58
538.12	1089.75
538.47	1103.56
538.83	1101.69
539.18	1103.09
539.54	1096.78
539.89	1102.39
540.25	1094.43
540.60	1096.54
540.96	1092.56
541.31	1096.07
541.67	1102.63
542.02	1098.41
542.38	1091.86
542.73	1100.29
543.09	1092.56
543.44	1087.88
543.80	1090.46
544.15	1092.56
544.51	1077.58
544.86	1085.54
545.22	1082.97
545.57	1085.77
545.93	1087.88
546.28	1094.90
546.64	1078.75
546.99	1075.24
547.35	1072.90
547.70	1073.14
548.05	1074.31
548.41	1083.67
548.76	1087.65
549.12	1085.07
549.47	1086.24
549.83	1086.24
550.18	1083.90
550.53	1078.52
550.89	1082.50
551.24	1085.77
551.60	1082.26
551.95	1079.92
552.30	1082.26
552.66	1087.41
553.01	1080.63
553.37	1088.35
553.72	1095.37
554.07	1106.84
554.43	1096.54
554.78	1095.84
555.13	1083.67
555.49	1082.26
555.84	1073.60
556.19	1078.52
556.55	1070.80
556.90	1079.69
557.26	1082.97
557.61	1079.46
557.96	1070.09
558.32	1082.73
558.67	1081.09
559.02	1075.48
559.37	1079.69
559.73	1082.26
560.08	1080.63
560.43	1070.09
560.79	1064.94
561.14	1065.65
561.49	1070.80
561.85	1069.86
562.20	1075.24
562.55	1079.92
562.90	1079.92
563.26	1071.73
563.61	1069.62
563.96	1079.46
564.32	1084.60
564.67	1084.37
565.02	1089.99
565.37	1092.80
565.73	1089.05
566.08	1099.12
566.43	1095.84
566.78	1094.67
567.14	1090.22
567.49	1088.82
567.84	1076.41
568.19	1071.26
568.54	1079.22
568.90	1083.90
569.25	1078.05
569.60	1079.92
569.95	1093.50
570.31	1087.65
570.66	1092.33
571.01	1098.41
571.36	1083.43
571.71	1074.54
572.06	1072.20
572.42	1068.22
572.77	1058.62
573.12	1071.26
573.47	1067.99
573.82	1068.69
574.18	1075.24
574.53	1074.54
574.88	1065.41
575.23	1067.52
575.58	1077.58
575.93	1068.45
576.28	1066.35
576.64	1067.05
576.99	1071.50
577.34	1066.82
577.69	1070.80
578.04	1084.84
578.39	1096.31
578.74	1097.24
579.09	1095.60
579.44	1090.22
579.80	1084.60
580.15	1078.28
580.50	1086.71
580.85	1091.39
581.20	1103.09
581.55	1112.69
581.90	1113.39
582.25	1105.44
582.60	1098.65
582.95	1091.63
583.30	1094.67
583.65	1098.41
584.00	1086.71
584.35	1088.12
584.71	1083.43
585.06	1062.84
585.41	1059.09
585.76	1065.41
586.11	1057.45
586.46	1060.96
586.81	1069.16
587.16	1073.60
587.51	1085.77
587.86	1102.86
588.21	1097.24
588.56	1101.92
588.91	1097.24
589.26	1092.33
589.61	1080.16
589.96	1084.84
590.31	1086.94
590.66	1089.29
591.01	1074.07
591.36	1075.48
591.71	1071.03
592.06	1067.75
592.41	1063.07
592.76	1077.82
593.10	1069.86
593.45	1072.43
593.80	1071.50
594.15	1075.24
594.50	1070.56
594.85	1081.80
595.20	1091.39
595.55	1093.26
595.90	1093.50
596.25	1095.14
596.60	1090.69
596.95	1088.58
597.30	1078.28
597.64	1125.33
597.99	1122.52
598.34	1122.29
598.69	1121.82
599.04	1129.07
599.39	1082.50
599.74	1089.29
600.09	1090.69
600.44	1087.41
600.78	1087.18
601.13	1087.88
601.48	1084.60
601.83	1089.75
602.18	1093.26
602.53	1096.31
602.88	1104.73
603.22	1098.65
603.57	1093.73
603.92	1087.65
604.27	1090.46
604.62	1073.84
604.97	1069.86
605.31	1067.28
605.66	1066.82
606.01	1060.50
606.36	1077.82
606.71	1088.58
607.05	1086.94
607.40	1094.90
607.75	1108.95
608.10	1103.09
608.44	1105.90
608.79	1102.63
609.14	1093.50
609.49	1074.77
609.84	1068.22
610.18	1057.92
610.53	1060.50
610.88	1073.14
611.23	1089.29
611.57	1106.61
611.92	1115.97
612.27	1121.35
612.62	1115.03
612.96	1101.69
613.31	1086.01
613.66	1075.71
614.00	1077.58
614.35	1074.54
614.70	1089.75
615.05	1095.60
615.39	1103.33
615.74	1107.54
616.09	1095.14
616.43	1089.52
616.78	1080.16
617.13	1078.99
617.47	1068.92
617.82	1083.20
618.17	1083.90
618.51	1096.31
618.86	1093.50
619.21	1098.41
619.55	1094.67
619.90	1075.01
620.25	1072.20
620.59	1067.52
620.94	1058.39
621.29	1059.33
621.63	1067.75
621.98	1058.62
622.32	1062.37
622.67	1064.71
623.02	1059.56
623.36	1062.14
623.71	1068.22
624.05	1068.45
624.40	1078.75
624.75	1083.20
625.09	1088.58
625.44	1093.50
625.78	1089.99
626.13	1084.14
626.48	1074.54
626.82	1082.26
627.17	1072.90
627.51	1083.67
627.86	1087.41
628.20	1093.73
628.55	1093.73
628.89	1101.92
629.24	1093.26
629.58	1095.84
629.93	1102.39
630.28	1091.63
630.62	1093.03
630.97	1099.82
631.31	1094.43
631.66	1097.95
632.00	1103.80
632.35	1092.56
632.69	1081.33
633.04	1085.54
633.38	1081.33
633.73	1075.71
634.07	1077.35
634.42	1085.07
634.76	1083.90
635.11	1090.92
635.45	1094.20
635.79	1105.44
636.14	1105.20
636.48	1104.50
636.83	1095.37
637.17	1095.14
637.52	1094.43
637.86	1103.09
638.21	1100.05
638.55	1103.09
638.89	1104.26
639.24	1100.75
639.58	1096.54
639.93	1103.09
640.27	1094.90
640.61	1093.50
640.96	1090.46
641.30	1086.24
641.65	1077.11
641.99	1080.16
642.33	1078.75
642.68	1082.03
643.02	1079.92
643.37	1082.97
643.71	1079.46
644.05	1073.60
644.40	1071.73
644.74	1073.84
645.08	1075.94
645.43	1078.05
645.77	1082.97
646.11	1078.99
646.46	1068.45
646.80	1067.52
647.14	1063.07
647.49	1066.11
647.83	1067.75
648.17	1078.75
648.52	1075.94
648.86	1084.14
649.20	1077.35
649.55	1073.84
649.89	1073.60
650.23	1069.86
650.57	1070.33
650.92	1069.39
651.26	1077.58
651.60	1075.01
651.95	1082.03
652.29	1083.20
652.63	1075.71
652.97	1074.77
653.32	1080.39
653.66	1076.88
654.00	1078.52
654.34	1091.86
654.69	1094.67
655.03	1092.09
655.37	1089.29
655.71	1085.54
656.05	1091.86
656.40	1083.90
656.74	1083.67
657.08	1085.54
657.42	1093.50
657.76	1089.05
658.11	1087.18
658.45	1083.43
658.79	1079.92
659.13	1071.73
659.47	1068.92
659.82	1063.54
660.16	1057.45
660.50	1066.82
660.84	1069.16
661.18	1067.05
661.52	1075.48
661.87	1077.11
662.21	1073.37
662.55	1070.56
662.89	1066.35
663.23	1070.80
663.57	1084.60
663.91	1082.97
664.25	1083.67
664.60	1103.80
664.94	1086.01
665.28	1079.69
665.62	1086.94
665.96	1089.75
666.30	1075.24
666.64	1088.82
666.98	1088.12
667.32	1075.71
667.66	1066.11
668.01	1064.01
668.35	1060.96
668.69	1061.20
669.03	1064.48
669.37	1062.14
669.71	1056.28
670.05	1059.79
670.39	1070.33
670.73	1075.94
671.07	1092.80
671.41	1102.86
671.75	1101.92
672.09	1091.16
672.43	1085.54
672.77	1081.80
673.11	1079.22
673.45	1069.16
673.79	1064.24
674.13	1067.28
674.47	1071.73
674.81	1070.80
675.15	1086.01
675.49	1087.65
675.83	1082.50
676.17	1069.39
676.51	1072.67
676.85	1064.48
677.19	1070.56
677.53	1082.73
677.87	1085.31
678.21	1088.82
678.55	1099.58
678.89	1099.35
679.23	1091.86
679.57	1081.09
679.90	1077.11
680.24	1067.75
680.58	1060.50
680.92	1057.45
681.26	1060.73
681.60	1053.94
681.94	1048.56
682.28	1048.09
682.62	1054.41
682.96	1066.11
683.29	1073.84
683.63	1078.28
683.97	1096.78
684.31	1094.90
684.65	1087.18
684.99	1091.16
685.33	1092.33
685.67	1077.11
686.00	1077.11
686.34	1079.46
686.68	1076.65
687.02	1080.39
687.36	1088.58
687.70	1089.52
688.03	1085.07
688.37	1085.07
688.71	1078.28
689.05	1080.63
689.39	1082.73
689.72	1087.41
690.06	1078.75
690.40	1081.80
690.74	1076.65
691.08	1075.24
691.41	1071.50
691.75	1072.90
692.09	1077.11
692.43	1072.90
692.76	1071.50
693.10	1078.52
693.44	1081.09
693.78	1085.07
694.11	1089.99
694.45	1094.90
694.79	1098.41
695.13	1094.43
695.46	1089.99
695.80	1075.48
696.14	1070.33
696.48	1067.75
696.81	1058.86
697.15	1050.20
697.49	1061.90
697.82	1060.96
698.16	1069.62
698.50	1087.41
698.83	1093.97
699.17	1091.63
699.51	1093.73
699.84	1083.90
700.18	1079.92
700.52	1082.97
700.85	1087.41
701.19	1086.48
701.53	1086.01
701.86	1083.67
702.20	1081.80
702.54	1077.82
702.87	1081.09
703.21	1084.14
703.55	1085.31
703.88	1079.46
704.22	1078.52
704.55	1072.20
704.89	1073.37
705.23	1078.05
705.56	1084.84
705.90	1082.97
706.23	1082.50
706.57	1075.24
706.91	1064.24
707.24	1054.18
707.58	1062.37
707.91	1068.69
708.25	1081.80
708.58	1084.37
708.92	1091.86
709.26	1090.69
709.59	1083.90
709.93	1082.26
710.26	1083.67
710.60	1091.39
710.93	1089.52
711.27	1093.97
711.60	1088.12
711.94	1093.50
712.27	1073.37
712.61	1070.56
712.94	1075.48
713.28	1077.58
713.61	1080.16
713.95	1092.56
714.28	1096.31
714.62	1088.35
714.95	1090.69
715.29	1085.31
715.62	1085.31
715.96	1082.03
716.29	1074.54
716.63	1066.58
716.96	1067.99
717.29	1066.82
717.63	1076.88
717.96	1089.05
718.30	1094.43
718.63	1091.39
718.97	1080.39
719.30	1071.97
719.63	1065.18
719.97	1059.09
720.30	1064.01
720.64	1079.22
720.97	1079.92
721.30	1078.52
721.64	1075.71
721.97	1076.41
722.31	1080.39
722.64	1079.92
722.97	1081.33
723.31	1089.29
723.64	1078.75
723.97	1069.39
724.31	1072.43
724.64	1079.92
724.98	1067.52
725.31	1082.03
725.64	1094.43
725.98	1088.12
726.31	1081.33
726.64	1095.60
726.97	1088.12
727.31	1071.50
727.64	1072.20
727.97	1067.99
728.31	1057.22
728.64	1055.11
728.97	1062.60
729.31	1056.05
729.64	1058.86
729.97	1061.90
730.30	1068.92
730.64	1073.84
730.97	1077.82
731.30	1083.90
731.63	1083.90
731.97	1080.39
732.30	1072.90
732.63	1073.37
732.96	1071.73
733.30	1069.62
733.63	1067.05
733.96	1067.05
734.29	1073.14
734.63	1069.39
734.96	1066.35
735.29	1067.52
735.62	1069.16
735.95	1065.88
736.29	1075.71
736.62	1084.60
736.95	1084.14
737.28	1090.92
737.61	1096.54
737.94	1089.05
738.28	1088.35
738.61	1087.88
738.94	1080.86
739.27	1072.20
739.60	1082.50
739.93	1093.26
740.27	1103.56
740.60	1097.95
740.93	1103.33
741.26	1096.07
741.59	1082.03
741.92	1072.90
742.25	1078.28
742.58	1071.97
742.91	1069.16
743.25	1077.82
743.58	1082.73
743.91	1085.31
744.24	1096.78
744.57	1098.18
744.90	1095.84
745.23	1092.56
745.56	1093.73
745.89	1087.65
746.22	1089.05
746.55	1089.52
746.88	1091.63
747.21	1091.16
747.54	1085.31
747.87	1085.54
748.20	1090.46
748.53	1089.75
748.87	1084.84
749.20	1090.22
749.53	1095.37
749.86	1083.43
750.19	1082.50
750.52	1082.73
750.85	1079.92
751.18	1072.67
751.51	1075.71
751.84	1076.65
752.16	1087.88
752.49	1086.01
752.82	1087.65
753.15	1078.52
753.48	1075.01
753.81	1065.41
754.14	1063.54
754.47	1064.01
754.80	1066.35
755.13	1067.75
755.46	1068.22
755.79	1074.07
756.12	1073.60
756.45	1086.01
756.78	1086.71
757.11	1089.29
757.43	1085.77
757.76	1083.67
758.09	1078.52
758.42	1071.03
758.75	1069.39
759.08	1076.18
759.41	1072.43
759.74	1064.24
760.07	1070.09
760.39	1060.50
760.72	1050.20
761.05	1062.14
761.38	1078.28
761.71	1075.71
762.04	1089.05
762.36	1100.99
762.69	1090.92
763.02	1086.01
763.35	1088.12
763.68	1081.09
764.01	1071.73
764.33	1078.99
764.66	1072.67
764.99	1070.80
765.32	1067.99
765.65	1078.52
765.97	1072.67
766.30	1066.11
