SpectraSuite Data File
++++++++++++++++++++++++++++++++++++
Date: Mon Aug 26 10:26:00 PDT 2019
User: corrico
Dark Spectrum Present: No
Reference Spectrum Present: No
Number of Sampled Component Spectra: 1
Spectrometers: USB2+H06089
Integration Time (usec): 10000 (USB2+H06089)
Spectra Averaged: 2 (USB2+H06089)
Boxcar Smoothing: 2 (USB2+H06089)
Correct for Electrical Dark: No (USB2+H06089)
Strobe/Lamp Enabled: No (USB2+H06089)
Correct for Detector Non-linearity: No (USB2+H06089)
Correct for Stray Light: No (USB2+H06089)
Number of Pixels in Processed Spectrum: 2048
>>>>>Begin Processed Spectral Data<<<<<
339.70	1035.69
340.07	1035.69
340.45	1009.00
340.82	989.34
341.19	968.05
341.57	948.15
341.94	936.68
342.31	917.02
342.69	915.15
343.06	909.77
343.43	895.72
343.81	900.40
344.18	903.21
344.55	905.09
344.93	909.06
345.30	924.28
345.67	932.24
346.04	940.66
346.42	939.73
346.79	953.30
347.16	960.09
347.54	970.62
347.91	993.56
348.28	1003.15
348.65	1006.66
349.03	1016.96
349.40	1030.30
349.77	1031.94
350.14	1041.30
350.52	1043.41
350.89	1041.07
351.26	1037.33
351.63	1039.43
352.01	1042.71
352.38	1050.67
352.75	1069.62
353.12	1073.37
353.50	1078.05
353.87	1090.22
354.24	1092.80
354.61	1087.41
354.98	1108.24
355.36	1098.65
355.73	1089.99
356.10	1093.73
356.47	1086.71
356.84	1068.69
357.22	1079.46
357.59	1079.22
357.96	1073.37
358.33	1082.50
358.70	1077.82
359.08	1067.52
359.45	1076.65
359.82	1082.97
360.19	1073.84
360.56	1065.88
360.94	1067.52
361.31	1064.24
361.68	1061.20
362.05	1061.67
362.42	1066.35
362.79	1066.58
363.16	1062.60
363.54	1070.33
363.91	1078.05
364.28	1083.67
364.65	1083.67
365.02	1079.46
365.39	1072.43
365.76	1073.37
366.14	1068.69
366.51	1069.39
366.88	1079.22
367.25	1074.54
367.62	1063.31
367.99	1063.31
368.36	1060.73
368.73	1053.01
369.10	1047.86
369.48	1062.14
369.85	1065.41
370.22	1070.09
370.59	1070.56
370.96	1079.46
371.33	1069.86
371.70	1070.80
372.07	1062.14
372.44	1062.60
372.81	1063.77
373.18	1064.48
373.55	1056.05
373.93	1059.33
374.30	1057.69
374.67	1046.45
375.04	1046.22
375.41	1052.30
375.78	1055.11
376.15	1055.11
376.52	1056.28
376.89	1066.35
377.26	1064.71
377.63	1064.24
378.00	1053.71
378.37	1064.48
378.74	1053.71
379.11	1050.43
379.48	1055.58
379.85	1070.09
380.22	1063.77
380.59	1067.75
380.96	1078.52
381.33	1077.11
381.70	1072.20
382.07	1064.48
382.44	1058.62
382.81	1059.56
383.18	1051.37
383.55	1048.56
383.92	1065.18
384.29	1071.26
384.66	1065.18
385.03	1074.07
385.40	1074.54
385.77	1060.26
386.14	1062.60
386.51	1063.54
386.88	1058.16
387.25	1053.01
387.62	1064.48
387.99	1060.96
388.36	1050.90
388.73	1042.71
389.10	1055.35
389.46	1052.54
389.83	1054.41
390.20	1064.48
390.57	1082.26
390.94	1077.82
391.31	1085.54
391.68	1074.54
392.05	1076.88
392.42	1072.43
392.79	1078.75
393.16	1068.69
393.53	1073.37
393.89	1077.35
394.26	1082.03
394.63	1081.80
395.00	1089.29
395.37	1090.69
395.74	1092.80
396.11	1083.20
396.48	1081.80
396.84	1078.28
397.21	1085.07
397.58	1077.82
397.95	1086.94
398.32	1086.48
398.69	1088.35
399.06	1070.56
399.42	1068.45
399.79	1068.22
400.16	1073.84
400.53	1077.11
400.90	1083.90
401.27	1082.26
401.64	1075.94
402.00	1063.07
402.37	1051.84
402.74	1045.75
403.11	1046.92
403.48	1041.30
403.84	1048.09
404.21	1059.79
404.58	1064.24
404.95	1062.84
405.32	1074.07
405.68	1074.77
406.05	1074.07
406.42	1085.77
406.79	1082.97
407.16	1072.20
407.52	1072.20
407.89	1066.82
408.26	1057.45
408.63	1065.88
408.99	1070.56
409.36	1069.62
409.73	1060.26
410.10	1079.69
410.47	1075.48
410.83	1075.71
411.20	1073.37
411.57	1078.99
411.94	1062.14
412.30	1060.03
412.67	1060.03
413.04	1058.16
413.40	1070.56
413.77	1073.84
414.14	1078.28
414.51	1075.48
414.87	1073.84
415.24	1069.62
415.61	1070.80
415.97	1078.75
416.34	1080.63
416.71	1084.37
417.08	1073.84
417.44	1064.24
417.81	1053.48
418.18	1060.26
418.54	1066.82
418.91	1078.75
419.28	1087.88
419.64	1093.26
420.01	1085.54
420.38	1086.24
420.74	1084.84
421.11	1081.33
421.48	1073.84
421.84	1077.58
422.21	1075.94
422.58	1071.50
422.94	1075.94
423.31	1085.31
423.68	1092.33
424.04	1089.52
424.41	1092.33
424.77	1088.82
425.14	1083.90
425.51	1073.37
425.87	1078.75
426.24	1072.90
426.61	1078.28
426.97	1072.20
427.34	1063.77
427.70	1053.01
428.07	1060.03
428.44	1062.14
428.80	1067.75
429.17	1074.77
429.53	1085.31
429.90	1073.14
430.27	1069.62
430.63	1067.99
431.00	1070.56
431.36	1072.43
431.73	1079.92
432.09	1082.73
432.46	1084.84
432.83	1091.86
433.19	1085.77
433.56	1089.99
433.92	1092.80
434.29	1096.31
434.65	1089.05
435.02	1097.48
435.38	1093.50
435.75	1086.24
436.11	1078.99
436.48	1083.20
436.84	1072.90
437.21	1074.31
437.57	1068.45
437.94	1069.16
438.30	1071.73
438.67	1072.20
439.03	1072.43
439.40	1082.26
439.76	1093.26
440.13	1087.65
440.49	1084.37
440.86	1086.71
441.22	1089.05
441.59	1082.73
441.95	1093.73
442.32	1095.60
442.68	1094.43
443.05	1081.09
443.41	1077.82
443.78	1072.20
444.14	1069.62
444.51	1073.14
444.87	1072.20
445.24	1068.22
445.60	1057.22
445.96	1056.99
446.33	1047.86
446.69	1046.22
447.06	1047.62
447.42	1052.54
447.79	1056.99
448.15	1059.56
448.51	1067.99
448.88	1069.62
449.24	1067.52
449.61	1067.05
449.97	1071.97
450.33	1069.39
450.70	1079.92
451.06	1085.31
451.43	1088.12
451.79	1078.05
452.15	1079.46
452.52	1069.16
452.88	1067.75
453.24	1071.03
453.61	1083.67
453.97	1083.90
454.34	1085.07
454.70	1080.39
455.06	1071.73
455.43	1063.54
455.79	1062.60
456.15	1058.86
456.52	1074.07
456.88	1083.67
457.24	1081.33
457.61	1076.88
457.97	1079.92
458.33	1072.43
458.70	1069.16
459.06	1071.26
459.42	1077.35
459.79	1086.24
460.15	1089.52
460.51	1079.46
460.88	1083.20
461.24	1087.18
461.60	1077.11
461.96	1077.11
462.33	1086.24
462.69	1081.80
463.05	1082.97
463.42	1086.24
463.78	1072.90
464.14	1076.41
464.50	1083.67
464.87	1078.52
465.23	1076.88
465.59	1076.88
465.95	1073.14
466.32	1066.82
466.68	1063.54
467.04	1060.50
467.40	1073.14
467.77	1068.22
468.13	1068.45
468.49	1076.18
468.85	1079.46
469.22	1071.50
469.58	1069.86
469.94	1078.28
470.30	1080.86
470.66	1080.86
471.03	1093.50
471.39	1111.99
471.75	1103.56
472.11	1098.18
472.47	1100.75
472.84	1089.52
473.20	1079.46
473.56	1075.01
473.92	1081.56
474.28	1085.31
474.65	1086.71
475.01	1082.50
475.37	1091.39
475.73	1079.22
476.09	1074.54
476.45	1075.94
476.81	1078.28
477.18	1075.24
477.54	1071.97
477.90	1066.58
478.26	1064.48
478.62	1068.92
478.98	1071.73
479.34	1076.41
479.71	1077.82
480.07	1078.52
480.43	1072.67
480.79	1070.33
481.15	1078.05
481.51	1081.80
481.87	1087.88
482.23	1087.65
482.59	1100.75
482.96	1093.73
483.32	1093.97
483.68	1090.92
484.04	1086.01
484.40	1082.97
484.76	1093.03
485.12	1099.35
485.48	1089.99
485.84	1093.73
486.20	1093.50
486.56	1088.82
486.92	1084.60
487.28	1087.88
487.64	1089.29
488.00	1085.31
488.37	1076.18
488.73	1074.07
489.09	1082.73
489.45	1084.37
489.81	1074.31
490.17	1082.26
490.53	1084.60
490.89	1077.82
491.25	1085.54
491.61	1086.71
491.97	1092.09
492.33	1094.67
492.69	1100.05
493.05	1100.29
493.41	1098.41
493.77	1090.69
494.13	1089.52
494.49	1086.48
494.85	1078.28
495.21	1083.90
495.57	1093.50
495.93	1085.77
496.29	1078.52
496.64	1079.22
497.00	1079.92
497.36	1069.16
497.72	1073.14
498.08	1082.97
498.44	1091.39
498.80	1088.58
499.16	1100.52
499.52	1104.26
499.88	1107.07
500.24	1099.35
500.60	1101.22
500.96	1094.67
501.32	1085.77
501.68	1082.50
502.03	1084.14
502.39	1090.69
502.75	1090.69
503.11	1087.41
503.47	1074.54
503.83	1064.24
504.19	1059.79
504.55	1057.92
504.91	1064.94
505.26	1078.52
505.62	1085.54
505.98	1078.52
506.34	1078.52
506.70	1084.84
507.06	1079.46
507.42	1083.67
507.78	1087.88
508.13	1088.58
508.49	1075.71
508.85	1086.48
509.21	1072.67
509.57	1080.39
509.93	1079.92
510.28	1085.07
510.64	1078.75
511.00	1089.05
511.36	1086.48
511.72	1093.50
512.07	1091.39
512.43	1093.50
512.79	1093.97
513.15	1091.63
513.51	1082.97
513.86	1099.82
514.22	1092.56
514.58	1089.75
514.94	1088.58
515.30	1104.03
515.65	1093.73
516.01	1094.20
516.37	1104.73
516.73	1099.12
517.08	1088.35
517.44	1086.71
517.80	1097.48
518.16	1096.31
518.51	1101.22
518.87	1104.03
519.23	1103.09
519.59	1099.12
519.94	1097.24
520.30	1101.22
520.66	1098.65
521.01	1109.18
521.37	1105.44
521.73	1102.86
522.09	1101.69
522.44	1111.05
522.80	1098.18
523.16	1100.05
523.51	1094.90
523.87	1103.56
524.23	1088.35
524.58	1089.29
524.94	1090.22
525.30	1095.14
525.65	1084.14
526.01	1091.63
526.37	1093.50
526.72	1084.84
527.08	1092.09
527.44	1100.29
527.79	1099.12
528.15	1096.54
528.51	1102.63
528.86	1095.14
529.22	1088.58
529.58	1095.60
529.93	1097.24
530.29	1095.60
530.65	1088.58
531.00	1086.94
531.36	1084.84
531.71	1089.05
532.07	1096.54
532.43	1106.14
532.78	1116.67
533.14	1110.35
533.49	1119.01
533.85	1120.18
534.21	1113.63
534.56	1101.46
534.92	1105.20
535.27	1098.65
535.63	1091.63
535.98	1093.50
536.34	1093.73
536.69	1086.01
537.05	1080.86
537.41	1082.97
537.76	1086.71
538.12	1097.95
538.47	1098.88
538.83	1117.61
539.18	1116.90
539.54	1110.12
539.89	1093.73
540.25	1087.41
540.60	1061.67
540.96	1062.60
541.31	1071.50
541.67	1082.73
542.02	1090.69
542.38	1103.09
542.73	1098.65
543.09	1089.05
543.44	1071.97
543.80	1068.45
544.15	1064.94
544.51	1059.79
544.86	1061.90
545.22	1075.01
545.57	1076.18
545.93	1076.65
546.28	1074.54
546.64	1083.90
546.99	1086.94
547.35	1093.73
547.70	1097.24
548.05	1101.22
548.41	1097.71
548.76	1096.31
549.12	1097.95
549.47	1078.52
549.83	1081.33
550.18	1074.54
550.53	1072.20
550.89	1061.67
551.24	1075.48
551.60	1073.84
551.95	1073.37
552.30	1065.88
552.66	1077.35
553.01	1075.01
553.37	1078.05
553.72	1079.92
554.07	1085.77
554.43	1081.09
554.78	1093.26
555.13	1090.69
555.49	1098.18
555.84	1098.41
556.19	1097.01
556.55	1090.46
556.90	1104.50
557.26	1095.37
557.61	1099.35
557.96	1104.97
558.32	1097.71
558.67	1084.60
559.02	1083.20
559.37	1080.39
559.73	1067.75
560.08	1074.54
560.43	1086.01
560.79	1078.52
561.14	1076.88
561.49	1089.52
561.85	1079.92
562.20	1072.67
562.55	1081.80
562.90	1085.77
563.26	1079.69
563.61	1090.22
563.96	1090.69
564.32	1085.07
564.67	1085.07
565.02	1078.99
565.37	1078.28
565.73	1071.50
566.08	1072.43
566.43	1069.86
566.78	1075.01
567.14	1071.97
567.49	1085.07
567.84	1095.14
568.19	1089.52
568.54	1091.86
568.90	1088.58
569.25	1079.92
569.60	1071.73
569.95	1067.28
570.31	1067.28
570.66	1076.65
571.01	1075.71
571.36	1078.28
571.71	1093.26
572.06	1092.09
572.42	1083.43
572.77	1089.75
573.12	1096.31
573.47	1084.60
573.82	1087.88
574.18	1090.69
574.53	1091.39
574.88	1079.22
575.23	1089.99
575.58	1083.90
575.93	1091.39
576.28	1087.88
576.64	1091.86
576.99	1088.12
577.34	1083.43
577.69	1084.14
578.04	1080.86
578.39	1081.09
578.74	1077.35
579.09	1085.54
579.44	1081.33
579.80	1079.22
580.15	1086.71
580.50	1093.03
580.85	1086.24
581.20	1084.84
581.55	1077.35
581.90	1073.60
582.25	1071.50
582.60	1083.90
582.95	1081.33
583.30	1092.33
583.65	1092.56
584.00	1094.43
584.35	1091.39
584.71	1097.01
585.06	1087.18
585.41	1086.94
585.76	1082.26
586.11	1082.50
586.46	1080.16
586.81	1085.54
587.16	1089.52
587.51	1098.88
587.86	1095.14
588.21	1093.50
588.56	1089.29
588.91	1075.48
589.26	1073.84
589.61	1071.03
589.96	1071.26
590.31	1066.11
590.66	1088.82
591.01	1086.48
591.36	1087.65
591.71	1089.75
592.06	1111.52
592.41	1105.20
592.76	1091.16
593.10	1090.69
593.45	1079.92
593.80	1070.56
594.15	1068.22
594.50	1074.07
594.85	1069.62
595.20	1082.03
595.55	1086.94
595.90	1078.52
596.25	1086.71
596.60	1093.50
596.95	1094.90
597.30	1095.14
597.64	1149.44
597.99	1143.35
598.34	1143.35
598.69	1139.14
599.04	1141.25
599.39	1089.29
599.74	1095.60
600.09	1096.07
600.44	1095.60
600.78	1091.63
601.13	1089.75
601.48	1083.20
601.83	1075.94
602.18	1076.65
602.53	1077.82
602.88	1077.58
603.22	1086.48
603.57	1094.90
603.92	1092.33
604.27	1088.82
604.62	1087.88
604.97	1088.35
605.31	1076.41
605.66	1071.50
606.01	1069.16
606.36	1073.37
606.71	1061.43
607.05	1063.31
607.40	1066.35
607.75	1066.11
608.10	1066.11
608.44	1068.92
608.79	1069.16
609.14	1068.92
609.49	1069.39
609.84	1072.90
610.18	1075.01
610.53	1085.77
610.88	1094.20
611.23	1098.18
611.57	1095.84
611.92	1095.60
612.27	1088.58
612.62	1074.31
612.96	1067.28
613.31	1063.07
613.66	1066.58
614.00	1069.16
614.35	1074.31
614.70	1074.31
615.05	1076.18
615.39	1067.99
615.74	1077.11
616.09	1077.35
616.43	1075.48
616.78	1077.58
617.13	1082.50
617.47	1070.56
617.82	1068.92
618.17	1075.94
618.51	1075.48
618.86	1078.28
619.21	1079.46
619.55	1087.88
619.90	1089.75
620.25	1089.75
620.59	1080.39
620.94	1086.01
621.29	1085.31
621.63	1085.54
621.98	1081.09
622.32	1086.71
622.67	1087.41
623.02	1082.26
623.36	1075.71
623.71	1076.88
624.05	1078.99
624.40	1078.28
624.75	1077.11
625.09	1078.99
625.44	1079.46
625.78	1079.92
626.13	1080.63
626.48	1099.12
626.82	1110.35
627.17	1110.82
627.51	1109.88
627.86	1096.31
628.20	1082.03
628.55	1068.69
628.89	1056.75
629.24	1054.65
629.58	1062.60
629.93	1066.58
630.28	1067.05
630.62	1078.75
630.97	1092.33
631.31	1083.43
631.66	1083.90
632.00	1093.26
632.35	1100.99
632.69	1092.33
633.04	1095.37
633.38	1088.82
633.73	1075.48
634.07	1068.22
634.42	1066.58
634.76	1078.99
635.11	1086.48
635.45	1093.73
635.79	1100.29
636.14	1100.52
636.48	1097.95
636.83	1085.77
637.17	1079.92
637.52	1075.71
637.86	1074.77
638.21	1077.35
638.55	1086.24
638.89	1093.03
639.24	1089.29
639.58	1088.58
639.93	1078.75
640.27	1063.54
640.61	1071.50
640.96	1075.71
641.30	1072.90
641.65	1078.75
641.99	1092.56
642.33	1091.63
642.68	1097.48
643.02	1097.01
643.37	1094.90
643.71	1089.99
644.05	1088.35
644.40	1086.48
644.74	1081.80
645.08	1086.94
645.43	1094.67
645.77	1088.82
646.11	1084.60
646.46	1096.78
646.80	1093.50
647.14	1079.69
647.49	1075.48
647.83	1082.50
648.17	1080.63
648.52	1077.58
648.86	1084.37
649.20	1093.03
649.55	1079.46
649.89	1073.14
650.23	1072.20
650.57	1072.43
650.92	1071.73
651.26	1068.45
651.60	1071.26
651.95	1085.31
652.29	1083.43
652.63	1082.03
652.97	1090.46
653.32	1087.88
653.66	1084.14
654.00	1089.99
654.34	1082.50
654.69	1081.09
655.03	1079.22
655.37	1067.05
655.71	1062.37
656.05	1065.41
656.40	1067.28
656.74	1082.97
657.08	1085.77
657.42	1079.46
657.76	1068.45
658.11	1067.52
658.45	1059.33
658.79	1059.56
659.13	1070.80
659.47	1086.94
659.82	1094.67
660.16	1094.67
660.50	1095.37
660.84	1100.52
661.18	1095.60
661.52	1092.09
661.87	1089.05
662.21	1087.18
662.55	1081.56
662.89	1084.37
663.23	1082.03
663.57	1089.52
663.91	1090.69
664.25	1094.90
664.60	1094.20
664.94	1082.73
665.28	1075.48
665.62	1074.07
665.96	1072.67
666.30	1073.37
666.64	1086.48
666.98	1090.46
667.32	1097.71
667.66	1093.50
668.01	1099.58
668.35	1100.99
668.69	1096.31
669.03	1084.37
669.37	1080.16
669.71	1075.71
670.05	1070.56
670.39	1068.69
670.73	1071.50
671.07	1079.22
671.41	1075.71
671.75	1073.60
672.09	1076.41
672.43	1085.07
672.77	1089.75
673.11	1093.26
673.45	1092.09
673.79	1100.52
674.13	1093.26
674.47	1090.46
674.81	1087.41
675.15	1091.86
675.49	1086.48
675.83	1084.60
676.17	1076.65
676.51	1075.71
676.85	1079.92
677.19	1066.58
677.53	1073.60
677.87	1079.92
678.21	1075.94
678.55	1074.31
678.89	1083.90
679.23	1078.99
679.57	1067.75
679.90	1069.62
680.24	1064.24
680.58	1070.33
680.92	1075.01
681.26	1075.48
681.60	1080.86
681.94	1087.65
682.28	1077.58
682.62	1084.14
682.96	1095.60
683.29	1082.50
683.63	1069.86
683.97	1079.69
684.31	1077.35
684.65	1074.07
684.99	1083.20
685.33	1087.65
685.67	1084.60
686.00	1074.77
686.34	1072.43
686.68	1070.80
687.02	1077.82
687.36	1078.75
687.70	1085.07
688.03	1086.71
688.37	1080.16
688.71	1071.73
689.05	1074.54
689.39	1073.84
689.72	1081.09
690.06	1080.63
690.40	1091.63
690.74	1079.22
691.08	1079.22
691.41	1074.54
691.75	1077.58
692.09	1070.80
692.43	1076.65
692.76	1076.18
693.10	1071.97
693.44	1072.67
693.78	1076.18
694.11	1076.18
694.45	1074.54
694.79	1074.77
695.13	1077.11
695.46	1078.28
695.80	1069.39
696.14	1066.11
696.48	1066.35
696.81	1065.88
697.15	1059.79
697.49	1070.09
697.82	1071.03
698.16	1071.97
698.50	1075.48
698.83	1079.69
699.17	1088.35
699.51	1090.22
699.84	1090.22
700.18	1089.52
700.52	1089.99
700.85	1076.88
701.19	1078.75
701.53	1080.39
701.86	1078.28
702.20	1077.58
702.54	1075.01
702.87	1074.07
703.21	1075.24
703.55	1073.84
703.88	1069.62
704.22	1078.75
704.55	1075.48
704.89	1071.50
705.23	1077.11
705.56	1079.69
705.90	1067.99
706.23	1070.33
706.57	1064.94
706.91	1058.39
707.24	1058.39
707.58	1068.22
707.91	1063.54
708.25	1064.71
708.58	1064.71
708.92	1072.20
709.26	1069.62
709.59	1074.07
709.93	1078.05
710.26	1083.20
710.60	1075.24
710.93	1078.52
711.27	1083.20
711.60	1087.41
711.94	1084.14
712.27	1086.24
712.61	1080.63
712.94	1069.16
713.28	1060.26
713.61	1067.75
713.95	1071.03
714.28	1074.07
714.62	1076.41
714.95	1080.16
715.29	1075.48
715.62	1067.28
715.96	1066.58
716.29	1076.18
716.63	1072.90
716.96	1078.75
717.29	1069.62
717.63	1064.48
717.96	1057.69
718.30	1060.96
718.63	1060.50
718.97	1071.73
719.30	1085.54
719.63	1081.56
719.97	1081.09
720.30	1076.65
720.64	1074.07
720.97	1075.48
721.30	1079.92
721.64	1085.31
721.97	1093.73
722.31	1101.92
722.64	1090.69
722.97	1091.63
723.31	1092.33
723.64	1079.46
723.97	1074.77
724.31	1078.28
724.64	1078.28
724.98	1075.01
725.31	1078.99
725.64	1088.82
725.98	1094.90
726.31	1097.95
726.64	1101.46
726.97	1103.09
727.31	1097.71
727.64	1085.31
727.97	1083.20
728.31	1075.71
728.64	1071.26
728.97	1061.20
729.31	1063.77
729.64	1064.71
729.97	1069.86
730.30	1078.28
730.64	1078.75
730.97	1081.80
731.30	1077.11
731.63	1084.14
731.97	1076.65
732.30	1072.43
732.63	1071.97
732.96	1075.94
733.30	1060.96
733.63	1060.03
733.96	1059.09
734.29	1066.58
734.63	1064.01
734.96	1062.37
735.29	1056.99
735.62	1071.50
735.95	1070.80
736.29	1076.18
736.62	1078.75
736.95	1083.90
737.28	1071.50
737.61	1064.71
737.94	1058.86
738.28	1066.35
738.61	1064.48
738.94	1078.52
739.27	1073.37
739.60	1080.16
739.93	1075.24
740.27	1081.33
740.60	1076.18
740.93	1085.07
741.26	1075.48
741.59	1079.22
741.92	1081.56
742.25	1075.24
742.58	1067.99
742.91	1072.43
743.25	1076.88
743.58	1075.71
743.91	1074.07
744.24	1079.69
744.57	1092.56
744.90	1086.48
745.23	1078.75
745.56	1096.07
745.89	1091.63
746.22	1075.48
746.55	1083.20
746.88	1086.94
747.21	1067.99
747.54	1067.28
747.87	1074.07
748.20	1053.94
748.53	1054.65
748.87	1067.99
749.20	1072.67
749.53	1075.71
749.86	1091.39
750.19	1098.65
750.52	1103.56
750.85	1103.09
751.18	1098.65
751.51	1081.09
751.84	1076.88
752.16	1068.45
752.49	1071.97
752.82	1074.07
753.15	1086.01
753.48	1072.90
753.81	1080.16
754.14	1066.58
754.47	1067.52
754.80	1065.65
755.13	1084.37
755.46	1084.14
755.79	1090.92
756.12	1083.20
756.45	1087.41
756.78	1082.97
757.11	1079.69
757.43	1083.90
757.76	1090.69
758.09	1090.22
758.42	1092.33
758.75	1091.16
759.08	1086.01
759.41	1092.09
759.74	1090.92
760.07	1087.41
760.39	1077.35
760.72	1080.16
761.05	1064.48
761.38	1076.88
761.71	1076.18
762.04	1088.12
762.36	1085.07
762.69	1097.71
763.02	1083.67
763.35	1090.46
763.68	1090.46
764.01	1100.05
764.33	1090.22
764.66	1089.52
764.99	1078.05
765.32	1071.73
765.65	1064.71
765.97	1067.05
766.30	1071.26
