SpectraSuite Data File
++++++++++++++++++++++++++++++++++++
Date: Mon Aug 26 10:26:07 PDT 2019
User: corrico
Dark Spectrum Present: No
Reference Spectrum Present: No
Number of Sampled Component Spectra: 1
Spectrometers: USB2+H06089
Integration Time (usec): 10000 (USB2+H06089)
Spectra Averaged: 20 (USB2+H06089)
Boxcar Smoothing: 2 (USB2+H06089)
Correct for Electrical Dark: No (USB2+H06089)
Strobe/Lamp Enabled: No (USB2+H06089)
Correct for Detector Non-linearity: No (USB2+H06089)
Correct for Stray Light: No (USB2+H06089)
Number of Pixels in Processed Spectrum: 2048
>>>>>Begin Processed Spectral Data<<<<<
339.70	1039.67
340.07	1039.67
340.45	1002.12
340.82	981.15
341.19	959.69
341.57	932.63
341.94	920.06
342.31	911.87
342.69	904.80
343.06	898.60
343.43	897.46
343.81	901.48
344.18	905.67
344.55	907.68
344.93	913.46
345.30	922.31
345.67	927.23
346.04	935.40
346.42	945.30
346.79	954.75
347.16	962.85
347.54	969.66
347.91	975.56
348.28	982.84
348.65	990.37
349.03	994.87
349.40	1005.87
349.77	1015.11
350.14	1023.09
350.52	1027.71
350.89	1037.86
351.26	1041.14
351.63	1046.71
352.01	1050.99
352.38	1056.71
352.75	1058.69
353.12	1062.53
353.50	1064.15
353.87	1069.44
354.24	1071.33
354.61	1076.30
354.98	1080.74
355.36	1085.19
355.73	1083.18
356.10	1083.50
356.47	1080.13
356.84	1079.01
357.22	1078.40
357.59	1081.35
357.96	1082.85
358.33	1083.62
358.70	1085.56
359.08	1084.32
359.45	1082.66
359.82	1081.84
360.19	1082.69
360.56	1081.23
360.94	1081.30
361.31	1080.67
361.68	1075.69
362.05	1074.82
362.42	1073.49
362.79	1073.00
363.16	1072.20
363.54	1077.04
363.91	1075.22
364.28	1075.41
364.65	1072.41
365.02	1070.21
365.39	1068.41
365.76	1069.60
366.14	1064.83
366.51	1068.50
366.88	1069.37
367.25	1067.38
367.62	1066.09
367.99	1070.61
368.36	1064.22
368.73	1067.49
369.10	1068.78
369.48	1066.93
369.85	1066.07
370.22	1069.77
370.59	1066.93
370.96	1067.14
371.33	1069.30
371.70	1070.21
372.07	1073.72
372.44	1073.81
372.81	1074.38
373.18	1073.04
373.55	1073.32
373.93	1070.94
374.30	1072.04
374.67	1068.88
375.04	1070.23
375.41	1068.43
375.78	1067.26
376.15	1064.43
376.52	1067.59
376.89	1067.21
377.26	1068.71
377.63	1070.05
378.00	1073.16
378.37	1072.83
378.74	1073.91
379.11	1072.55
379.48	1072.90
379.85	1068.95
380.22	1067.54
380.59	1065.44
380.96	1065.11
381.33	1062.86
381.70	1067.59
382.07	1070.44
382.44	1072.76
382.81	1072.11
383.18	1075.48
383.55	1075.69
383.92	1073.18
384.29	1072.36
384.66	1075.10
385.03	1071.75
385.40	1068.62
385.77	1068.85
386.14	1067.85
386.51	1067.14
386.88	1068.78
387.25	1071.85
387.62	1073.18
387.99	1075.01
388.36	1075.83
388.73	1072.39
389.10	1072.48
389.46	1071.19
389.83	1071.78
390.20	1070.05
390.57	1072.25
390.94	1068.62
391.31	1071.61
391.68	1069.04
392.05	1068.08
392.42	1069.93
392.79	1071.47
393.16	1070.84
393.53	1072.36
393.89	1075.55
394.26	1075.24
394.63	1075.57
395.00	1075.48
395.37	1077.47
395.74	1075.83
396.11	1076.11
396.48	1075.10
396.84	1073.25
397.21	1071.85
397.58	1071.92
397.95	1069.53
398.32	1070.87
398.69	1070.87
399.06	1072.22
399.42	1072.29
399.79	1078.19
400.16	1079.41
400.53	1082.71
400.90	1084.02
401.27	1087.48
401.64	1083.11
402.00	1083.32
402.37	1080.37
402.74	1076.53
403.11	1073.42
403.48	1071.92
403.84	1071.92
404.21	1072.71
404.58	1073.63
404.95	1073.46
405.32	1074.91
405.68	1075.94
406.05	1075.83
406.42	1076.62
406.79	1074.94
407.16	1077.02
407.52	1076.60
407.89	1077.70
408.26	1075.97
408.63	1074.73
408.99	1073.53
409.36	1072.90
409.73	1073.56
410.10	1076.81
410.47	1080.39
410.83	1081.73
411.20	1079.78
411.57	1076.95
411.94	1075.87
412.30	1078.03
412.67	1073.93
413.04	1073.60
413.40	1075.94
413.77	1076.18
414.14	1076.13
414.51	1078.66
414.87	1080.25
415.24	1079.90
415.61	1078.33
415.97	1075.83
416.34	1077.14
416.71	1074.68
417.08	1075.22
417.44	1078.50
417.81	1079.97
418.18	1079.78
418.54	1083.62
418.91	1082.76
419.28	1079.41
419.64	1080.04
420.01	1079.10
420.38	1077.42
420.74	1075.85
421.11	1077.86
421.48	1077.37
421.84	1075.90
422.21	1074.07
422.58	1079.08
422.94	1075.64
423.31	1070.35
423.68	1071.54
424.04	1072.08
424.41	1068.55
424.77	1070.51
425.14	1074.35
425.51	1074.89
425.87	1077.40
426.24	1076.60
426.61	1078.80
426.97	1080.58
427.34	1080.18
427.70	1077.84
428.07	1076.08
428.44	1074.19
428.80	1072.39
429.17	1072.83
429.53	1075.34
429.90	1077.84
430.27	1079.20
430.63	1077.86
431.00	1077.21
431.36	1076.23
431.73	1076.97
432.09	1075.80
432.46	1077.91
432.83	1078.87
433.19	1080.60
433.56	1082.99
433.92	1084.74
434.29	1083.69
434.65	1084.72
435.02	1083.46
435.38	1080.09
435.75	1079.38
436.11	1079.64
436.48	1081.21
436.84	1077.70
437.21	1078.10
437.57	1078.57
437.94	1081.23
438.30	1077.86
438.67	1081.33
439.03	1084.00
439.40	1079.50
439.76	1079.57
440.13	1081.42
440.49	1083.81
440.86	1081.68
441.22	1083.01
441.59	1082.64
441.95	1082.73
442.32	1079.92
442.68	1081.30
443.05	1081.82
443.41	1080.44
443.78	1077.68
444.14	1078.59
444.51	1077.98
444.87	1078.28
445.24	1076.51
445.60	1079.48
445.96	1082.40
446.33	1079.99
446.69	1080.74
447.06	1082.78
447.42	1080.20
447.79	1074.89
448.15	1073.51
448.51	1075.45
448.88	1078.03
449.24	1079.85
449.61	1079.48
449.97	1082.73
450.33	1082.24
450.70	1077.18
451.06	1077.07
451.43	1079.88
451.79	1079.64
452.15	1080.02
452.52	1083.64
452.88	1081.21
453.24	1079.95
453.61	1083.69
453.97	1081.19
454.34	1081.19
454.70	1081.96
455.06	1084.14
455.43	1080.09
455.79	1081.77
456.15	1079.46
456.52	1081.51
456.88	1082.45
457.24	1083.27
457.61	1082.38
457.97	1082.52
458.33	1081.16
458.70	1077.54
459.06	1078.00
459.42	1077.28
459.79	1076.39
460.15	1074.14
460.51	1073.88
460.88	1071.03
461.24	1071.57
461.60	1074.77
461.96	1077.07
462.33	1082.31
462.69	1085.52
463.05	1084.04
463.42	1082.12
463.78	1081.23
464.14	1078.99
464.50	1075.31
464.87	1079.81
465.23	1080.44
465.59	1081.84
465.95	1081.05
466.32	1083.01
466.68	1080.72
467.04	1078.68
467.40	1080.81
467.77	1078.54
468.13	1077.16
468.49	1078.21
468.85	1080.53
469.22	1077.07
469.58	1077.75
469.94	1077.96
470.30	1075.20
470.66	1075.38
471.03	1077.09
471.39	1082.10
471.75	1082.61
472.11	1084.72
472.47	1081.82
472.84	1080.88
473.20	1076.88
473.56	1079.74
473.92	1080.44
474.28	1083.62
474.65	1083.97
475.01	1081.33
475.37	1080.60
475.73	1079.43
476.09	1078.43
476.45	1077.91
476.81	1081.12
477.18	1078.89
477.54	1078.31
477.90	1078.28
478.26	1081.94
478.62	1084.42
478.98	1085.21
479.34	1086.80
479.71	1087.16
480.07	1086.22
480.43	1083.83
480.79	1083.20
481.15	1082.50
481.51	1082.52
481.87	1082.54
482.23	1084.37
482.59	1084.46
482.96	1085.91
483.32	1084.32
483.68	1079.15
484.04	1076.90
484.40	1080.34
484.76	1077.72
485.12	1077.30
485.48	1084.16
485.84	1082.33
486.20	1079.60
486.56	1080.58
486.92	1082.57
487.28	1078.54
487.64	1082.08
488.00	1081.91
488.37	1080.11
488.73	1079.08
489.09	1079.53
489.45	1079.22
489.81	1081.23
490.17	1080.18
490.53	1081.37
490.89	1083.43
491.25	1084.09
491.61	1085.19
491.97	1088.02
492.33	1086.45
492.69	1083.22
493.05	1082.80
493.41	1080.63
493.77	1079.17
494.13	1081.05
494.49	1084.11
494.85	1082.03
495.21	1082.45
495.57	1085.21
495.93	1083.93
496.29	1082.87
496.64	1085.82
497.00	1086.03
497.36	1087.02
497.72	1090.24
498.08	1087.23
498.44	1086.34
498.80	1084.07
499.16	1080.56
499.52	1077.30
499.88	1076.86
500.24	1076.04
500.60	1078.17
500.96	1077.98
501.32	1079.83
501.68	1081.96
502.03	1081.82
502.39	1081.87
502.75	1081.75
503.11	1081.98
503.47	1083.43
503.83	1081.84
504.19	1077.33
504.55	1075.94
504.91	1073.39
505.26	1069.55
505.62	1070.84
505.98	1071.26
506.34	1073.37
506.70	1074.73
507.06	1075.43
507.42	1076.32
507.78	1083.32
508.13	1085.33
508.49	1082.57
508.85	1085.35
509.21	1084.84
509.57	1081.37
509.93	1078.36
510.28	1079.97
510.64	1079.22
511.00	1080.51
511.36	1081.51
511.72	1083.29
512.07	1084.74
512.43	1084.81
512.79	1079.97
513.15	1080.84
513.51	1081.12
513.86	1080.84
514.22	1081.26
514.58	1084.21
514.94	1082.87
515.30	1084.18
515.65	1084.98
516.01	1085.35
516.37	1084.93
516.73	1086.52
517.08	1083.60
517.44	1084.67
517.80	1084.46
518.16	1084.89
518.51	1083.22
518.87	1083.22
519.23	1080.56
519.59	1079.71
519.94	1082.57
520.30	1081.98
520.66	1082.15
521.01	1083.69
521.37	1083.69
521.73	1082.59
522.09	1080.67
522.44	1083.88
522.80	1083.76
523.16	1085.45
523.51	1080.44
523.87	1081.23
524.23	1079.76
524.58	1081.23
524.94	1082.45
525.30	1087.83
525.65	1088.19
526.01	1088.26
526.37	1082.80
526.72	1081.14
527.08	1077.61
527.44	1078.78
527.79	1079.81
528.15	1082.10
528.51	1081.47
528.86	1086.41
529.22	1087.86
529.58	1087.04
529.93	1088.19
530.29	1089.12
530.65	1087.34
531.00	1086.73
531.36	1086.73
531.71	1087.20
532.07	1087.32
532.43	1082.69
532.78	1081.73
533.14	1080.58
533.49	1084.21
533.85	1086.20
534.21	1088.79
534.56	1087.88
534.92	1090.46
535.27	1087.69
535.63	1085.00
535.98	1085.73
536.34	1083.55
536.69	1081.07
537.05	1081.02
537.41	1081.73
537.76	1081.37
538.12	1084.04
538.47	1084.70
538.83	1085.45
539.18	1086.92
539.54	1086.50
539.89	1088.28
540.25	1089.19
540.60	1090.88
540.96	1088.75
541.31	1090.85
541.67	1091.74
542.02	1093.08
542.38	1091.77
542.73	1093.64
543.09	1093.03
543.44	1096.00
543.80	1094.86
544.15	1097.92
544.51	1097.92
544.86	1099.79
545.22	1094.01
545.57	1093.57
545.93	1089.05
546.28	1087.16
546.64	1085.80
546.99	1088.09
547.35	1090.15
547.70	1092.21
548.05	1091.42
548.41	1090.97
548.76	1089.99
549.12	1087.23
549.47	1084.86
549.83	1087.67
550.18	1087.30
550.53	1089.73
550.89	1088.68
551.24	1091.09
551.60	1089.36
551.95	1088.26
552.30	1083.55
552.66	1085.03
553.01	1083.69
553.37	1083.01
553.72	1081.58
554.07	1082.83
554.43	1080.70
554.78	1078.00
555.13	1079.62
555.49	1081.33
555.84	1082.26
556.19	1086.17
556.55	1087.18
556.90	1084.65
557.26	1083.46
557.61	1086.03
557.96	1085.07
558.32	1086.36
558.67	1086.90
559.02	1087.27
559.37	1084.65
559.73	1082.94
560.08	1081.49
560.43	1083.04
560.79	1082.71
561.14	1081.91
561.49	1080.04
561.85	1082.10
562.20	1077.25
562.55	1080.32
562.90	1079.57
563.26	1082.57
563.61	1078.80
563.96	1082.61
564.32	1081.40
564.67	1083.25
565.02	1080.98
565.37	1080.95
565.73	1080.60
566.08	1078.61
566.43	1075.27
566.78	1076.81
567.14	1079.57
567.49	1080.34
567.84	1082.15
568.19	1085.89
568.54	1084.42
568.90	1083.57
569.25	1083.81
569.60	1084.42
569.95	1085.00
570.31	1086.52
570.66	1086.64
571.01	1086.20
571.36	1082.33
571.71	1082.47
572.06	1080.70
572.42	1082.33
572.77	1084.16
573.12	1087.18
573.47	1087.46
573.82	1087.65
574.18	1084.77
574.53	1081.37
574.88	1081.80
575.23	1079.38
575.58	1081.84
575.93	1082.52
576.28	1083.74
576.64	1084.00
576.99	1084.39
577.34	1082.33
577.69	1083.97
578.04	1085.00
578.39	1085.07
578.74	1086.06
579.09	1088.44
579.44	1085.66
579.80	1086.85
580.15	1088.00
580.50	1089.19
580.85	1087.51
581.20	1088.89
581.55	1085.63
581.90	1084.81
582.25	1082.90
582.60	1084.30
582.95	1085.38
583.30	1083.62
583.65	1080.51
584.00	1079.22
584.35	1078.87
584.71	1080.11
585.06	1082.61
585.41	1084.56
585.76	1086.80
586.11	1085.24
586.46	1083.69
586.81	1083.32
587.16	1085.45
587.51	1085.33
587.86	1087.65
588.21	1089.92
588.56	1090.55
588.91	1090.41
589.26	1089.66
589.61	1090.36
589.96	1087.25
590.31	1088.93
590.66	1087.32
591.01	1089.19
591.36	1088.21
591.71	1086.01
592.06	1085.03
592.41	1087.11
592.76	1085.91
593.10	1084.42
593.45	1087.44
593.80	1087.95
594.15	1086.57
594.50	1087.60
594.85	1089.00
595.20	1087.76
595.55	1084.39
595.90	1083.11
596.25	1081.35
596.60	1080.30
596.95	1081.96
597.30	1082.26
597.64	1133.78
597.99	1136.05
598.34	1136.99
598.69	1136.10
599.04	1136.35
599.39	1085.80
599.74	1082.40
600.09	1080.93
600.44	1081.09
600.78	1084.44
601.13	1080.88
601.48	1081.09
601.83	1082.15
602.18	1082.61
602.53	1082.66
602.88	1085.68
603.22	1085.82
603.57	1083.83
603.92	1082.05
604.27	1083.41
604.62	1083.15
604.97	1083.55
605.31	1084.32
605.66	1085.14
606.01	1082.15
606.36	1082.10
606.71	1083.50
607.05	1086.87
607.40	1087.90
607.75	1088.28
608.10	1085.47
608.44	1083.43
608.79	1079.13
609.14	1080.37
609.49	1081.19
609.84	1088.21
610.18	1091.67
610.53	1097.06
610.88	1097.90
611.23	1099.51
611.57	1097.36
611.92	1097.15
612.27	1096.68
612.62	1093.03
612.96	1090.34
613.31	1092.19
613.66	1089.50
614.00	1087.16
614.35	1088.26
614.70	1089.10
615.05	1084.51
615.39	1084.56
615.74	1084.46
616.09	1084.37
616.43	1085.77
616.78	1085.80
617.13	1087.60
617.47	1085.47
617.82	1084.42
618.17	1082.83
618.51	1083.76
618.86	1079.20
619.21	1080.20
619.55	1082.69
619.90	1082.17
620.25	1079.83
620.59	1082.64
620.94	1085.26
621.29	1086.97
621.63	1087.76
621.98	1086.92
622.32	1085.24
622.67	1080.70
623.02	1075.92
623.36	1075.92
623.71	1077.49
624.05	1078.61
624.40	1082.94
624.75	1084.86
625.09	1087.48
625.44	1092.23
625.78	1096.63
626.13	1095.14
626.48	1096.42
626.82	1094.90
627.17	1092.47
627.51	1085.80
627.86	1083.76
628.20	1082.69
628.55	1080.88
628.89	1079.78
629.24	1079.60
629.58	1080.13
629.93	1081.80
630.28	1083.79
630.62	1084.96
630.97	1089.40
631.31	1089.22
631.66	1087.39
632.00	1085.82
632.35	1082.45
632.69	1078.99
633.04	1079.13
633.38	1079.46
633.73	1075.36
634.07	1077.70
634.42	1077.56
634.76	1076.69
635.11	1073.98
635.45	1076.53
635.79	1075.05
636.14	1076.15
636.48	1077.37
636.83	1081.19
637.17	1081.70
637.52	1085.77
637.86	1086.20
638.21	1087.72
638.55	1085.47
638.89	1084.63
639.24	1081.12
639.58	1083.29
639.93	1081.82
640.27	1080.95
640.61	1078.96
640.96	1078.96
641.30	1076.97
641.65	1077.86
641.99	1076.95
642.33	1082.61
642.68	1084.56
643.02	1086.92
643.37	1086.90
643.71	1089.71
644.05	1084.49
644.40	1084.53
644.74	1081.80
645.08	1082.08
645.43	1083.67
645.77	1086.83
646.11	1087.48
646.46	1087.69
646.80	1086.66
647.14	1083.88
647.49	1083.04
647.83	1081.12
648.17	1083.13
648.52	1082.36
648.86	1083.27
649.20	1086.59
649.55	1085.99
649.89	1084.91
650.23	1085.70
650.57	1084.11
650.92	1082.08
651.26	1081.66
651.60	1080.06
651.95	1081.28
652.29	1083.18
652.63	1081.21
652.97	1084.23
653.32	1082.80
653.66	1081.33
654.00	1080.67
654.34	1083.36
654.69	1083.55
655.03	1083.74
655.37	1083.81
655.71	1084.58
656.05	1081.80
656.40	1079.06
656.74	1080.13
657.08	1081.68
657.42	1082.64
657.76	1082.61
658.11	1084.56
658.45	1085.82
658.79	1083.62
659.13	1078.96
659.47	1080.23
659.82	1078.57
660.16	1078.75
660.50	1078.99
660.84	1084.46
661.18	1081.40
661.52	1083.13
661.87	1084.04
662.21	1085.59
662.55	1083.83
662.89	1089.80
663.23	1087.04
663.57	1086.31
663.91	1086.73
664.25	1085.63
664.60	1081.87
664.94	1084.02
665.28	1080.88
665.62	1080.41
665.96	1081.68
666.30	1082.24
666.64	1079.20
666.98	1080.67
667.32	1080.70
667.66	1081.61
668.01	1080.60
668.35	1085.12
668.69	1084.14
669.03	1082.15
669.37	1079.64
669.71	1082.05
670.05	1076.90
670.39	1079.24
670.73	1079.55
671.07	1080.39
671.41	1077.42
671.75	1080.23
672.09	1077.84
672.43	1080.11
672.77	1077.98
673.11	1078.45
673.45	1078.92
673.79	1079.69
674.13	1076.41
674.47	1077.79
674.81	1078.82
675.15	1079.43
675.49	1081.89
675.83	1083.64
676.17	1080.84
676.51	1079.64
676.85	1078.14
677.19	1078.19
677.53	1072.76
677.87	1076.58
678.21	1078.89
678.55	1079.50
678.89	1074.73
679.23	1083.15
679.57	1081.87
679.90	1080.09
680.24	1079.74
680.58	1081.80
680.92	1078.10
681.26	1078.99
681.60	1080.32
681.94	1078.17
682.28	1076.39
682.62	1078.10
682.96	1079.08
683.29	1079.17
683.63	1081.23
683.97	1084.56
684.31	1083.06
684.65	1082.05
684.99	1081.12
685.33	1081.33
685.67	1080.23
686.00	1081.70
686.34	1079.36
686.68	1079.48
687.02	1080.09
687.36	1084.18
687.70	1085.42
688.03	1087.25
688.37	1088.33
688.71	1087.67
689.05	1084.65
689.39	1083.27
689.72	1080.98
690.06	1079.57
690.40	1081.73
690.74	1083.13
691.08	1080.91
691.41	1085.75
691.75	1084.63
692.09	1084.09
692.43	1082.15
692.76	1081.12
693.10	1079.43
693.44	1080.51
693.78	1079.83
694.11	1081.63
694.45	1084.86
694.79	1082.94
695.13	1084.04
695.46	1084.09
695.80	1081.91
696.14	1081.56
696.48	1084.16
696.81	1084.77
697.15	1085.68
697.49	1086.85
697.82	1084.63
698.16	1081.80
698.50	1080.67
698.83	1077.68
699.17	1080.60
699.51	1083.18
699.84	1084.07
700.18	1084.07
700.52	1084.86
700.85	1081.09
701.19	1080.44
701.53	1082.15
701.86	1081.63
702.20	1080.86
702.54	1082.33
702.87	1083.50
703.21	1082.59
703.55	1087.18
703.88	1087.72
704.22	1085.52
704.55	1084.09
704.89	1084.86
705.23	1079.95
705.56	1081.37
705.90	1081.96
706.23	1083.60
706.57	1083.46
706.91	1081.91
707.24	1082.52
707.58	1084.65
707.91	1084.93
708.25	1082.45
708.58	1085.49
708.92	1086.22
709.26	1083.34
709.59	1082.85
709.93	1083.55
710.26	1082.57
710.60	1078.21
710.93	1078.66
711.27	1076.62
711.60	1079.41
711.94	1075.31
712.27	1079.50
712.61	1079.81
712.94	1081.70
713.28	1079.81
713.61	1084.56
713.95	1081.84
714.28	1082.92
714.62	1078.96
714.95	1079.81
715.29	1080.46
715.62	1077.96
715.96	1077.98
716.29	1081.54
716.63	1079.76
716.96	1076.69
717.29	1079.99
717.63	1077.84
717.96	1078.05
718.30	1079.43
718.63	1083.15
718.97	1082.01
719.30	1080.79
719.63	1076.55
719.97	1075.85
720.30	1071.71
720.64	1069.55
720.97	1072.08
721.30	1074.68
721.64	1069.79
721.97	1071.05
722.31	1076.37
722.64	1075.85
722.97	1076.44
723.31	1081.14
723.64	1082.54
723.97	1081.47
724.31	1082.47
724.64	1085.52
724.98	1085.31
725.31	1085.31
725.64	1084.86
725.98	1085.05
726.31	1080.86
726.64	1083.81
726.97	1083.62
727.31	1082.83
727.64	1085.38
727.97	1086.90
728.31	1086.76
728.64	1084.28
728.97	1084.32
729.31	1082.38
729.64	1080.23
729.97	1074.59
730.30	1078.28
730.64	1078.96
730.97	1079.57
731.30	1080.23
731.63	1081.42
731.97	1082.29
732.30	1083.60
732.63	1082.19
732.96	1083.34
733.30	1085.31
733.63	1084.60
733.96	1085.14
734.29	1085.00
734.63	1088.82
734.96	1090.92
735.29	1092.30
735.62	1092.26
735.95	1093.03
736.29	1089.43
736.62	1089.52
736.95	1085.75
737.28	1082.03
737.61	1082.01
737.94	1078.75
738.28	1076.13
738.61	1077.70
738.94	1081.66
739.27	1079.60
739.60	1084.65
739.93	1082.87
740.27	1084.02
740.60	1080.86
740.93	1083.34
741.26	1081.33
741.59	1084.58
741.92	1081.87
742.25	1081.12
742.58	1078.89
742.91	1080.16
743.25	1078.24
743.58	1078.10
743.91	1079.13
744.24	1080.74
744.57	1077.68
744.90	1077.93
745.23	1079.57
745.56	1080.91
745.89	1079.90
746.22	1082.43
746.55	1083.93
746.88	1084.04
747.21	1083.48
747.54	1085.19
747.87	1084.70
748.20	1084.72
748.53	1084.07
748.87	1086.06
749.20	1084.98
749.53	1083.90
749.86	1084.44
750.19	1083.71
750.52	1082.94
750.85	1084.74
751.18	1083.50
751.51	1079.92
751.84	1081.58
752.16	1082.99
752.49	1080.46
752.82	1082.01
753.15	1085.63
753.48	1083.53
753.81	1078.71
754.14	1078.61
754.47	1081.26
754.80	1080.48
755.13	1083.01
755.46	1084.63
755.79	1083.04
756.12	1083.53
756.45	1082.47
756.78	1082.12
757.11	1081.77
757.43	1084.09
757.76	1083.71
758.09	1083.06
758.42	1083.55
758.75	1082.78
759.08	1083.79
759.41	1082.69
759.74	1084.53
760.07	1085.52
760.39	1088.04
760.72	1087.55
761.05	1085.54
761.38	1084.63
761.71	1083.20
762.04	1080.63
762.36	1080.44
762.69	1084.56
763.02	1086.06
763.35	1085.21
763.68	1085.89
764.01	1085.77
764.33	1082.22
764.66	1081.42
764.99	1082.71
765.32	1082.22
765.65	1082.43
765.97	1084.02
766.30	1082.47
