SpectraSuite Data File
++++++++++++++++++++++++++++++++++++
Date: Mon Aug 26 10:26:00 PDT 2019
User: corrico
Dark Spectrum Present: No
Reference Spectrum Present: No
Number of Sampled Component Spectra: 1
Spectrometers: USB2+H06089
Integration Time (usec): 10000 (USB2+H06089)
Spectra Averaged: 2 (USB2+H06089)
Boxcar Smoothing: 2 (USB2+H06089)
Correct for Electrical Dark: No (USB2+H06089)
Strobe/Lamp Enabled: No (USB2+H06089)
Correct for Detector Non-linearity: No (USB2+H06089)
Correct for Stray Light: No (USB2+H06089)
Number of Pixels in Processed Spectrum: 2048
>>>>>Begin Processed Spectral Data<<<<<
339.70	1059.09
340.07	1059.09
340.45	1029.60
340.82	1008.30
341.19	976.24
341.57	945.81
341.94	917.72
342.31	906.49
342.69	887.30
343.06	882.15
343.43	879.34
343.81	885.89
344.18	884.25
344.55	894.32
344.93	902.51
345.30	913.51
345.67	929.66
346.04	940.43
346.42	954.70
346.79	966.88
347.16	970.15
347.54	975.54
347.91	979.28
348.28	981.39
348.65	988.88
349.03	1002.69
349.40	1009.24
349.77	1024.45
350.14	1034.98
350.52	1041.77
350.89	1040.37
351.26	1045.28
351.63	1051.84
352.01	1062.37
352.38	1065.88
352.75	1082.03
353.12	1085.07
353.50	1083.90
353.87	1084.37
354.24	1088.12
354.61	1084.60
354.98	1082.50
355.36	1082.03
355.73	1071.50
356.10	1068.45
356.47	1064.71
356.84	1073.84
357.22	1080.16
357.59	1086.71
357.96	1080.63
358.33	1085.54
358.70	1078.52
359.08	1071.50
359.45	1069.62
359.82	1080.63
360.19	1082.73
360.56	1091.39
360.94	1088.12
361.31	1100.05
361.68	1093.26
362.05	1086.01
362.42	1094.90
362.79	1101.46
363.16	1088.12
363.54	1088.35
363.91	1093.03
364.28	1070.09
364.65	1063.31
365.02	1066.82
365.39	1071.03
365.76	1072.90
366.14	1075.71
366.51	1077.35
366.88	1077.35
367.25	1081.09
367.62	1070.80
367.99	1078.52
368.36	1076.18
368.73	1072.67
369.10	1064.48
369.48	1069.86
369.85	1067.28
370.22	1068.69
370.59	1073.37
370.96	1076.65
371.33	1075.48
371.70	1073.37
372.07	1076.41
372.44	1072.67
372.81	1069.16
373.18	1067.28
373.55	1072.20
373.93	1064.94
374.30	1052.54
374.67	1056.05
375.04	1053.48
375.41	1050.20
375.78	1055.35
376.15	1064.71
376.52	1068.69
376.89	1076.18
377.26	1070.56
377.63	1071.97
378.00	1074.54
378.37	1071.26
378.74	1075.24
379.11	1077.35
379.48	1078.99
379.85	1080.63
380.22	1077.11
380.59	1075.48
380.96	1085.54
381.33	1087.65
381.70	1088.58
382.07	1095.60
382.44	1095.60
382.81	1078.75
383.18	1072.90
383.55	1069.16
383.92	1066.11
384.29	1063.77
384.66	1070.09
385.03	1075.94
385.40	1083.43
385.77	1073.37
386.14	1076.88
386.51	1082.73
386.88	1076.65
387.25	1071.26
387.62	1070.33
387.99	1057.45
388.36	1049.50
388.73	1051.60
389.10	1054.41
389.46	1065.65
389.83	1071.73
390.20	1083.67
390.57	1091.16
390.94	1094.67
391.31	1095.37
391.68	1092.09
392.05	1082.73
392.42	1079.92
392.79	1071.50
393.16	1072.90
393.53	1067.99
393.89	1072.43
394.26	1062.37
394.63	1071.73
395.00	1075.24
395.37	1087.65
395.74	1081.09
396.11	1078.99
396.48	1073.37
396.84	1071.03
397.21	1063.07
397.58	1071.03
397.95	1081.80
398.32	1072.20
398.69	1063.07
399.06	1065.18
399.42	1060.26
399.79	1058.39
400.16	1069.62
400.53	1077.58
400.90	1080.39
401.27	1087.41
401.64	1083.43
402.00	1083.20
402.37	1078.75
402.74	1080.16
403.11	1075.01
403.48	1082.26
403.84	1074.54
404.21	1080.16
404.58	1076.88
404.95	1080.16
405.32	1078.52
405.68	1079.69
406.05	1069.62
406.42	1065.65
406.79	1070.33
407.16	1067.75
407.52	1078.05
407.89	1083.20
408.26	1092.80
408.63	1082.73
408.99	1085.54
409.36	1076.65
409.73	1071.73
410.10	1073.14
410.47	1075.94
410.83	1072.43
411.20	1076.41
411.57	1079.46
411.94	1074.07
412.30	1083.20
412.67	1080.86
413.04	1077.58
413.40	1073.60
413.77	1076.65
414.14	1060.03
414.51	1070.56
414.87	1075.94
415.24	1075.48
415.61	1075.48
415.97	1084.14
416.34	1076.41
416.71	1072.43
417.08	1079.69
417.44	1082.03
417.81	1083.67
418.18	1078.05
418.54	1072.90
418.91	1064.94
419.28	1057.45
419.64	1053.71
420.01	1068.22
420.38	1075.24
420.74	1080.39
421.11	1084.14
421.48	1076.65
421.84	1075.48
422.21	1080.63
422.58	1079.46
422.94	1077.82
423.31	1084.60
423.68	1073.84
424.04	1074.77
424.41	1075.94
424.77	1078.05
425.14	1086.01
425.51	1080.86
425.87	1079.92
426.24	1091.16
426.61	1089.99
426.97	1088.58
427.34	1093.50
427.70	1091.86
428.07	1086.71
428.44	1093.50
428.80	1089.99
429.17	1091.39
429.53	1086.71
429.90	1074.77
430.27	1066.11
430.63	1070.09
431.00	1073.37
431.36	1080.16
431.73	1088.82
432.09	1086.48
432.46	1083.43
432.83	1086.24
433.19	1080.63
433.56	1075.48
433.92	1070.80
434.29	1059.56
434.65	1053.24
435.02	1049.96
435.38	1059.09
435.75	1065.18
436.11	1072.20
436.48	1078.52
436.84	1092.56
437.21	1088.58
437.57	1090.69
437.94	1097.71
438.30	1089.99
438.67	1076.18
439.03	1070.33
439.40	1061.20
439.76	1058.62
440.13	1064.48
440.49	1063.77
440.86	1057.22
441.22	1061.43
441.59	1056.52
441.95	1058.62
442.32	1056.28
442.68	1069.62
443.05	1072.43
443.41	1064.01
443.78	1057.45
444.14	1061.90
444.51	1061.90
444.87	1064.48
445.24	1071.26
445.60	1076.65
445.96	1076.88
446.33	1073.60
446.69	1077.35
447.06	1086.48
447.42	1083.20
447.79	1086.24
448.15	1085.77
448.51	1078.52
448.88	1071.73
449.24	1078.28
449.61	1063.31
449.97	1065.88
450.33	1071.97
450.70	1073.60
451.06	1068.92
451.43	1088.12
451.79	1085.31
452.15	1084.14
452.52	1076.41
452.88	1073.60
453.24	1070.56
453.61	1065.65
453.97	1064.94
454.34	1072.20
454.70	1080.39
455.06	1080.63
455.43	1087.88
455.79	1088.82
456.15	1092.33
456.52	1093.03
456.88	1086.48
457.24	1088.58
457.61	1089.75
457.97	1084.60
458.33	1075.24
458.70	1073.84
459.06	1075.71
459.42	1073.14
459.79	1075.24
460.15	1080.63
460.51	1088.82
460.88	1090.92
461.24	1093.73
461.60	1086.94
461.96	1071.73
462.33	1066.35
462.69	1064.01
463.05	1060.96
463.42	1064.94
463.78	1068.22
464.14	1063.54
464.50	1050.43
464.87	1050.43
465.23	1060.03
465.59	1079.46
465.95	1082.50
466.32	1098.88
466.68	1102.16
467.04	1094.20
467.40	1089.29
467.77	1091.86
468.13	1086.71
468.49	1089.05
468.85	1088.35
469.22	1075.01
469.58	1068.69
469.94	1075.24
470.30	1073.60
470.66	1075.01
471.03	1076.18
471.39	1079.69
471.75	1078.05
472.11	1079.92
472.47	1085.31
472.84	1095.14
473.20	1098.88
473.56	1096.54
473.92	1091.86
474.28	1090.69
474.65	1090.69
475.01	1089.99
475.37	1080.63
475.73	1071.26
476.09	1069.16
476.45	1069.39
476.81	1072.90
477.18	1075.71
477.54	1084.84
477.90	1088.12
478.26	1085.31
478.62	1082.50
478.98	1092.09
479.34	1090.69
479.71	1073.14
480.07	1083.43
480.43	1079.69
480.79	1069.62
481.15	1068.92
481.51	1086.48
481.87	1080.86
482.23	1084.84
482.59	1094.20
482.96	1101.92
483.32	1095.60
483.68	1096.78
484.04	1103.33
484.40	1103.09
484.76	1097.24
485.12	1101.22
485.48	1088.82
485.84	1077.35
486.20	1071.97
486.56	1064.94
486.92	1051.84
487.28	1064.94
487.64	1062.60
488.00	1060.26
488.37	1061.20
488.73	1067.52
489.09	1057.45
489.45	1060.03
489.81	1060.96
490.17	1068.45
490.53	1073.84
490.89	1074.31
491.25	1076.65
491.61	1079.92
491.97	1088.35
492.33	1090.69
492.69	1091.16
493.05	1096.31
493.41	1095.84
493.77	1084.37
494.13	1075.24
494.49	1072.43
494.85	1060.50
495.21	1059.79
495.57	1062.14
495.93	1059.79
496.29	1068.22
496.64	1076.41
497.00	1081.56
497.36	1079.46
497.72	1088.58
498.08	1077.11
498.44	1083.43
498.80	1076.88
499.16	1078.75
499.52	1070.56
499.88	1080.39
500.24	1072.20
500.60	1075.94
500.96	1078.52
501.32	1089.75
501.68	1087.18
502.03	1082.50
502.39	1078.75
502.75	1073.14
503.11	1070.56
503.47	1080.39
503.83	1092.56
504.19	1096.31
504.55	1089.52
504.91	1081.09
505.26	1069.86
505.62	1071.26
505.98	1070.56
506.34	1080.39
506.70	1093.50
507.06	1101.46
507.42	1091.63
507.78	1086.48
508.13	1084.60
508.49	1066.35
508.85	1061.20
509.21	1067.75
509.57	1067.05
509.93	1064.71
510.28	1085.31
510.64	1076.18
511.00	1073.60
511.36	1075.24
511.72	1088.82
512.07	1082.97
512.43	1095.14
512.79	1106.84
513.15	1116.20
513.51	1101.92
513.86	1105.90
514.22	1107.31
514.58	1096.07
514.94	1092.80
515.30	1101.92
515.65	1089.99
516.01	1079.69
516.37	1086.94
516.73	1084.60
517.08	1081.80
517.44	1097.95
517.80	1100.05
518.16	1103.09
518.51	1104.26
518.87	1104.03
519.23	1094.90
519.59	1108.24
519.94	1103.80
520.30	1103.80
520.66	1100.52
521.01	1108.95
521.37	1099.12
521.73	1089.99
522.09	1087.18
522.44	1095.14
522.80	1088.58
523.16	1096.54
523.51	1108.01
523.87	1112.46
524.23	1114.10
524.58	1121.82
524.94	1107.78
525.30	1105.90
525.65	1092.33
526.01	1074.77
526.37	1059.56
526.72	1055.82
527.08	1055.11
527.44	1070.09
527.79	1082.03
528.15	1094.20
528.51	1109.88
528.86	1113.16
529.22	1113.86
529.58	1110.12
529.93	1104.50
530.29	1096.31
530.65	1092.09
531.00	1083.67
531.36	1092.33
531.71	1096.07
532.07	1097.95
532.43	1096.78
532.78	1102.16
533.14	1105.90
533.49	1106.61
533.85	1106.37
534.21	1099.12
534.56	1091.86
534.92	1092.56
535.27	1091.63
535.63	1095.84
535.98	1099.82
536.34	1102.86
536.69	1090.69
537.05	1084.60
537.41	1083.43
537.76	1086.01
538.12	1092.09
538.47	1096.54
538.83	1097.48
539.18	1095.60
539.54	1094.20
539.89	1100.99
540.25	1099.35
540.60	1103.80
540.96	1104.97
541.31	1108.95
541.67	1104.97
542.02	1111.05
542.38	1103.80
542.73	1098.41
543.09	1096.78
543.44	1089.05
543.80	1077.58
544.15	1081.80
544.51	1086.48
544.86	1085.31
545.22	1094.90
545.57	1100.29
545.93	1102.63
546.28	1106.61
546.64	1116.90
546.99	1103.56
547.35	1099.82
547.70	1089.75
548.05	1084.60
548.41	1070.80
548.76	1076.88
549.12	1081.09
549.47	1075.71
549.83	1085.54
550.18	1089.05
550.53	1081.09
550.89	1081.33
551.24	1087.41
551.60	1074.07
551.95	1068.45
552.30	1075.71
552.66	1071.26
553.01	1076.41
553.37	1077.35
553.72	1082.73
554.07	1076.18
554.43	1073.60
554.78	1083.90
555.13	1097.48
555.49	1093.26
555.84	1086.71
556.19	1085.31
556.55	1080.39
556.90	1071.26
557.26	1072.90
557.61	1081.09
557.96	1086.01
558.32	1088.35
558.67	1081.80
559.02	1079.69
559.37	1092.56
559.73	1094.90
560.08	1085.77
560.43	1093.73
560.79	1091.86
561.14	1085.77
561.49	1086.71
561.85	1090.46
562.20	1082.03
562.55	1088.12
562.90	1089.05
563.26	1079.22
563.61	1072.43
563.96	1076.88
564.32	1075.71
564.67	1069.16
565.02	1070.33
565.37	1067.05
565.73	1067.28
566.08	1064.71
566.43	1063.77
566.78	1075.01
567.14	1086.94
567.49	1089.75
567.84	1097.24
568.19	1091.39
568.54	1086.48
568.90	1084.37
569.25	1082.73
569.60	1079.22
569.95	1088.82
570.31	1097.48
570.66	1097.01
571.01	1098.65
571.36	1108.01
571.71	1113.86
572.06	1106.14
572.42	1103.56
572.77	1097.24
573.12	1087.65
573.47	1083.90
573.82	1082.97
574.18	1079.92
574.53	1080.39
574.88	1080.16
575.23	1079.92
575.58	1081.09
575.93	1088.82
576.28	1088.35
576.64	1086.01
576.99	1068.45
577.34	1069.16
577.69	1064.24
578.04	1061.67
578.39	1060.50
578.74	1079.69
579.09	1077.35
579.44	1091.39
579.80	1096.78
580.15	1103.33
580.50	1101.46
580.85	1102.39
581.20	1091.39
581.55	1085.31
581.90	1092.09
582.25	1089.52
582.60	1079.46
582.95	1078.52
583.30	1080.16
583.65	1065.88
584.00	1062.60
584.35	1069.39
584.71	1065.88
585.06	1068.92
585.41	1068.22
585.76	1069.16
586.11	1061.20
586.46	1066.82
586.81	1066.11
587.16	1076.88
587.51	1074.31
587.86	1081.09
588.21	1076.41
588.56	1089.75
588.91	1086.71
589.26	1098.65
589.61	1105.44
589.96	1097.24
590.31	1081.56
590.66	1076.41
591.01	1071.26
591.36	1061.67
591.71	1063.77
592.06	1066.82
592.41	1072.43
592.76	1062.84
593.10	1069.16
593.45	1069.16
593.80	1067.99
594.15	1061.67
594.50	1060.96
594.85	1057.45
595.20	1068.22
595.55	1072.20
595.90	1075.01
596.25	1083.20
596.60	1087.88
596.95	1082.50
597.30	1075.48
597.64	1123.69
597.99	1123.69
598.34	1126.50
598.69	1128.84
599.04	1121.35
599.39	1072.20
599.74	1068.92
600.09	1060.50
600.44	1063.07
600.78	1075.94
601.13	1077.82
601.48	1076.18
601.83	1080.86
602.18	1083.20
602.53	1088.58
602.88	1089.75
603.22	1097.95
603.57	1095.60
603.92	1089.05
604.27	1096.78
604.62	1098.65
604.97	1098.18
605.31	1102.39
605.66	1098.88
606.01	1078.99
606.36	1073.37
606.71	1068.45
607.05	1058.62
607.40	1055.82
607.75	1057.92
608.10	1064.01
608.44	1068.22
608.79	1084.60
609.14	1094.20
609.49	1110.12
609.84	1111.75
610.18	1113.86
610.53	1115.50
610.88	1115.97
611.23	1098.41
611.57	1098.88
611.92	1099.58
612.27	1088.58
612.62	1085.54
612.96	1107.78
613.31	1099.82
613.66	1104.73
614.00	1110.12
614.35	1112.92
614.70	1093.50
615.05	1090.92
615.39	1080.16
615.74	1074.31
616.09	1091.16
616.43	1082.97
616.78	1093.97
617.13	1099.35
617.47	1097.48
617.82	1078.52
618.17	1089.29
618.51	1083.67
618.86	1070.80
619.21	1085.07
619.55	1079.69
619.90	1091.16
620.25	1103.80
620.59	1108.24
620.94	1099.58
621.29	1112.46
621.63	1104.73
621.98	1091.16
622.32	1098.41
622.67	1092.56
623.02	1087.41
623.36	1087.65
623.71	1086.01
624.05	1079.69
624.40	1081.56
624.75	1084.14
625.09	1082.50
625.44	1087.18
625.78	1089.05
626.13	1089.99
626.48	1077.11
626.82	1077.58
627.17	1072.67
627.51	1074.07
627.86	1072.90
628.20	1086.24
628.55	1092.33
628.89	1096.31
629.24	1104.26
629.58	1110.12
629.93	1099.82
630.28	1096.78
630.62	1091.86
630.97	1086.01
631.31	1095.37
631.66	1104.26
632.00	1106.37
632.35	1110.12
632.69	1102.39
633.04	1084.84
633.38	1076.88
633.73	1073.60
634.07	1076.65
634.42	1076.65
634.76	1090.46
635.11	1092.33
635.45	1088.35
635.79	1083.43
636.14	1092.09
636.48	1089.05
636.83	1083.43
637.17	1082.97
637.52	1082.26
637.86	1080.86
638.21	1072.43
638.55	1079.46
638.89	1078.05
639.24	1075.24
639.58	1062.14
639.93	1067.99
640.27	1074.54
640.61	1078.52
640.96	1077.11
641.30	1090.92
641.65	1079.92
641.99	1062.84
642.33	1052.07
642.68	1048.79
643.02	1051.37
643.37	1057.92
643.71	1058.39
644.05	1063.54
644.40	1074.31
644.74	1071.03
645.08	1073.37
645.43	1081.80
645.77	1083.43
646.11	1074.77
646.46	1072.67
646.80	1077.11
647.14	1078.75
647.49	1076.41
647.83	1077.82
648.17	1078.05
648.52	1065.88
648.86	1062.37
649.20	1073.60
649.55	1079.46
649.89	1090.46
650.23	1102.63
650.57	1106.84
650.92	1102.39
651.26	1100.29
651.60	1097.24
651.95	1099.82
652.29	1097.48
652.63	1091.16
652.97	1094.43
653.32	1091.63
653.66	1098.41
654.00	1099.12
654.34	1101.22
654.69	1091.16
655.03	1087.18
655.37	1073.60
655.71	1073.84
656.05	1082.73
656.40	1094.20
656.74	1089.05
657.08	1089.05
657.42	1100.99
657.76	1096.31
658.11	1099.58
658.45	1102.86
658.79	1098.65
659.13	1091.86
659.47	1090.22
659.82	1090.92
660.16	1097.48
660.50	1107.31
660.84	1103.56
661.18	1102.86
661.52	1089.75
661.87	1088.12
662.21	1080.63
662.55	1080.16
662.89	1083.43
663.23	1091.86
663.57	1097.48
663.91	1095.84
664.25	1098.88
664.60	1099.58
664.94	1097.48
665.28	1092.80
665.62	1092.56
665.96	1078.05
666.30	1069.39
666.64	1065.65
666.98	1059.33
667.32	1064.71
667.66	1076.18
668.01	1076.41
668.35	1086.24
668.69	1089.29
669.03	1079.92
669.37	1080.86
669.71	1084.37
670.05	1080.63
670.39	1078.52
670.73	1078.75
671.07	1081.56
671.41	1081.56
671.75	1076.41
672.09	1078.99
672.43	1083.43
672.77	1085.31
673.11	1083.90
673.45	1089.75
673.79	1086.24
674.13	1078.52
674.47	1069.86
674.81	1074.77
675.15	1067.05
675.49	1063.07
675.83	1068.45
676.17	1078.05
676.51	1079.46
676.85	1085.31
677.19	1083.43
677.53	1089.52
677.87	1092.56
678.21	1087.41
678.55	1093.03
678.89	1098.41
679.23	1095.84
679.57	1089.29
679.90	1096.31
680.24	1087.65
680.58	1092.33
680.92	1093.97
681.26	1087.41
681.60	1084.37
681.94	1083.67
682.28	1081.56
682.62	1079.22
682.96	1082.73
683.29	1082.26
683.63	1078.05
683.97	1068.22
684.31	1077.35
684.65	1080.63
684.99	1075.24
685.33	1089.52
685.67	1107.31
686.00	1092.33
686.34	1089.05
686.68	1093.97
687.02	1080.16
687.36	1073.84
687.70	1081.33
688.03	1084.14
688.37	1081.80
688.71	1085.77
689.05	1087.65
689.39	1077.58
689.72	1075.94
690.06	1076.65
690.40	1085.07
690.74	1078.75
691.08	1084.84
691.41	1085.07
691.75	1084.60
692.09	1074.31
692.43	1078.05
692.76	1079.92
693.10	1074.07
693.44	1066.58
693.78	1072.20
694.11	1066.11
694.45	1064.94
694.79	1068.45
695.13	1069.16
695.46	1074.77
695.80	1072.67
696.14	1076.88
696.48	1077.58
696.81	1089.05
697.15	1074.07
697.49	1081.09
697.82	1080.39
698.16	1082.03
698.50	1078.75
698.83	1093.50
699.17	1090.46
699.51	1092.80
699.84	1100.52
700.18	1099.82
700.52	1084.14
700.85	1085.07
701.19	1076.18
701.53	1074.54
701.86	1076.65
702.20	1086.48
702.54	1089.29
702.87	1094.43
703.21	1089.29
703.55	1100.75
703.88	1101.22
704.22	1091.39
704.55	1086.94
704.89	1086.01
705.23	1074.54
705.56	1082.97
705.90	1095.60
706.23	1095.14
706.57	1094.90
706.91	1088.35
707.24	1074.07
707.58	1078.28
707.91	1085.77
708.25	1088.58
708.58	1098.65
708.92	1102.39
709.26	1099.82
709.59	1099.58
709.93	1095.37
710.26	1088.82
710.60	1088.12
710.93	1083.90
711.27	1070.80
711.60	1072.67
711.94	1083.43
712.27	1081.33
712.61	1078.75
712.94	1094.90
713.28	1097.01
713.61	1081.80
713.95	1083.90
714.28	1089.52
714.62	1081.09
714.95	1076.41
715.29	1077.35
715.62	1082.03
715.96	1079.92
716.29	1084.60
716.63	1087.65
716.96	1087.88
717.29	1084.37
717.63	1086.24
717.96	1084.37
718.30	1074.77
718.63	1075.71
718.97	1080.63
719.30	1081.09
719.63	1084.14
719.97	1089.05
720.30	1097.71
720.64	1091.86
720.97	1086.24
721.30	1082.97
721.64	1088.12
721.97	1081.33
722.31	1078.05
722.64	1075.94
722.97	1081.80
723.31	1077.11
723.64	1078.28
723.97	1091.16
724.31	1106.37
724.64	1107.31
724.98	1114.80
725.31	1115.97
725.64	1105.90
725.98	1092.80
726.31	1087.41
726.64	1081.33
726.97	1077.82
727.31	1078.28
727.64	1081.33
727.97	1082.73
728.31	1083.67
728.64	1088.35
728.97	1090.92
729.31	1086.24
729.64	1087.18
729.97	1085.77
730.30	1077.35
730.64	1075.01
730.97	1074.07
731.30	1070.56
731.63	1071.73
731.97	1079.92
732.30	1076.88
732.63	1078.52
732.96	1081.09
733.30	1080.39
733.63	1080.63
733.96	1080.63
734.29	1078.05
734.63	1071.73
734.96	1077.11
735.29	1074.07
735.62	1074.54
735.95	1086.48
736.29	1093.97
736.62	1082.97
736.95	1092.33
737.28	1099.58
737.61	1100.05
737.94	1099.35
738.28	1113.16
738.61	1106.14
738.94	1105.44
739.27	1090.92
739.60	1085.31
739.93	1071.03
740.27	1071.97
740.60	1067.75
740.93	1071.97
741.26	1077.58
741.59	1072.67
741.92	1070.33
742.25	1066.58
742.58	1078.75
742.91	1066.58
743.25	1081.09
743.58	1094.20
743.91	1100.52
744.24	1094.90
744.57	1103.33
744.90	1103.33
745.23	1090.92
745.56	1084.14
745.89	1082.03
746.22	1080.63
746.55	1079.46
746.88	1080.86
747.21	1093.50
747.54	1088.82
747.87	1090.92
748.20	1094.43
748.53	1096.31
748.87	1081.09
749.20	1084.84
749.53	1087.18
749.86	1077.35
750.19	1071.97
750.52	1086.24
750.85	1080.86
751.18	1077.82
751.51	1092.33
751.84	1097.95
752.16	1088.58
752.49	1084.60
752.82	1087.88
753.15	1084.14
753.48	1084.37
753.81	1083.20
754.14	1087.65
754.47	1085.31
754.80	1080.86
755.13	1072.90
755.46	1070.33
755.79	1065.88
756.12	1074.31
756.45	1069.86
756.78	1078.05
757.11	1078.99
757.43	1083.90
757.76	1073.14
758.09	1080.39
758.42	1077.82
758.75	1076.65
759.08	1078.05
759.41	1079.22
759.74	1075.94
760.07	1064.94
760.39	1068.22
760.72	1068.22
761.05	1073.37
761.38	1076.18
761.71	1084.37
762.04	1087.18
762.36	1096.31
762.69	1101.22
763.02	1093.03
763.35	1098.65
763.68	1098.41
764.01	1093.50
764.33	1082.26
764.66	1086.71
764.99	1077.58
765.32	1076.65
765.65	1076.18
765.97	1081.56
766.30	1092.56
