SpectraSuite Data File
++++++++++++++++++++++++++++++++++++
Date: Mon Aug 26 10:26:00 PDT 2019
User: corrico
Dark Spectrum Present: No
Reference Spectrum Present: No
Number of Sampled Component Spectra: 1
Spectrometers: USB2+H06089
Integration Time (usec): 10000 (USB2+H06089)
Spectra Averaged: 2 (USB2+H06089)
Boxcar Smoothing: 2 (USB2+H06089)
Correct for Electrical Dark: No (USB2+H06089)
Strobe/Lamp Enabled: No (USB2+H06089)
Correct for Detector Non-linearity: No (USB2+H06089)
Correct for Stray Light: No (USB2+H06089)
Number of Pixels in Processed Spectrum: 2048
>>>>>Begin Processed Spectral Data<<<<<
339.70	1016.96
340.07	1016.96
340.45	989.58
340.82	963.83
341.19	940.43
341.57	910.23
341.94	899.94
342.31	886.59
342.69	893.15
343.06	883.32
343.43	891.28
343.81	895.02
344.18	904.85
344.55	908.60
344.93	921.23
345.30	919.60
345.67	927.79
346.04	927.32
346.42	926.38
346.79	931.07
347.16	951.43
347.54	954.70
347.91	968.28
348.28	984.66
348.65	1001.98
349.03	998.71
349.40	1003.15
349.77	1013.92
350.14	1016.03
350.52	1024.22
350.89	1042.01
351.26	1051.13
351.63	1058.39
352.01	1069.39
352.38	1063.31
352.75	1060.73
353.12	1063.07
353.50	1058.16
353.87	1049.73
354.24	1053.48
354.61	1057.92
354.98	1066.35
355.36	1064.94
355.73	1079.46
356.10	1079.92
356.47	1069.16
356.84	1071.50
357.22	1085.31
357.59	1082.50
357.96	1091.39
358.33	1104.50
358.70	1088.58
359.08	1089.29
359.45	1087.88
359.82	1083.43
360.19	1078.05
360.56	1082.26
360.94	1076.88
361.31	1070.56
361.68	1065.41
362.05	1063.54
362.42	1068.69
362.79	1068.69
363.16	1064.94
363.54	1064.01
363.91	1071.73
364.28	1073.14
364.65	1063.54
365.02	1080.63
365.39	1076.41
365.76	1064.71
366.14	1057.92
366.51	1068.45
366.88	1049.26
367.25	1065.41
367.62	1073.60
367.99	1069.62
368.36	1059.09
368.73	1063.07
369.10	1053.71
369.48	1049.50
369.85	1065.18
370.22	1069.16
370.59	1064.01
370.96	1069.16
371.33	1084.84
371.70	1082.73
372.07	1081.56
372.44	1084.14
372.81	1089.99
373.18	1084.14
373.55	1083.90
373.93	1083.90
374.30	1091.86
374.67	1071.50
375.04	1060.73
375.41	1049.50
375.78	1050.90
376.15	1044.11
376.52	1058.62
376.89	1060.26
377.26	1055.35
377.63	1055.58
378.00	1057.22
378.37	1058.62
378.74	1060.50
379.11	1074.77
379.48	1074.77
379.85	1081.56
380.22	1075.01
380.59	1083.20
380.96	1078.52
381.33	1085.07
381.70	1078.52
382.07	1076.88
382.44	1071.50
382.81	1068.69
383.18	1061.67
383.55	1070.56
383.92	1069.86
384.29	1073.14
384.66	1079.46
385.03	1073.37
385.40	1063.31
385.77	1075.48
386.14	1072.20
386.51	1064.24
386.88	1066.58
387.25	1078.99
387.62	1076.65
387.99	1067.52
388.36	1078.75
388.73	1087.88
389.10	1072.90
389.46	1071.73
389.83	1082.03
390.20	1076.88
390.57	1069.39
390.94	1074.07
391.31	1068.69
391.68	1068.22
392.05	1062.14
392.42	1057.45
392.79	1062.37
393.16	1062.37
393.53	1055.58
393.89	1061.43
394.26	1066.58
394.63	1067.52
395.00	1066.82
395.37	1067.75
395.74	1071.50
396.11	1070.56
396.48	1061.67
396.84	1066.11
397.21	1066.58
397.58	1066.11
397.95	1067.99
398.32	1080.63
398.69	1081.80
399.06	1092.56
399.42	1092.09
399.79	1089.99
400.16	1084.84
400.53	1082.97
400.90	1081.80
401.27	1075.71
401.64	1075.94
402.00	1068.69
402.37	1057.22
402.74	1059.09
403.11	1065.18
403.48	1066.58
403.84	1073.37
404.21	1083.90
404.58	1078.52
404.95	1078.05
405.32	1081.80
405.68	1076.18
406.05	1069.39
406.42	1061.43
406.79	1057.69
407.16	1055.58
407.52	1049.03
407.89	1054.88
408.26	1065.18
408.63	1062.84
408.99	1058.86
409.36	1074.07
409.73	1077.58
410.10	1072.43
410.47	1076.41
410.83	1075.71
411.20	1078.52
411.57	1074.07
411.94	1068.45
412.30	1075.94
412.67	1082.26
413.04	1073.60
413.40	1078.75
413.77	1078.52
414.14	1071.50
414.51	1064.48
414.87	1070.56
415.24	1059.33
415.61	1066.58
415.97	1072.67
416.34	1069.86
416.71	1064.48
417.08	1071.26
417.44	1069.39
417.81	1067.99
418.18	1082.50
418.54	1086.24
418.91	1085.54
419.28	1081.80
419.64	1082.03
420.01	1083.43
420.38	1081.09
420.74	1082.73
421.11	1083.67
421.48	1082.97
421.84	1070.80
422.21	1067.52
422.58	1066.35
422.94	1067.52
423.31	1070.56
423.68	1073.84
424.04	1072.90
424.41	1076.65
424.77	1076.88
425.14	1075.24
425.51	1069.86
425.87	1067.05
426.24	1060.73
426.61	1065.18
426.97	1056.05
427.34	1064.71
427.70	1071.50
428.07	1077.35
428.44	1072.43
428.80	1084.37
429.17	1076.88
429.53	1070.33
429.90	1070.56
430.27	1067.75
430.63	1063.31
431.00	1062.60
431.36	1073.37
431.73	1071.97
432.09	1072.20
432.46	1067.52
432.83	1070.56
433.19	1070.56
433.56	1068.22
433.92	1071.50
434.29	1075.01
434.65	1077.11
435.02	1069.86
435.38	1073.84
435.75	1075.71
436.11	1082.03
436.48	1096.07
436.84	1093.73
437.21	1090.69
437.57	1104.03
437.94	1098.65
438.30	1078.52
438.67	1085.77
439.03	1090.69
439.40	1076.65
439.76	1080.16
440.13	1091.63
440.49	1086.24
440.86	1090.22
441.22	1094.43
441.59	1083.43
441.95	1075.71
442.32	1079.22
442.68	1068.22
443.05	1064.48
443.41	1068.92
443.78	1071.50
444.14	1068.92
444.51	1062.60
444.87	1064.71
445.24	1059.79
445.60	1044.82
445.96	1045.05
446.33	1056.05
446.69	1053.48
447.06	1059.09
447.42	1076.41
447.79	1077.58
448.15	1082.73
448.51	1084.84
448.88	1082.03
449.24	1082.97
449.61	1093.26
449.97	1086.94
450.33	1079.22
450.70	1089.52
451.06	1087.18
451.43	1072.43
451.79	1067.28
452.15	1069.16
452.52	1064.01
452.88	1055.35
453.24	1052.07
453.61	1065.88
453.97	1068.22
454.34	1071.03
454.70	1076.41
455.06	1085.54
455.43	1078.05
455.79	1076.88
456.15	1074.54
456.52	1078.99
456.88	1077.82
457.24	1073.14
457.61	1081.80
457.97	1074.31
458.33	1069.39
458.70	1068.45
459.06	1060.50
459.42	1048.79
459.79	1055.11
460.15	1055.58
460.51	1063.77
460.88	1072.90
461.24	1082.73
461.60	1076.88
461.96	1089.05
462.33	1084.60
462.69	1090.69
463.05	1093.50
463.42	1093.73
463.78	1086.71
464.14	1078.52
464.50	1068.92
464.87	1057.22
465.23	1057.92
465.59	1056.28
465.95	1066.35
466.32	1088.35
466.68	1090.22
467.04	1099.82
467.40	1093.97
467.77	1084.37
468.13	1065.88
468.49	1067.28
468.85	1063.77
469.22	1074.77
469.58	1078.75
469.94	1074.31
470.30	1073.84
470.66	1066.82
471.03	1060.50
471.39	1060.50
471.75	1073.37
472.11	1085.77
472.47	1094.20
472.84	1093.26
473.20	1100.99
473.56	1099.35
473.92	1088.12
474.28	1088.12
474.65	1095.84
475.01	1092.56
475.37	1083.90
475.73	1086.94
476.09	1076.18
476.45	1070.09
476.81	1068.22
477.18	1065.65
477.54	1061.20
477.90	1066.11
478.26	1059.33
478.62	1051.60
478.98	1057.22
479.34	1058.39
479.71	1059.09
480.07	1067.05
480.43	1075.71
480.79	1075.94
481.15	1079.46
481.51	1078.99
481.87	1071.97
482.23	1072.90
482.59	1071.73
482.96	1070.09
483.32	1067.99
483.68	1076.41
484.04	1080.16
484.40	1080.39
484.76	1079.46
485.12	1096.78
485.48	1104.73
485.84	1096.78
486.20	1098.65
486.56	1104.26
486.92	1091.63
487.28	1081.56
487.64	1083.43
488.00	1091.39
488.37	1089.52
488.73	1085.07
489.09	1085.77
489.45	1087.41
489.81	1080.86
490.17	1086.48
490.53	1084.37
490.89	1082.26
491.25	1079.69
491.61	1081.33
491.97	1073.14
492.33	1076.65
492.69	1081.56
493.05	1089.52
493.41	1088.82
493.77	1086.48
494.13	1088.12
494.49	1081.56
494.85	1072.90
495.21	1072.67
495.57	1072.67
495.93	1084.60
496.29	1097.48
496.64	1106.61
497.00	1111.29
497.36	1110.35
497.72	1100.75
498.08	1097.24
498.44	1086.71
498.80	1081.56
499.16	1086.71
499.52	1085.77
499.88	1074.07
500.24	1070.09
500.60	1066.35
500.96	1067.75
501.32	1066.82
501.68	1072.67
502.03	1085.31
502.39	1083.43
502.75	1082.03
503.11	1084.37
503.47	1075.94
503.83	1071.03
504.19	1078.05
504.55	1075.48
504.91	1072.67
505.26	1091.63
505.62	1091.39
505.98	1087.41
506.34	1083.67
506.70	1085.07
507.06	1081.09
507.42	1080.86
507.78	1087.88
508.13	1090.69
508.49	1087.18
508.85	1075.71
509.21	1080.16
509.57	1075.01
509.93	1071.26
510.28	1079.92
510.64	1089.05
511.00	1085.77
511.36	1086.94
511.72	1092.56
512.07	1084.14
512.43	1091.63
512.79	1091.86
513.15	1081.80
513.51	1087.88
513.86	1091.86
514.22	1079.69
514.58	1077.11
514.94	1092.09
515.30	1085.31
515.65	1073.60
516.01	1073.84
516.37	1079.46
516.73	1078.05
517.08	1079.46
517.44	1084.37
517.80	1079.92
518.16	1071.73
518.51	1072.67
518.87	1075.01
519.23	1083.90
519.59	1100.99
519.94	1102.39
520.30	1086.94
520.66	1086.48
521.01	1086.71
521.37	1078.05
521.73	1087.88
522.09	1095.37
522.44	1100.29
522.80	1096.78
523.16	1103.09
523.51	1098.18
523.87	1111.75
524.23	1109.41
524.58	1108.95
524.94	1102.63
525.30	1106.37
525.65	1100.29
526.01	1093.26
526.37	1087.88
526.72	1078.05
527.08	1074.31
527.44	1072.90
527.79	1079.22
528.15	1095.37
528.51	1107.31
528.86	1104.73
529.22	1102.39
529.58	1097.01
529.93	1082.97
530.29	1083.67
530.65	1085.31
531.00	1088.82
531.36	1090.92
531.71	1092.80
532.07	1091.86
532.43	1095.60
532.78	1089.99
533.14	1092.09
533.49	1094.20
533.85	1102.63
534.21	1098.18
534.56	1099.12
534.92	1099.58
535.27	1094.90
535.63	1080.39
535.98	1085.31
536.34	1082.50
536.69	1078.05
537.05	1082.73
537.41	1088.58
537.76	1094.20
538.12	1095.60
538.47	1099.12
538.83	1098.18
539.18	1094.67
539.54	1077.82
539.89	1083.20
540.25	1081.33
540.60	1082.26
540.96	1078.99
541.31	1091.39
541.67	1085.54
542.02	1076.41
542.38	1073.37
542.73	1076.65
543.09	1069.62
543.44	1068.22
543.80	1075.24
544.15	1076.88
544.51	1082.50
544.86	1084.14
545.22	1082.73
545.57	1090.69
545.93	1089.05
546.28	1075.01
546.64	1071.97
546.99	1073.60
547.35	1070.80
547.70	1066.82
548.05	1070.33
548.41	1068.92
548.76	1068.69
549.12	1074.07
549.47	1082.97
549.83	1086.01
550.18	1097.01
550.53	1103.80
550.89	1093.73
551.24	1084.37
551.60	1080.63
551.95	1071.97
552.30	1068.69
552.66	1075.94
553.01	1079.22
553.37	1087.18
553.72	1085.77
554.07	1086.71
554.43	1072.90
554.78	1080.86
555.13	1074.54
555.49	1078.99
555.84	1082.26
556.19	1089.52
556.55	1082.26
556.90	1085.54
557.26	1081.09
557.61	1083.20
557.96	1084.37
558.32	1086.94
558.67	1082.26
559.02	1085.31
559.37	1067.75
559.73	1069.86
560.08	1066.58
560.43	1079.69
560.79	1085.31
561.14	1091.86
561.49	1092.09
561.85	1088.82
562.20	1087.41
562.55	1078.75
562.90	1078.99
563.26	1076.65
563.61	1081.09
563.96	1071.26
564.32	1067.75
564.67	1062.14
565.02	1055.11
565.37	1064.94
565.73	1065.41
566.08	1078.99
566.43	1089.75
566.78	1101.92
567.14	1095.37
567.49	1100.29
567.84	1088.82
568.19	1087.41
568.54	1085.07
568.90	1086.01
569.25	1078.75
569.60	1083.90
569.95	1084.14
570.31	1082.50
570.66	1090.92
571.01	1089.75
571.36	1092.33
571.71	1094.20
572.06	1095.14
572.42	1086.48
572.77	1089.29
573.12	1085.54
573.47	1079.69
573.82	1075.48
574.18	1079.92
574.53	1082.73
574.88	1089.29
575.23	1093.26
575.58	1096.31
575.93	1091.86
576.28	1096.78
576.64	1093.97
576.99	1097.01
577.34	1090.69
577.69	1096.54
578.04	1100.05
578.39	1093.50
578.74	1092.80
579.09	1096.54
579.44	1086.94
579.80	1081.80
580.15	1084.60
580.50	1089.52
580.85	1095.84
581.20	1093.97
581.55	1095.60
581.90	1104.97
582.25	1100.75
582.60	1096.07
582.95	1091.39
583.30	1089.29
583.65	1082.26
584.00	1079.92
584.35	1076.41
584.71	1087.18
585.06	1088.58
585.41	1083.43
585.76	1086.24
586.11	1094.20
586.46	1090.92
586.81	1077.82
587.16	1079.92
587.51	1077.58
587.86	1072.20
588.21	1079.22
588.56	1090.46
588.91	1097.48
589.26	1101.22
589.61	1096.07
589.96	1089.29
590.31	1078.75
590.66	1077.35
591.01	1061.90
591.36	1073.14
591.71	1074.31
592.06	1081.56
592.41	1071.50
592.76	1093.50
593.10	1081.09
593.45	1085.77
593.80	1089.52
594.15	1092.56
594.50	1077.35
594.85	1082.03
595.20	1069.86
595.55	1060.03
595.90	1058.86
596.25	1061.67
596.60	1061.90
596.95	1062.37
597.30	1068.22
597.64	1127.44
597.99	1130.24
598.34	1133.29
598.69	1143.59
599.04	1143.82
599.39	1083.90
599.74	1086.71
600.09	1086.48
600.44	1085.31
600.78	1082.26
601.13	1080.16
601.48	1071.03
601.83	1068.22
602.18	1058.62
602.53	1064.71
602.88	1074.31
603.22	1077.82
603.57	1082.73
603.92	1089.05
604.27	1090.22
604.62	1089.05
604.97	1093.03
605.31	1095.14
605.66	1093.73
606.01	1096.54
606.36	1091.16
606.71	1086.48
607.05	1070.09
607.40	1075.24
607.75	1076.65
608.10	1085.31
608.44	1086.48
608.79	1104.26
609.14	1101.22
609.49	1102.16
609.84	1100.52
610.18	1114.10
610.53	1117.14
610.88	1110.58
611.23	1108.48
611.57	1096.31
611.92	1081.09
612.27	1071.97
612.62	1078.75
612.96	1077.82
613.31	1082.50
613.66	1078.05
614.00	1084.60
614.35	1087.18
614.70	1074.77
615.05	1083.90
615.39	1091.86
615.74	1087.18
616.09	1078.52
616.43	1082.50
616.78	1087.18
617.13	1079.22
617.47	1071.50
617.82	1075.24
618.17	1075.71
618.51	1063.54
618.86	1071.03
619.21	1073.14
619.55	1080.39
619.90	1087.88
620.25	1096.54
620.59	1097.01
620.94	1096.78
621.29	1079.69
621.63	1071.97
621.98	1064.01
622.32	1061.90
622.67	1068.92
623.02	1073.84
623.36	1078.28
623.71	1084.37
624.05	1087.18
624.40	1084.60
624.75	1093.73
625.09	1100.75
625.44	1090.92
625.78	1086.71
626.13	1085.07
626.48	1092.56
626.82	1081.56
627.17	1085.77
627.51	1094.67
627.86	1092.56
628.20	1086.71
628.55	1083.20
628.89	1084.14
629.24	1078.75
629.58	1092.56
629.93	1089.52
630.28	1095.37
630.62	1089.75
630.97	1085.77
631.31	1075.94
631.66	1077.82
632.00	1082.26
632.35	1082.03
632.69	1079.22
633.04	1073.14
633.38	1071.97
633.73	1056.28
634.07	1064.71
634.42	1066.82
634.76	1064.24
635.11	1058.62
635.45	1070.80
635.79	1065.41
636.14	1062.84
636.48	1068.22
636.83	1074.77
637.17	1074.31
637.52	1079.22
637.86	1081.80
638.21	1072.67
638.55	1069.39
638.89	1066.82
639.24	1065.41
639.58	1057.92
639.93	1070.56
640.27	1067.28
640.61	1072.43
640.96	1070.80
641.30	1082.03
641.65	1081.33
641.99	1079.22
642.33	1068.69
642.68	1070.56
643.02	1066.58
643.37	1056.75
643.71	1063.77
644.05	1070.56
644.40	1070.33
644.74	1079.69
645.08	1084.84
645.43	1089.05
645.77	1089.52
646.11	1088.12
646.46	1084.37
646.80	1082.97
647.14	1082.26
647.49	1085.07
647.83	1085.07
648.17	1083.43
648.52	1088.58
648.86	1076.65
649.20	1079.92
649.55	1088.58
649.89	1085.77
650.23	1096.07
650.57	1112.46
650.92	1104.73
651.26	1096.31
651.60	1101.69
651.95	1085.77
652.29	1078.99
652.63	1084.14
652.97	1086.94
653.32	1088.58
653.66	1091.63
654.00	1086.48
654.34	1087.88
654.69	1085.77
655.03	1083.43
655.37	1087.65
655.71	1093.03
656.05	1088.58
656.40	1087.65
656.74	1086.94
657.08	1080.39
657.42	1070.56
657.76	1070.56
658.11	1069.86
658.45	1077.11
658.79	1086.71
659.13	1094.67
659.47	1091.39
659.82	1102.63
660.16	1095.60
660.50	1099.58
660.84	1097.48
661.18	1098.41
661.52	1090.46
661.87	1089.05
662.21	1081.33
662.55	1088.82
662.89	1091.63
663.23	1084.84
663.57	1082.50
663.91	1071.97
664.25	1065.18
664.60	1069.16
664.94	1079.22
665.28	1077.82
665.62	1086.71
665.96	1094.43
666.30	1088.35
666.64	1084.14
666.98	1080.86
667.32	1074.54
667.66	1063.77
668.01	1060.96
668.35	1057.45
668.69	1068.69
669.03	1076.18
669.37	1086.94
669.71	1095.60
670.05	1091.16
670.39	1084.37
670.73	1072.67
671.07	1063.07
671.41	1056.99
671.75	1060.73
672.09	1068.92
672.43	1086.24
672.77	1081.33
673.11	1091.39
673.45	1095.84
673.79	1089.99
674.13	1073.60
674.47	1080.63
674.81	1074.54
675.15	1075.24
675.49	1069.16
675.83	1082.03
676.17	1077.35
676.51	1075.01
676.85	1076.65
677.19	1082.03
677.53	1088.35
677.87	1090.46
678.21	1089.52
678.55	1090.92
678.89	1098.18
679.23	1096.78
679.57	1100.29
679.90	1106.61
680.24	1099.35
680.58	1089.75
680.92	1090.46
681.26	1089.99
681.60	1083.90
681.94	1086.94
682.28	1085.77
682.62	1078.28
682.96	1088.58
683.29	1090.92
683.63	1082.73
683.97	1086.24
684.31	1088.58
684.65	1076.88
684.99	1081.56
685.33	1093.97
685.67	1089.75
686.00	1080.39
686.34	1089.05
686.68	1085.31
687.02	1084.60
687.36	1093.03
687.70	1093.97
688.03	1085.77
688.37	1081.09
688.71	1082.26
689.05	1083.20
689.39	1091.86
689.72	1105.67
690.06	1111.52
690.40	1102.86
690.74	1091.86
691.08	1082.26
691.41	1067.28
691.75	1069.39
692.09	1076.41
692.43	1082.03
692.76	1090.46
693.10	1091.39
693.44	1082.97
693.78	1074.54
694.11	1082.26
694.45	1076.41
694.79	1086.01
695.13	1092.33
695.46	1092.56
695.80	1078.75
696.14	1081.80
696.48	1078.52
696.81	1070.09
697.15	1083.20
697.49	1089.75
697.82	1085.77
698.16	1082.26
698.50	1080.86
698.83	1073.84
699.17	1067.99
699.51	1079.22
699.84	1086.71
700.18	1079.69
700.52	1074.07
700.85	1067.99
701.19	1052.30
701.53	1032.41
701.86	1046.69
702.20	1043.88
702.54	1062.60
702.87	1075.71
703.21	1087.41
703.55	1084.37
703.88	1096.54
704.22	1084.14
704.55	1078.05
704.89	1079.46
705.23	1087.65
705.56	1088.12
705.90	1100.05
706.23	1098.41
706.57	1098.65
706.91	1088.35
707.24	1080.39
707.58	1075.48
707.91	1068.45
708.25	1069.16
708.58	1073.84
708.92	1074.77
709.26	1070.33
709.59	1087.65
709.93	1085.31
710.26	1086.71
710.60	1079.92
710.93	1077.82
711.27	1076.41
711.60	1082.50
711.94	1082.97
712.27	1087.18
712.61	1099.12
712.94	1097.71
713.28	1087.65
713.61	1087.88
713.95	1085.77
714.28	1068.45
714.62	1063.07
714.95	1070.56
715.29	1065.18
715.62	1065.18
715.96	1078.99
716.29	1080.63
716.63	1071.26
716.96	1069.86
717.29	1073.14
717.63	1073.84
717.96	1075.71
718.30	1073.60
718.63	1077.82
718.97	1084.37
719.30	1089.52
719.63	1090.22
719.97	1096.07
720.30	1103.09
720.64	1097.01
720.97	1089.29
721.30	1091.16
721.64	1087.18
721.97	1078.52
722.31	1077.11
722.64	1071.97
722.97	1060.50
723.31	1074.07
723.64	1079.46
723.97	1088.12
724.31	1100.05
724.64	1098.88
724.98	1092.09
725.31	1086.71
725.64	1086.01
725.98	1078.99
726.31	1084.84
726.64	1086.24
726.97	1095.14
727.31	1087.41
727.64	1083.20
727.97	1081.56
728.31	1079.22
728.64	1074.31
728.97	1081.09
729.31	1084.14
729.64	1085.77
729.97	1084.37
730.30	1082.26
730.64	1073.14
730.97	1067.05
731.30	1064.48
731.63	1066.58
731.97	1063.31
732.30	1070.33
732.63	1079.46
732.96	1078.52
733.30	1076.41
733.63	1081.80
733.96	1084.37
734.29	1084.60
734.63	1094.67
734.96	1091.39
735.29	1093.73
735.62	1097.48
735.95	1091.16
736.29	1084.37
736.62	1084.84
736.95	1078.28
737.28	1067.28
737.61	1066.82
737.94	1064.24
738.28	1069.86
738.61	1068.92
738.94	1062.14
739.27	1062.37
739.60	1064.94
739.93	1072.43
740.27	1071.26
740.60	1084.84
740.93	1087.65
741.26	1094.67
741.59	1099.35
741.92	1102.16
742.25	1092.80
742.58	1090.69
742.91	1082.26
743.25	1073.14
743.58	1064.71
743.91	1073.37
744.24	1071.97
744.57	1079.22
744.90	1081.33
745.23	1091.39
745.56	1088.12
745.89	1091.16
746.22	1092.56
746.55	1087.65
746.88	1089.52
747.21	1095.60
747.54	1098.41
747.87	1093.97
748.20	1088.12
748.53	1080.86
748.87	1080.16
749.20	1077.11
749.53	1073.60
749.86	1078.75
750.19	1084.14
750.52	1077.82
750.85	1076.18
751.18	1086.94
751.51	1090.69
751.84	1086.71
752.16	1087.41
752.49	1082.50
752.82	1071.97
753.15	1065.88
753.48	1066.82
753.81	1072.43
754.14	1075.48
754.47	1075.94
754.80	1076.65
755.13	1072.90
755.46	1060.03
755.79	1059.09
756.12	1070.33
756.45	1072.20
756.78	1076.41
757.11	1088.35
757.43	1089.99
757.76	1077.58
758.09	1071.50
758.42	1075.24
758.75	1078.99
759.08	1079.46
759.41	1077.58
759.74	1091.86
760.07	1095.60
760.39	1097.48
760.72	1100.29
761.05	1101.92
761.38	1093.03
761.71	1086.01
762.04	1076.18
762.36	1073.37
762.69	1071.26
763.02	1063.07
763.35	1069.62
763.68	1066.82
764.01	1064.94
764.33	1068.45
764.66	1075.71
764.99	1059.09
765.32	1063.54
765.65	1062.84
765.97	1069.16
766.30	1076.88
