SpectraSuite Data File
++++++++++++++++++++++++++++++++++++
Date: Mon Aug 26 10:26:00 PDT 2019
User: corrico
Dark Spectrum Present: No
Reference Spectrum Present: No
Number of Sampled Component Spectra: 1
Spectrometers: USB2+H06089
Integration Time (usec): 10000 (USB2+H06089)
Spectra Averaged: 2 (USB2+H06089)
Boxcar Smoothing: 2 (USB2+H06089)
Correct for Electrical Dark: No (USB2+H06089)
Strobe/Lamp Enabled: No (USB2+H06089)
Correct for Detector Non-linearity: No (USB2+H06089)
Correct for Stray Light: No (USB2+H06089)
Number of Pixels in Processed Spectrum: 2048
>>>>>Begin Processed Spectral Data<<<<<
339.70	994.73
340.07	994.73
340.45	977.41
340.82	965.71
341.19	961.96
341.57	946.98
341.94	948.39
342.31	943.47
342.69	934.81
343.06	917.02
343.43	921.23
343.81	904.85
344.18	910.70
344.55	926.85
344.93	932.24
345.30	930.36
345.67	928.49
346.04	935.51
346.42	929.89
346.79	940.66
347.16	951.43
347.54	971.79
347.91	974.60
348.28	983.02
348.65	1002.45
349.03	1011.11
349.40	1016.03
349.77	1022.58
350.14	1032.64
350.52	1030.30
350.89	1031.94
351.26	1044.82
351.63	1042.94
352.01	1056.05
352.38	1068.45
352.75	1072.43
353.12	1063.31
353.50	1075.48
353.87	1063.31
354.24	1053.71
354.61	1062.37
354.98	1073.60
355.36	1073.84
355.73	1082.97
356.10	1086.94
356.47	1083.67
356.84	1088.35
357.22	1103.80
357.59	1101.46
357.96	1098.88
358.33	1094.90
358.70	1094.90
359.08	1079.92
359.45	1083.90
359.82	1086.24
360.19	1095.37
360.56	1098.88
360.94	1104.50
361.31	1098.41
361.68	1095.14
362.05	1086.71
362.42	1071.73
362.79	1069.62
363.16	1058.86
363.54	1056.05
363.91	1056.05
364.28	1053.48
364.65	1047.16
365.02	1055.11
365.39	1054.88
365.76	1053.24
366.14	1059.09
366.51	1057.45
366.88	1060.50
367.25	1059.09
367.62	1055.11
367.99	1047.86
368.36	1039.20
368.73	1036.86
369.10	1036.39
369.48	1044.11
369.85	1058.86
370.22	1064.01
370.59	1068.69
370.96	1076.65
371.33	1080.63
371.70	1068.69
372.07	1080.16
372.44	1087.41
372.81	1083.90
373.18	1080.63
373.55	1089.99
373.93	1084.60
374.30	1077.11
374.67	1080.86
375.04	1081.33
375.41	1078.05
375.78	1076.65
376.15	1077.58
376.52	1067.28
376.89	1066.58
377.26	1065.65
377.63	1073.60
378.00	1081.80
378.37	1091.39
378.74	1088.58
379.11	1089.75
379.48	1082.73
379.85	1079.22
380.22	1071.73
380.59	1071.26
380.96	1067.28
381.33	1069.16
381.70	1062.60
382.07	1070.09
382.44	1069.16
382.81	1070.56
383.18	1064.94
383.55	1056.99
383.92	1056.52
384.29	1064.01
384.66	1062.37
385.03	1070.33
385.40	1070.80
385.77	1070.09
386.14	1070.09
386.51	1075.71
386.88	1080.86
387.25	1087.88
387.62	1089.29
387.99	1076.88
388.36	1067.75
388.73	1061.20
389.10	1060.50
389.46	1056.05
389.83	1057.45
390.20	1062.84
390.57	1058.86
390.94	1054.18
391.31	1056.75
391.68	1063.31
392.05	1061.20
392.42	1063.31
392.79	1072.90
393.16	1075.48
393.53	1069.16
393.89	1077.11
394.26	1078.28
394.63	1074.31
395.00	1074.31
395.37	1079.69
395.74	1078.75
396.11	1082.26
396.48	1082.50
396.84	1078.52
397.21	1077.58
397.58	1080.16
397.95	1069.16
398.32	1064.24
398.69	1068.69
399.06	1065.88
399.42	1060.50
399.79	1066.58
400.16	1072.67
400.53	1069.86
400.90	1071.97
401.27	1069.39
401.64	1066.35
402.00	1067.05
402.37	1065.18
402.74	1066.58
403.11	1079.22
403.48	1091.63
403.84	1084.84
404.21	1085.07
404.58	1086.24
404.95	1076.65
405.32	1069.39
405.68	1079.92
406.05	1085.54
406.42	1080.63
406.79	1078.52
407.16	1078.99
407.52	1074.31
407.89	1073.84
408.26	1078.99
408.63	1089.29
408.99	1088.82
409.36	1079.22
409.73	1071.73
410.10	1065.18
410.47	1056.75
410.83	1056.52
411.20	1062.60
411.57	1062.60
411.94	1076.18
412.30	1075.01
412.67	1072.90
413.04	1077.35
413.40	1078.52
413.77	1078.28
414.14	1080.86
414.51	1086.71
414.87	1087.88
415.24	1090.22
415.61	1073.14
415.97	1060.96
416.34	1063.54
416.71	1062.14
417.08	1069.62
417.44	1081.56
417.81	1092.09
418.18	1082.50
418.54	1087.18
418.91	1080.39
419.28	1078.28
419.64	1082.50
420.01	1087.18
420.38	1088.12
420.74	1094.90
421.11	1095.37
421.48	1088.82
421.84	1090.46
422.21	1082.50
422.58	1068.45
422.94	1072.20
423.31	1076.41
423.68	1075.48
424.04	1084.14
424.41	1103.33
424.77	1101.92
425.14	1092.33
425.51	1086.24
425.87	1072.67
426.24	1054.41
426.61	1045.05
426.97	1065.18
427.34	1072.20
427.70	1071.50
428.07	1075.71
428.44	1084.84
428.80	1071.50
429.17	1070.56
429.53	1081.56
429.90	1078.05
430.27	1071.50
430.63	1069.39
431.00	1069.39
431.36	1056.52
431.73	1058.39
432.09	1068.69
432.46	1064.94
432.83	1063.31
433.19	1073.60
433.56	1082.73
433.92	1077.11
434.29	1084.60
434.65	1078.28
435.02	1074.31
435.38	1070.56
435.75	1070.33
436.11	1074.07
436.48	1077.82
436.84	1077.35
437.21	1072.20
437.57	1066.35
437.94	1064.24
438.30	1061.43
438.67	1063.77
439.03	1060.96
439.40	1053.48
439.76	1049.96
440.13	1051.37
440.49	1052.07
440.86	1061.90
441.22	1076.88
441.59	1084.84
441.95	1081.33
442.32	1083.43
442.68	1075.48
443.05	1077.82
443.41	1067.75
443.78	1068.45
444.14	1065.65
444.51	1062.84
444.87	1057.69
445.24	1057.92
445.60	1067.05
445.96	1063.07
446.33	1073.37
446.69	1072.20
447.06	1083.90
447.42	1080.63
447.79	1089.52
448.15	1086.94
448.51	1087.65
448.88	1086.94
449.24	1089.52
449.61	1085.31
449.97	1082.26
450.33	1082.50
450.70	1077.35
451.06	1076.88
451.43	1076.18
451.79	1069.39
452.15	1067.28
452.52	1058.16
452.88	1058.62
453.24	1060.03
453.61	1076.18
453.97	1080.39
454.34	1089.29
454.70	1086.94
455.06	1090.46
455.43	1079.22
455.79	1081.56
456.15	1081.80
456.52	1074.54
456.88	1073.84
457.24	1069.39
457.61	1063.31
457.97	1063.31
458.33	1070.80
458.70	1064.01
459.06	1074.77
459.42	1084.60
459.79	1091.86
460.15	1085.54
460.51	1096.07
460.88	1096.07
461.24	1089.29
461.60	1076.41
461.96	1081.56
462.33	1083.20
462.69	1076.88
463.05	1081.80
463.42	1081.09
463.78	1083.20
464.14	1076.88
464.50	1087.88
464.87	1096.31
465.23	1103.09
465.59	1100.05
465.95	1104.03
466.32	1108.48
466.68	1101.69
467.04	1107.78
467.40	1118.31
467.77	1111.52
468.13	1097.95
468.49	1091.86
468.85	1078.75
469.22	1068.92
469.58	1073.37
469.94	1073.14
470.30	1073.37
470.66	1075.48
471.03	1075.01
471.39	1078.28
471.75	1077.82
472.11	1074.77
472.47	1078.99
472.84	1072.90
473.20	1069.86
473.56	1079.22
473.92	1075.24
474.28	1075.24
474.65	1084.37
475.01	1078.75
475.37	1077.35
475.73	1082.26
476.09	1081.80
476.45	1079.46
476.81	1078.75
477.18	1074.77
477.54	1074.54
477.90	1079.46
478.26	1086.71
478.62	1091.86
478.98	1092.80
479.34	1084.14
479.71	1078.99
480.07	1069.62
480.43	1073.84
480.79	1070.09
481.15	1086.01
481.51	1080.39
481.87	1087.88
482.23	1080.16
482.59	1076.65
482.96	1077.35
483.32	1086.94
483.68	1079.92
484.04	1080.39
484.40	1091.63
484.76	1088.58
485.12	1075.01
485.48	1076.65
485.84	1076.88
486.20	1081.33
486.56	1076.65
486.92	1082.97
487.28	1078.99
487.64	1081.56
488.00	1073.14
488.37	1077.11
488.73	1078.75
489.09	1082.73
489.45	1088.58
489.81	1087.88
490.17	1094.20
490.53	1097.01
490.89	1111.29
491.25	1110.82
491.61	1110.35
491.97	1106.61
492.33	1103.33
492.69	1082.97
493.05	1068.22
493.41	1074.77
493.77	1064.94
494.13	1062.37
494.49	1069.16
494.85	1072.20
495.21	1056.52
495.57	1060.96
495.93	1070.56
496.29	1071.26
496.64	1069.16
497.00	1076.65
497.36	1083.20
497.72	1082.97
498.08	1089.52
498.44	1101.46
498.80	1109.41
499.16	1101.69
499.52	1093.73
499.88	1087.88
500.24	1082.03
500.60	1076.88
500.96	1075.48
501.32	1075.01
501.68	1077.35
502.03	1074.31
502.39	1070.80
502.75	1074.07
503.11	1081.33
503.47	1088.82
503.83	1087.41
504.19	1092.56
504.55	1108.01
504.91	1111.05
505.26	1103.09
505.62	1111.99
505.98	1111.75
506.34	1107.78
506.70	1100.75
507.06	1104.03
507.42	1094.43
507.78	1093.26
508.13	1086.94
508.49	1088.12
508.85	1078.52
509.21	1085.77
509.57	1083.67
509.93	1069.86
510.28	1072.90
510.64	1075.24
511.00	1071.50
511.36	1069.39
511.72	1078.05
512.07	1072.43
512.43	1083.43
512.79	1081.33
513.15	1092.80
513.51	1093.97
513.86	1089.99
514.22	1075.48
514.58	1080.39
514.94	1073.14
515.30	1074.31
515.65	1080.16
516.01	1080.86
516.37	1081.56
516.73	1086.24
517.08	1082.26
517.44	1085.54
517.80	1091.86
518.16	1090.46
518.51	1091.16
518.87	1096.78
519.23	1088.58
519.59	1080.39
519.94	1082.97
520.30	1081.09
520.66	1071.26
521.01	1074.54
521.37	1093.03
521.73	1087.18
522.09	1087.65
522.44	1101.46
522.80	1103.33
523.16	1093.26
523.51	1098.41
523.87	1097.01
524.23	1092.33
524.58	1089.29
524.94	1093.97
525.30	1086.71
525.65	1091.39
526.01	1093.03
526.37	1098.18
526.72	1089.29
527.08	1096.07
527.44	1092.80
527.79	1093.26
528.15	1095.84
528.51	1100.99
528.86	1107.78
529.22	1111.05
529.58	1113.86
529.93	1111.05
530.29	1113.16
530.65	1105.67
531.00	1095.84
531.36	1086.48
531.71	1081.33
532.07	1073.37
532.43	1079.69
532.78	1081.09
533.14	1083.43
533.49	1083.90
533.85	1090.22
534.21	1083.67
534.56	1085.31
534.92	1082.97
535.27	1090.22
535.63	1091.63
535.98	1095.84
536.34	1096.07
536.69	1099.12
537.05	1099.12
537.41	1095.37
537.76	1093.26
538.12	1094.43
538.47	1104.73
538.83	1100.29
539.18	1102.86
539.54	1106.37
539.89	1106.61
540.25	1101.22
540.60	1092.80
540.96	1093.73
541.31	1086.48
541.67	1087.88
542.02	1084.37
542.38	1098.65
542.73	1089.52
543.09	1100.05
543.44	1098.88
543.80	1092.09
544.15	1096.07
544.51	1104.50
544.86	1095.14
545.22	1094.43
545.57	1105.44
545.93	1102.39
546.28	1095.60
546.64	1097.48
546.99	1094.43
547.35	1087.41
547.70	1087.88
548.05	1091.39
548.41	1092.09
548.76	1090.22
549.12	1093.50
549.47	1086.01
549.83	1087.65
550.18	1087.88
550.53	1081.56
550.89	1087.18
551.24	1082.26
551.60	1089.05
551.95	1086.01
552.30	1091.39
552.66	1082.73
553.01	1093.26
553.37	1077.58
553.72	1076.41
554.07	1081.33
554.43	1094.67
554.78	1097.24
555.13	1105.20
555.49	1101.92
555.84	1100.75
556.19	1086.24
556.55	1072.90
556.90	1075.24
557.26	1081.80
557.61	1092.09
557.96	1090.69
558.32	1103.33
558.67	1098.88
559.02	1085.54
559.37	1073.60
559.73	1074.77
560.08	1064.01
560.43	1065.41
560.79	1077.11
561.14	1078.52
561.49	1077.82
561.85	1082.26
562.20	1083.20
562.55	1085.54
562.90	1087.18
563.26	1088.35
563.61	1087.41
563.96	1072.20
564.32	1071.03
564.67	1066.58
565.02	1065.88
565.37	1066.58
565.73	1085.07
566.08	1088.82
566.43	1086.94
566.78	1080.39
567.14	1080.16
567.49	1078.99
567.84	1074.77
568.19	1081.33
568.54	1084.14
568.90	1077.11
569.25	1072.20
569.60	1070.09
569.95	1069.16
570.31	1074.54
570.66	1080.63
571.01	1084.37
571.36	1083.43
571.71	1081.33
572.06	1081.09
572.42	1070.33
572.77	1064.71
573.12	1066.82
573.47	1067.52
573.82	1068.22
574.18	1086.24
574.53	1095.84
574.88	1098.18
575.23	1096.31
575.58	1104.26
575.93	1099.35
576.28	1088.12
576.64	1083.20
576.99	1095.60
577.34	1095.60
577.69	1090.22
578.04	1079.46
578.39	1082.73
578.74	1063.77
579.09	1046.22
579.44	1055.35
579.80	1063.31
580.15	1059.79
580.50	1075.01
580.85	1092.80
581.20	1085.77
581.55	1100.75
581.90	1107.07
582.25	1103.09
582.60	1095.84
582.95	1095.14
583.30	1093.73
583.65	1087.65
584.00	1088.35
584.35	1093.26
584.71	1097.71
585.06	1090.22
585.41	1090.92
585.76	1092.33
586.11	1085.31
586.46	1082.03
586.81	1076.18
587.16	1079.69
587.51	1071.97
587.86	1080.39
588.21	1090.69
588.56	1097.48
588.91	1097.95
589.26	1102.86
589.61	1099.35
589.96	1092.56
590.31	1097.01
590.66	1092.56
591.01	1091.86
591.36	1089.05
591.71	1089.29
592.06	1084.37
592.41	1085.77
592.76	1080.86
593.10	1084.84
593.45	1078.28
593.80	1078.75
594.15	1078.28
594.50	1082.03
594.85	1071.03
595.20	1071.26
595.55	1073.84
595.90	1074.54
596.25	1069.16
596.60	1069.16
596.95	1081.80
597.30	1074.07
597.64	1128.61
597.99	1140.07
598.34	1145.22
598.69	1132.59
599.04	1138.20
599.39	1088.82
599.74	1083.90
600.09	1084.37
600.44	1096.07
600.78	1102.16
601.13	1099.35
601.48	1093.50
601.83	1096.54
602.18	1090.46
602.53	1089.05
602.88	1094.20
603.22	1104.50
603.57	1100.52
603.92	1093.26
604.27	1087.41
604.62	1079.46
604.97	1074.07
605.31	1078.28
605.66	1084.14
606.01	1079.69
606.36	1079.22
606.71	1076.18
607.05	1078.99
607.40	1077.82
607.75	1087.88
608.10	1094.90
608.44	1094.43
608.79	1090.92
609.14	1093.97
609.49	1082.73
609.84	1076.65
610.18	1084.37
610.53	1081.80
610.88	1075.71
611.23	1078.99
611.57	1074.77
611.92	1075.48
612.27	1075.71
612.62	1077.82
612.96	1078.75
613.31	1087.18
613.66	1078.99
614.00	1082.97
614.35	1074.31
614.70	1071.03
615.05	1061.43
615.39	1064.94
615.74	1061.43
616.09	1069.39
616.43	1070.33
616.78	1075.24
617.13	1071.03
617.47	1069.86
617.82	1064.01
618.17	1063.31
618.51	1063.54
618.86	1072.67
619.21	1069.16
619.55	1074.07
619.90	1083.20
620.25	1088.58
620.59	1089.75
620.94	1087.41
621.29	1084.84
621.63	1079.22
621.98	1077.58
622.32	1070.80
622.67	1070.56
623.02	1079.69
623.36	1078.05
623.71	1074.54
624.05	1084.60
624.40	1090.22
624.75	1090.92
625.09	1086.24
625.44	1089.75
625.78	1075.94
626.13	1074.54
626.48	1070.09
626.82	1071.03
627.17	1066.11
627.51	1070.33
627.86	1071.50
628.20	1072.67
628.55	1089.75
628.89	1094.20
629.24	1092.33
629.58	1095.84
629.93	1093.26
630.28	1081.80
630.62	1077.11
630.97	1078.99
631.31	1075.48
631.66	1071.97
632.00	1076.41
632.35	1071.03
632.69	1067.05
633.04	1068.22
633.38	1080.39
633.73	1075.48
634.07	1080.86
634.42	1082.26
634.76	1084.84
635.11	1071.97
635.45	1076.65
635.79	1075.94
636.14	1076.88
636.48	1070.09
636.83	1075.71
637.17	1073.84
637.52	1067.52
637.86	1073.14
638.21	1074.31
638.55	1071.03
638.89	1083.90
639.24	1092.80
639.58	1089.99
639.93	1087.65
640.27	1091.86
640.61	1078.75
640.96	1081.09
641.30	1083.67
641.65	1092.56
641.99	1083.20
642.33	1078.75
642.68	1070.33
643.02	1067.52
643.37	1053.01
643.71	1056.75
644.05	1070.56
644.40	1077.58
644.74	1071.73
645.08	1076.65
645.43	1085.77
645.77	1077.58
646.11	1074.77
646.46	1076.88
646.80	1086.71
647.14	1085.54
647.49	1090.92
647.83	1095.14
648.17	1097.95
648.52	1088.58
648.86	1083.67
649.20	1071.50
649.55	1063.31
649.89	1060.96
650.23	1064.94
650.57	1060.03
650.92	1057.45
651.26	1062.14
651.60	1071.73
651.95	1071.50
652.29	1081.56
652.63	1087.18
652.97	1077.35
653.32	1066.35
653.66	1061.90
654.00	1058.62
654.34	1065.18
654.69	1080.86
655.03	1090.69
655.37	1094.90
655.71	1090.92
656.05	1088.82
656.40	1080.39
656.74	1072.90
657.08	1065.41
657.42	1068.92
657.76	1067.05
658.11	1079.69
658.45	1081.80
658.79	1083.20
659.13	1083.43
659.47	1084.60
659.82	1077.35
660.16	1078.52
660.50	1092.56
660.84	1086.71
661.18	1087.88
661.52	1082.03
661.87	1077.58
662.21	1064.48
662.55	1063.31
662.89	1057.69
663.23	1063.07
663.57	1057.69
663.91	1068.69
664.25	1073.14
664.60	1074.07
664.94	1079.69
665.28	1082.73
665.62	1074.54
665.96	1079.92
666.30	1081.09
666.64	1079.69
666.98	1088.12
667.32	1094.20
667.66	1081.56
668.01	1092.33
668.35	1089.29
668.69	1079.46
669.03	1076.88
669.37	1093.26
669.71	1079.69
670.05	1073.37
670.39	1080.16
670.73	1080.86
671.07	1064.94
671.41	1063.07
671.75	1064.01
672.09	1061.43
672.43	1054.41
672.77	1064.48
673.11	1067.28
673.45	1071.50
673.79	1070.33
674.13	1067.99
674.47	1069.16
674.81	1074.77
675.15	1071.50
675.49	1084.37
675.83	1080.63
676.17	1078.75
676.51	1075.71
676.85	1070.09
677.19	1064.01
677.53	1080.39
677.87	1077.58
678.21	1079.46
678.55	1090.69
678.89	1090.92
679.23	1089.52
679.57	1099.82
679.90	1101.92
680.24	1100.29
680.58	1099.35
680.92	1091.63
681.26	1089.29
681.60	1082.26
681.94	1079.69
682.28	1067.75
682.62	1071.03
682.96	1071.50
683.29	1075.24
683.63	1070.33
683.97	1085.54
684.31	1085.07
684.65	1083.90
684.99	1085.77
685.33	1082.97
685.67	1073.60
686.00	1070.56
686.34	1054.65
686.68	1052.54
687.02	1058.86
687.36	1057.69
687.70	1056.52
688.03	1060.26
688.37	1058.86
688.71	1070.56
689.05	1066.35
689.39	1077.58
689.72	1081.33
690.06	1077.58
690.40	1069.86
690.74	1078.75
691.08	1078.75
691.41	1087.41
691.75	1093.73
692.09	1094.90
692.43	1093.97
692.76	1092.33
693.10	1090.92
693.44	1088.35
693.78	1089.99
694.11	1082.03
694.45	1079.22
694.79	1071.26
695.13	1074.54
695.46	1066.58
695.80	1069.39
696.14	1074.31
696.48	1078.75
696.81	1066.82
697.15	1074.07
697.49	1080.86
697.82	1082.73
698.16	1084.37
698.50	1090.92
698.83	1088.12
699.17	1087.65
699.51	1084.14
699.84	1088.58
700.18	1089.52
700.52	1093.03
700.85	1094.90
701.19	1086.48
701.53	1082.26
701.86	1078.99
702.20	1065.88
702.54	1070.80
702.87	1086.94
703.21	1084.84
703.55	1088.12
703.88	1085.77
704.22	1080.86
704.55	1068.69
704.89	1070.56
705.23	1075.01
705.56	1091.63
705.90	1087.88
706.23	1080.63
706.57	1071.03
706.91	1071.50
707.24	1068.92
707.58	1070.09
707.91	1077.58
708.25	1092.56
708.58	1100.75
708.92	1098.18
709.26	1099.35
709.59	1110.82
709.93	1098.88
710.26	1093.03
710.60	1089.75
710.93	1095.14
711.27	1086.24
711.60	1087.18
711.94	1089.99
712.27	1093.50
712.61	1088.12
712.94	1093.73
713.28	1097.01
713.61	1087.41
713.95	1086.48
714.28	1089.75
714.62	1089.29
714.95	1088.35
715.29	1088.58
715.62	1082.26
715.96	1066.35
716.29	1057.22
716.63	1058.62
716.96	1062.14
717.29	1062.14
717.63	1073.60
717.96	1072.67
718.30	1068.45
718.63	1061.67
718.97	1071.03
719.30	1071.03
719.63	1081.09
719.97	1078.99
720.30	1084.60
720.64	1077.58
720.97	1074.54
721.30	1070.56
721.64	1070.09
721.97	1073.60
722.31	1080.39
722.64	1080.39
722.97	1082.73
723.31	1088.58
723.64	1082.03
723.97	1079.92
724.31	1084.60
724.64	1078.75
724.98	1087.41
725.31	1077.58
725.64	1078.28
725.98	1075.48
726.31	1079.69
726.64	1060.73
726.97	1073.60
727.31	1069.86
727.64	1072.43
727.97	1066.58
728.31	1075.24
728.64	1061.43
728.97	1068.22
729.31	1063.54
729.64	1063.31
729.97	1068.69
730.30	1072.67
730.64	1065.41
730.97	1073.14
731.30	1074.54
731.63	1071.97
731.97	1076.65
732.30	1074.07
732.63	1063.54
732.96	1071.73
733.30	1075.48
733.63	1086.24
733.96	1091.39
734.29	1091.63
734.63	1081.80
734.96	1062.37
735.29	1054.41
735.62	1056.75
735.95	1060.50
736.29	1068.22
736.62	1086.01
736.95	1081.33
737.28	1072.90
737.61	1075.71
737.94	1062.14
738.28	1062.60
738.61	1070.09
738.94	1077.11
739.27	1075.71
739.60	1084.60
739.93	1071.26
740.27	1072.43
740.60	1067.05
740.93	1064.01
741.26	1067.52
741.59	1078.75
741.92	1076.18
742.25	1082.03
742.58	1091.16
742.91	1085.07
743.25	1084.14
743.58	1084.60
743.91	1084.37
744.24	1079.46
744.57	1089.29
744.90	1093.50
745.23	1089.99
745.56	1083.67
745.89	1081.33
746.22	1083.43
746.55	1087.41
746.88	1096.31
747.21	1096.31
747.54	1095.37
747.87	1079.69
748.20	1065.88
748.53	1066.35
748.87	1074.54
749.20	1082.50
749.53	1089.52
749.86	1090.69
750.19	1090.46
750.52	1085.07
750.85	1071.50
751.18	1067.05
751.51	1074.31
751.84	1067.28
752.16	1079.22
752.49	1086.94
752.82	1087.65
753.15	1083.43
753.48	1076.41
753.81	1062.60
754.14	1054.65
754.47	1056.75
754.80	1067.28
755.13	1076.88
755.46	1085.07
755.79	1093.50
756.12	1097.71
756.45	1084.14
756.78	1089.99
757.11	1084.14
757.43	1096.07
757.76	1091.63
758.09	1096.54
758.42	1091.63
758.75	1093.50
759.08	1078.52
759.41	1082.50
759.74	1079.46
760.07	1068.92
760.39	1064.94
760.72	1061.20
761.05	1055.82
761.38	1061.67
761.71	1071.97
762.04	1069.16
762.36	1079.46
762.69	1067.99
763.02	1061.90
763.35	1052.30
763.68	1062.60
764.01	1062.37
764.33	1085.31
764.66	1098.41
764.99	1109.18
765.32	1112.46
765.65	1109.18
765.97	1100.05
766.30	1093.50
