SpectraSuite Data File
++++++++++++++++++++++++++++++++++++
Date: Mon Aug 26 10:26:21 PDT 2019
User: corrico
Dark Spectrum Present: No
Reference Spectrum Present: No
Number of Sampled Component Spectra: 1
Spectrometers: USB2+H06089
Integration Time (usec): 10000 (USB2+H06089)
Spectra Averaged: 20 (USB2+H06089)
Boxcar Smoothing: 2 (USB2+H06089)
Correct for Electrical Dark: No (USB2+H06089)
Strobe/Lamp Enabled: No (USB2+H06089)
Correct for Detector Non-linearity: No (USB2+H06089)
Correct for Stray Light: No (USB2+H06089)
Number of Pixels in Processed Spectrum: 2048
>>>>>Begin Processed Spectral Data<<<<<
339.70	1044.00
340.07	1044.00
340.45	1001.19
340.82	978.62
341.19	951.47
341.57	920.86
341.94	911.99
342.31	906.93
342.69	898.18
343.06	896.87
343.43	900.99
343.81	900.08
344.18	901.57
344.55	909.46
344.93	913.77
345.30	918.38
345.67	927.06
346.04	932.56
346.42	938.88
346.79	948.83
347.16	958.66
347.54	966.43
347.91	977.90
348.28	987.26
348.65	995.31
349.03	1005.05
349.40	1016.28
349.77	1026.72
350.14	1037.70
350.52	1045.89
350.89	1048.84
351.26	1054.69
351.63	1059.40
352.01	1063.07
352.38	1066.04
352.75	1070.16
353.12	1073.86
353.50	1077.68
353.87	1077.35
354.24	1080.56
354.61	1088.00
354.98	1094.25
355.36	1093.17
355.73	1096.66
356.10	1097.92
356.47	1095.96
356.84	1092.42
357.22	1093.38
357.59	1091.63
357.96	1090.50
358.33	1090.71
358.70	1089.22
359.08	1087.34
359.45	1088.79
359.82	1090.10
360.19	1088.49
360.56	1088.75
360.94	1091.09
361.31	1090.29
361.68	1089.19
362.05	1087.32
362.42	1085.94
362.79	1081.66
363.16	1082.38
363.54	1082.40
363.91	1084.86
364.28	1086.43
364.65	1089.10
365.02	1085.17
365.39	1086.06
365.76	1085.49
366.14	1082.78
366.51	1079.92
366.88	1079.83
367.25	1076.39
367.62	1074.10
367.99	1075.59
368.36	1076.88
368.73	1076.65
369.10	1081.23
369.48	1081.84
369.85	1081.09
370.22	1081.77
370.59	1085.17
370.96	1080.04
371.33	1080.23
371.70	1078.10
372.07	1076.69
372.44	1073.88
372.81	1076.32
373.18	1077.35
373.55	1079.88
373.93	1084.42
374.30	1085.26
374.67	1084.11
375.04	1086.27
375.41	1087.09
375.78	1084.58
376.15	1082.05
376.52	1080.98
376.89	1079.22
377.26	1079.36
377.63	1079.69
378.00	1082.76
378.37	1083.06
378.74	1084.28
379.11	1081.77
379.48	1081.84
379.85	1082.33
380.22	1085.54
380.59	1084.39
380.96	1088.40
381.33	1086.50
381.70	1087.23
382.07	1088.00
382.44	1089.43
382.81	1087.74
383.18	1090.15
383.55	1090.10
383.92	1086.41
384.29	1085.10
384.66	1085.00
385.03	1084.18
385.40	1083.74
385.77	1084.93
386.14	1085.28
386.51	1085.38
386.88	1084.37
387.25	1084.91
387.62	1085.21
387.99	1083.88
388.36	1084.00
388.73	1085.10
389.10	1086.71
389.46	1088.47
389.83	1087.20
390.20	1085.91
390.57	1090.20
390.94	1087.74
391.31	1086.83
391.68	1089.99
392.05	1092.45
392.42	1090.32
392.79	1090.27
393.16	1092.66
393.53	1092.23
393.89	1091.56
394.26	1091.04
394.63	1093.15
395.00	1086.80
395.37	1084.04
395.74	1083.18
396.11	1082.66
396.48	1081.51
396.84	1083.27
397.21	1084.02
397.58	1086.78
397.95	1089.03
398.32	1090.27
398.69	1092.28
399.06	1092.30
399.42	1090.29
399.79	1087.25
400.16	1087.76
400.53	1089.31
400.90	1093.87
401.27	1095.60
401.64	1096.54
402.00	1095.63
402.37	1097.80
402.74	1094.25
403.11	1096.87
403.48	1098.41
403.84	1099.77
404.21	1096.59
404.58	1099.37
404.95	1094.27
405.32	1092.05
405.68	1089.89
406.05	1092.35
406.42	1089.73
406.79	1089.29
407.16	1091.74
407.52	1093.73
407.89	1092.87
408.26	1094.32
408.63	1097.06
408.99	1095.84
409.36	1094.97
409.73	1095.44
410.10	1098.79
410.47	1099.70
410.83	1103.05
411.20	1105.20
411.57	1105.74
411.94	1105.93
412.30	1105.20
412.67	1102.13
413.04	1100.08
413.40	1101.81
413.77	1099.54
414.14	1101.78
414.51	1101.69
414.87	1103.05
415.24	1101.22
415.61	1102.18
415.97	1103.49
416.34	1107.82
416.71	1109.34
417.08	1111.59
417.44	1112.20
417.81	1109.86
418.18	1111.38
418.54	1108.83
418.91	1109.11
419.28	1111.12
419.64	1114.52
420.01	1112.71
420.38	1115.08
420.74	1113.37
421.11	1110.12
421.48	1109.25
421.84	1107.12
422.21	1105.86
422.58	1109.77
422.94	1111.05
423.31	1109.02
423.68	1111.85
424.04	1113.28
424.41	1110.89
424.77	1112.71
425.14	1117.28
425.51	1116.11
425.87	1116.65
426.24	1119.13
426.61	1119.36
426.97	1118.00
427.34	1118.33
427.70	1120.32
428.07	1118.14
428.44	1120.18
428.80	1118.68
429.17	1120.04
429.53	1119.13
429.90	1119.81
430.27	1117.89
430.63	1118.33
431.00	1117.35
431.36	1117.25
431.73	1116.32
432.09	1115.50
432.46	1115.80
432.83	1116.15
433.19	1118.31
433.56	1119.53
433.92	1120.58
434.29	1121.68
434.65	1118.92
435.02	1119.69
435.38	1118.38
435.75	1114.80
436.11	1113.53
436.48	1116.93
436.84	1112.41
437.21	1112.53
437.57	1113.81
437.94	1113.56
438.30	1112.06
438.67	1109.46
439.03	1111.47
439.40	1110.49
439.76	1111.33
440.13	1110.82
440.49	1113.09
440.86	1109.58
441.22	1112.43
441.59	1115.92
441.95	1115.45
442.32	1117.44
442.68	1119.24
443.05	1118.14
443.41	1111.33
443.78	1110.51
444.14	1108.06
444.51	1109.67
444.87	1108.97
445.24	1113.51
445.60	1115.22
445.96	1119.17
446.33	1114.68
446.69	1114.66
447.06	1112.41
447.42	1113.77
447.79	1110.94
448.15	1113.95
448.51	1113.37
448.88	1115.08
449.24	1114.63
449.61	1114.00
449.97	1111.87
450.33	1114.07
450.70	1111.43
451.06	1106.51
451.43	1107.66
451.79	1109.04
452.15	1108.76
452.52	1109.18
452.88	1112.69
453.24	1115.43
453.61	1116.18
453.97	1117.47
454.34	1118.26
454.70	1120.46
455.06	1116.97
455.43	1115.38
455.79	1112.88
456.15	1112.08
456.52	1111.15
456.88	1111.89
457.24	1113.14
457.61	1115.03
457.97	1115.80
458.33	1117.61
458.70	1119.88
459.06	1121.56
459.42	1120.55
459.79	1122.94
460.15	1122.90
460.51	1122.15
460.88	1123.36
461.24	1123.53
461.60	1122.40
461.96	1122.26
462.33	1122.50
462.69	1123.62
463.05	1126.20
463.42	1128.16
463.78	1130.76
464.14	1131.91
464.50	1135.42
464.87	1133.19
465.23	1134.29
465.59	1131.70
465.95	1132.75
466.32	1128.89
466.68	1130.55
467.04	1127.44
467.40	1129.24
467.77	1129.59
468.13	1129.73
468.49	1131.23
468.85	1135.42
469.22	1138.20
469.58	1141.62
469.94	1140.94
470.30	1147.82
470.66	1150.09
471.03	1152.46
471.39	1153.25
471.75	1162.15
472.11	1160.16
472.47	1163.62
472.84	1165.89
473.20	1168.35
473.56	1168.37
473.92	1175.30
474.28	1177.78
474.65	1180.03
475.01	1184.66
475.37	1187.96
475.73	1190.26
476.09	1197.68
476.45	1200.11
476.81	1202.31
477.18	1208.79
477.54	1216.54
477.90	1220.64
478.26	1231.75
478.62	1242.33
478.98	1247.76
479.34	1256.31
479.71	1264.59
480.07	1272.50
480.43	1281.63
480.79	1295.65
481.15	1303.70
481.51	1313.04
481.87	1327.95
482.23	1341.55
482.59	1354.16
482.96	1373.59
483.32	1391.45
483.68	1407.60
484.04	1427.47
484.40	1447.22
484.76	1465.43
485.12	1487.86
485.48	1512.88
485.84	1534.53
486.20	1557.98
486.56	1584.52
486.92	1613.78
487.28	1641.96
487.64	1675.07
488.00	1710.67
488.37	1746.44
488.73	1780.77
489.09	1818.78
489.45	1862.04
489.81	1905.17
490.17	1950.30
490.53	2001.60
490.89	2043.40
491.25	2091.34
491.61	2142.78
491.97	2194.21
492.33	2246.54
492.69	2312.03
493.05	2373.89
493.41	2441.74
493.77	2517.48
494.13	2601.86
494.49	2679.14
494.85	2762.72
495.21	2851.59
495.57	2944.18
495.93	3036.59
496.29	3144.63
496.64	3258.54
497.00	3373.91
497.36	3490.02
497.72	3616.83
498.08	3748.20
498.44	3886.34
498.80	4031.95
499.16	4195.04
499.52	4359.60
499.88	4531.91
500.24	4713.96
500.60	4901.90
500.96	5092.26
501.32	5275.90
501.68	5460.47
502.03	5667.49
502.39	5890.03
502.75	6119.89
503.11	6390.83
503.47	6673.55
503.83	6976.81
504.19	7268.98
504.55	7595.60
504.91	7913.19
505.26	8244.86
505.62	8603.18
505.98	9016.89
506.34	9411.93
506.70	9836.85
507.06	10316.78
507.42	10765.39
507.78	11205.06
508.13	11698.37
508.49	12231.43
508.85	12783.82
509.21	13355.80
509.57	13941.26
509.93	14546.01
510.28	15172.52
510.64	15824.57
511.00	16496.89
511.36	17213.73
511.72	17979.67
512.07	18792.33
512.43	19596.74
512.79	20507.05
513.15	21398.86
513.51	22191.88
513.86	22999.06
514.22	23921.47
514.58	24831.12
514.94	25726.23
515.30	26764.28
515.65	27858.65
516.01	28820.40
516.37	29728.17
516.73	30725.66
517.08	31631.92
517.44	32369.91
517.80	33254.92
518.16	34220.95
518.51	35157.51
518.87	36089.96
519.23	37143.62
519.59	38099.80
519.94	39060.08
520.30	40000.81
520.66	40826.36
521.01	41619.31
521.37	42421.93
521.73	43050.08
522.09	43619.14
522.44	44363.61
522.80	44946.41
523.16	45312.26
523.51	45637.66
523.87	46013.18
524.23	46281.45
524.58	46520.86
524.94	46936.10
525.30	47292.96
525.65	47421.87
526.01	47405.61
526.37	47567.78
526.72	47626.74
527.08	47586.84
527.44	47494.01
527.79	47431.28
528.15	47254.13
528.51	46977.36
528.86	46702.86
529.22	46422.56
529.58	46066.28
529.93	45617.98
530.29	45039.49
530.65	44582.69
531.00	44137.42
531.36	43513.25
531.71	42911.94
532.07	42513.33
532.43	41817.44
532.78	41074.62
533.14	40504.23
533.49	39856.09
533.85	39103.40
534.21	38551.13
534.56	38022.73
534.92	37419.88
535.27	36751.82
535.63	35966.43
535.98	35201.14
536.34	34447.42
536.69	33689.25
537.05	32992.57
537.41	32440.32
537.76	31812.51
538.12	31100.92
538.47	30524.59
538.83	29996.82
539.18	29412.72
539.54	28849.61
539.89	28388.01
540.25	27882.64
540.60	27361.73
540.96	26769.39
541.31	26282.65
541.67	25879.75
542.02	25431.93
542.38	24974.03
542.73	24538.04
543.09	24052.75
543.44	23519.06
543.80	23023.36
544.15	22537.11
544.51	22174.21
544.86	21763.33
545.22	21391.35
545.57	21039.80
545.93	20626.95
546.28	20208.79
546.64	19854.79
546.99	19480.02
547.35	19101.60
547.70	18763.44
548.05	18381.42
548.41	17974.17
548.76	17527.71
549.12	17109.92
549.47	16725.84
549.83	16379.44
550.18	16033.14
550.53	15688.45
550.89	15310.01
551.24	14924.17
551.60	14597.27
551.95	14319.75
552.30	14063.46
552.66	13853.19
553.01	13665.66
553.37	13410.17
553.72	13102.81
554.07	12817.45
554.43	12522.66
554.78	12197.42
555.13	11904.13
555.49	11618.65
555.84	11338.77
556.19	11061.44
556.55	10777.35
556.90	10503.25
557.26	10279.49
557.61	10081.83
557.96	9867.84
558.32	9664.98
558.67	9453.77
559.02	9223.75
559.37	9006.12
559.73	8819.02
560.08	8653.10
560.43	8454.48
560.79	8266.07
561.14	8055.66
561.49	7851.91
561.85	7640.30
562.20	7472.37
562.55	7331.35
562.90	7188.89
563.26	7041.60
563.61	6905.35
563.96	6751.32
564.32	6571.38
564.67	6424.44
565.02	6299.81
565.37	6184.02
565.73	6046.45
566.08	5929.19
566.43	5808.16
566.78	5666.09
567.14	5531.97
567.49	5434.40
567.84	5318.31
568.19	5201.00
568.54	5102.60
568.90	4997.84
569.25	4906.91
569.60	4818.93
569.95	4741.29
570.31	4660.57
570.66	4582.23
571.01	4480.84
571.36	4392.69
571.71	4302.19
572.06	4220.43
572.42	4138.42
572.77	4060.74
573.12	3989.79
573.47	3920.89
573.82	3846.95
574.18	3783.64
574.53	3723.07
574.88	3662.40
575.23	3592.11
575.58	3524.59
575.93	3463.57
576.28	3401.76
576.64	3341.82
576.99	3284.82
577.34	3231.02
577.69	3165.93
578.04	3103.90
578.39	3041.60
578.74	2983.93
579.09	2926.58
579.44	2879.16
579.80	2832.63
580.15	2788.26
580.50	2747.44
580.85	2700.60
581.20	2655.78
581.55	2613.25
581.90	2574.71
582.25	2532.44
582.60	2492.04
582.95	2448.06
583.30	2415.32
583.65	2380.82
584.00	2346.43
584.35	2319.99
584.71	2291.92
585.06	2259.76
585.41	2233.55
585.76	2202.96
586.11	2173.12
586.46	2141.94
586.81	2112.15
587.16	2075.73
587.51	2050.19
587.86	2028.10
588.21	2010.61
588.56	1993.95
588.91	1975.37
589.26	1954.09
589.61	1927.22
589.96	1907.96
590.31	1883.17
590.66	1863.51
591.01	1841.42
591.36	1823.63
591.71	1796.85
592.06	1775.95
592.41	1759.12
592.76	1747.54
593.10	1725.84
593.45	1713.67
593.80	1697.31
594.15	1681.93
594.50	1671.33
594.85	1663.93
595.20	1652.75
595.55	1639.48
595.90	1626.41
596.25	1607.83
596.60	1595.31
596.95	1578.62
597.30	1568.79
597.64	1610.50
597.99	1602.64
598.34	1593.62
598.69	1583.96
599.04	1572.23
599.39	1507.52
599.74	1496.28
600.09	1484.41
600.44	1473.65
600.78	1464.89
601.13	1457.43
601.48	1449.45
601.83	1443.74
602.18	1434.51
602.53	1427.87
602.88	1421.83
603.22	1411.48
603.57	1400.58
603.92	1395.05
604.27	1384.61
604.62	1376.68
604.97	1370.20
605.31	1366.50
605.66	1363.71
606.01	1358.99
606.36	1355.43
606.71	1347.49
607.05	1337.36
607.40	1327.55
607.75	1322.80
608.10	1315.26
608.44	1312.57
608.79	1309.79
609.14	1309.20
609.49	1306.72
609.84	1299.86
610.18	1297.50
610.53	1292.63
610.88	1285.19
611.23	1278.21
611.57	1276.65
611.92	1272.39
612.27	1267.21
612.62	1261.48
612.96	1258.44
613.31	1251.81
613.66	1246.78
614.00	1244.51
614.35	1238.45
614.70	1231.54
615.05	1228.92
615.39	1222.86
615.74	1219.72
616.09	1223.00
616.43	1226.82
616.78	1221.15
617.13	1220.43
617.47	1214.81
617.82	1208.11
618.17	1200.88
618.51	1199.22
618.86	1192.50
619.21	1192.08
619.55	1190.44
619.90	1188.59
620.25	1187.80
620.59	1189.48
620.94	1183.49
621.29	1181.10
621.63	1179.84
621.98	1177.10
622.32	1173.94
622.67	1176.14
623.02	1175.16
623.36	1172.21
623.71	1170.20
624.05	1169.05
624.40	1170.53
624.75	1166.43
625.09	1165.52
625.44	1165.24
625.78	1164.39
626.13	1159.76
626.48	1157.91
626.82	1154.49
627.17	1151.31
627.51	1149.18
627.86	1147.03
628.20	1146.70
628.55	1148.03
628.89	1150.28
629.24	1146.91
629.58	1145.69
629.93	1144.78
630.28	1139.51
630.62	1135.53
630.97	1135.37
631.31	1131.11
631.66	1128.47
632.00	1128.14
632.35	1126.06
632.69	1125.56
633.04	1126.15
633.38	1125.54
633.73	1126.55
634.07	1127.30
634.42	1127.81
634.76	1130.15
635.11	1130.48
635.45	1129.71
635.79	1127.41
636.14	1125.89
636.48	1123.50
636.83	1122.45
637.17	1121.70
637.52	1121.84
637.86	1122.05
638.21	1120.41
638.55	1121.05
638.89	1118.54
639.24	1117.28
639.58	1113.35
639.93	1109.39
640.27	1106.42
640.61	1109.06
640.96	1112.15
641.30	1114.05
641.65	1117.82
641.99	1117.47
642.33	1114.54
642.68	1111.31
643.02	1112.57
643.37	1113.53
643.71	1113.53
644.05	1111.94
644.40	1113.04
644.74	1109.41
645.08	1110.49
645.43	1113.65
645.77	1115.27
646.11	1111.43
646.46	1110.56
646.80	1104.48
647.14	1102.39
647.49	1099.35
647.83	1100.31
648.17	1097.73
648.52	1098.60
648.86	1096.35
649.20	1100.75
649.55	1103.82
649.89	1107.66
650.23	1107.92
650.57	1108.52
650.92	1103.77
651.26	1098.83
651.60	1096.99
651.95	1096.99
652.29	1099.00
652.63	1103.70
652.97	1105.65
653.32	1106.25
653.66	1107.14
654.00	1103.87
654.34	1101.36
654.69	1099.82
655.03	1098.34
655.37	1099.70
655.71	1099.91
656.05	1101.97
656.40	1103.16
656.74	1103.19
657.08	1100.96
657.42	1098.25
657.76	1096.92
658.11	1098.69
658.45	1098.25
658.79	1096.12
659.13	1099.89
659.47	1099.63
659.82	1095.46
660.16	1093.45
660.50	1094.57
660.84	1091.70
661.18	1092.28
661.52	1097.57
661.87	1101.11
662.21	1100.80
662.55	1102.18
662.89	1101.99
663.23	1100.03
663.57	1101.95
663.91	1105.69
664.25	1106.32
664.60	1105.58
664.94	1101.25
665.28	1098.76
665.62	1095.67
665.96	1096.47
666.30	1094.74
666.64	1098.06
666.98	1095.07
667.32	1092.61
667.66	1087.72
668.01	1088.56
668.35	1088.44
668.69	1089.96
669.03	1092.19
669.37	1098.79
669.71	1099.09
670.05	1100.87
670.39	1102.95
670.73	1102.42
671.07	1102.77
671.41	1100.89
671.75	1097.97
672.09	1096.92
672.43	1095.93
672.77	1091.67
673.11	1093.47
673.45	1091.86
673.79	1094.27
674.13	1094.39
674.47	1094.67
674.81	1089.78
675.15	1088.82
675.49	1087.86
675.83	1087.86
676.17	1087.81
676.51	1092.63
676.85	1094.15
677.19	1089.05
677.53	1090.99
677.87	1090.13
678.21	1090.46
678.55	1090.64
678.89	1092.63
679.23	1091.51
679.57	1089.43
679.90	1087.46
680.24	1085.84
680.58	1083.25
680.92	1081.05
681.26	1084.18
681.60	1085.91
681.94	1090.76
682.28	1093.99
682.62	1098.95
682.96	1099.02
683.29	1098.98
683.63	1099.82
683.97	1099.72
684.31	1099.56
684.65	1099.07
684.99	1097.45
685.33	1094.74
685.67	1095.04
686.00	1093.36
686.34	1092.96
686.68	1093.69
687.02	1092.07
687.36	1090.64
687.70	1090.15
688.03	1089.87
688.37	1090.13
688.71	1090.39
689.05	1091.70
689.39	1087.53
689.72	1090.64
690.06	1088.47
690.40	1090.24
690.74	1088.84
691.08	1093.83
691.41	1092.59
691.75	1096.14
692.09	1093.87
692.43	1096.54
692.76	1094.65
693.10	1092.96
693.44	1090.39
693.78	1089.94
694.11	1088.54
694.45	1088.65
694.79	1089.59
695.13	1086.73
695.46	1086.69
695.80	1088.07
696.14	1085.28
696.48	1083.79
696.81	1085.75
697.15	1085.75
697.49	1085.94
697.82	1089.45
698.16	1086.17
698.50	1089.07
698.83	1090.01
699.17	1087.86
699.51	1086.87
699.84	1091.44
700.18	1088.89
700.52	1091.53
700.85	1093.69
701.19	1092.33
701.53	1091.60
701.86	1094.93
702.20	1090.39
702.54	1088.79
702.87	1090.74
703.21	1088.98
703.55	1085.70
703.88	1087.39
704.22	1086.80
704.55	1085.47
704.89	1086.80
705.23	1084.30
705.56	1084.49
705.90	1085.28
706.23	1087.74
706.57	1088.09
706.91	1090.17
707.24	1089.89
707.58	1089.38
707.91	1089.89
708.25	1090.08
708.58	1091.09
708.92	1092.26
709.26	1093.31
709.59	1091.74
709.93	1089.57
710.26	1089.54
710.60	1086.13
710.93	1084.72
711.27	1085.54
711.60	1087.86
711.94	1089.33
712.27	1089.24
712.61	1087.83
712.94	1086.41
713.28	1085.10
713.61	1084.28
713.95	1085.03
714.28	1088.47
714.62	1091.11
714.95	1092.26
715.29	1093.01
715.62	1095.23
715.96	1092.40
716.29	1090.29
716.63	1087.51
716.96	1087.13
717.29	1084.07
717.63	1084.25
717.96	1083.25
718.30	1085.38
718.63	1084.67
718.97	1087.72
719.30	1086.66
719.63	1087.04
719.97	1089.03
720.30	1088.30
720.64	1089.59
720.97	1091.70
721.30	1093.17
721.64	1089.80
721.97	1091.58
722.31	1091.44
722.64	1092.61
722.97	1093.45
723.31	1093.62
723.64	1089.99
723.97	1087.79
724.31	1088.61
724.64	1083.64
724.98	1084.42
725.31	1086.27
725.64	1086.69
725.98	1085.03
726.31	1090.57
726.64	1091.77
726.97	1092.30
727.31	1092.66
727.64	1091.81
727.97	1089.03
728.31	1088.30
728.64	1085.33
728.97	1083.36
729.31	1085.52
729.64	1081.23
729.97	1081.09
730.30	1084.58
730.64	1085.73
730.97	1084.49
731.30	1086.90
731.63	1086.62
731.97	1085.87
732.30	1087.20
732.63	1087.32
732.96	1089.82
733.30	1087.58
733.63	1088.28
733.96	1086.13
734.29	1086.06
734.63	1084.98
734.96	1088.56
735.29	1086.69
735.62	1090.88
735.95	1087.11
736.29	1086.17
736.62	1087.09
736.95	1090.78
737.28	1088.63
737.61	1094.25
737.94	1097.08
738.28	1094.36
738.61	1091.93
738.94	1089.94
739.27	1087.09
739.60	1087.25
739.93	1090.55
740.27	1088.63
740.60	1090.41
740.93	1092.28
741.26	1090.50
741.59	1090.17
741.92	1093.15
742.25	1093.45
742.58	1092.23
742.91	1092.40
743.25	1088.86
743.58	1087.90
743.91	1084.60
744.24	1082.38
744.57	1084.86
744.90	1087.93
745.23	1086.92
745.56	1086.90
745.89	1087.69
746.22	1086.03
746.55	1085.35
746.88	1086.66
747.21	1087.51
747.54	1088.30
747.87	1086.92
748.20	1085.91
748.53	1086.36
748.87	1089.14
749.20	1089.61
749.53	1088.68
749.86	1089.40
750.19	1086.90
750.52	1086.29
750.85	1090.74
751.18	1089.33
751.51	1090.08
751.84	1089.85
752.16	1090.50
752.49	1082.54
752.82	1084.23
753.15	1082.24
753.48	1083.04
753.81	1082.26
754.14	1085.45
754.47	1087.06
754.80	1090.88
755.13	1090.64
755.46	1087.88
755.79	1087.95
756.12	1089.59
756.45	1085.45
756.78	1086.99
757.11	1088.37
757.43	1087.86
757.76	1086.27
758.09	1088.04
758.42	1085.28
758.75	1083.32
759.08	1082.99
759.41	1082.69
759.74	1082.47
760.07	1084.35
760.39	1085.68
760.72	1084.07
761.05	1084.11
761.38	1083.76
761.71	1082.64
762.04	1081.80
762.36	1083.88
762.69	1085.61
763.02	1087.06
763.35	1087.62
