SpectraSuite Data File
++++++++++++++++++++++++++++++++++++
Date: Mon Aug 26 10:26:26 PDT 2019
User: corrico
Dark Spectrum Present: No
Reference Spectrum Present: No
Number of Sampled Component Spectra: 1
Spectrometers: USB2+H06089
Integration Time (usec): 10000 (USB2+H06089)
Spectra Averaged: 20 (USB2+H06089)
Boxcar Smoothing: 2 (USB2+H06089)
Correct for Electrical Dark: No (USB2+H06089)
Strobe/Lamp Enabled: No (USB2+H06089)
Correct for Detector Non-linearity: No (USB2+H06089)
Correct for Stray Light: No (USB2+H06089)
Number of Pixels in Processed Spectrum: 2048
>>>>>Begin Processed Spectral Data<<<<<
339.70	1042.24
340.07	1042.24
340.45	1007.30
340.82	983.59
341.19	957.58
341.57	928.98
341.94	914.73
342.31	905.65
342.69	899.42
343.06	897.01
343.43	897.64
343.81	897.06
344.18	900.92
344.55	907.07
344.93	913.21
345.30	919.18
345.67	929.45
346.04	937.85
346.42	945.90
346.79	951.03
347.16	961.07
347.54	968.02
347.91	976.96
348.28	982.81
348.65	992.74
349.03	1001.23
349.40	1009.82
349.77	1017.31
350.14	1026.68
350.52	1033.53
350.89	1037.49
351.26	1043.36
351.63	1048.82
352.01	1054.53
352.38	1061.76
352.75	1068.31
353.12	1070.09
353.50	1069.41
353.87	1073.28
354.24	1071.15
354.61	1068.69
354.98	1072.81
355.36	1074.19
355.73	1069.62
356.10	1072.64
356.47	1077.09
356.84	1077.16
357.22	1080.46
357.59	1084.00
357.96	1084.79
358.33	1084.53
358.70	1082.19
359.08	1080.88
359.45	1080.70
359.82	1083.39
360.19	1082.54
360.56	1084.84
360.94	1085.35
361.31	1083.79
361.68	1079.15
362.05	1078.52
362.42	1075.76
362.79	1075.64
363.16	1074.61
363.54	1073.81
363.91	1072.67
364.28	1073.88
364.65	1071.64
365.02	1074.59
365.39	1074.70
365.76	1072.29
366.14	1070.98
366.51	1071.12
366.88	1069.41
367.25	1068.50
367.62	1069.32
367.99	1071.08
368.36	1071.29
368.73	1069.74
369.10	1071.47
369.48	1071.75
369.85	1071.78
370.22	1069.13
370.59	1069.11
370.96	1068.08
371.33	1066.37
371.70	1064.85
372.07	1064.71
372.44	1066.47
372.81	1068.88
373.18	1071.71
373.55	1073.77
373.93	1078.14
374.30	1074.59
374.67	1071.68
375.04	1069.46
375.41	1064.29
375.78	1061.74
376.15	1064.83
376.52	1065.32
376.89	1067.14
377.26	1070.23
377.63	1076.06
378.00	1076.32
378.37	1078.07
378.74	1078.10
379.11	1078.87
379.48	1075.10
379.85	1077.02
380.22	1078.40
380.59	1077.63
380.96	1078.71
381.33	1081.12
381.70	1081.00
382.07	1079.29
382.44	1081.35
382.81	1078.82
383.18	1077.16
383.55	1075.01
383.92	1073.46
384.29	1075.43
384.66	1075.36
385.03	1075.03
385.40	1074.98
385.77	1076.58
386.14	1074.45
386.51	1076.11
386.88	1078.10
387.25	1079.29
387.62	1077.98
387.99	1075.24
388.36	1076.93
388.73	1074.66
389.10	1073.63
389.46	1076.08
389.83	1079.08
390.20	1077.37
390.57	1075.05
390.94	1075.31
391.31	1073.60
391.68	1072.62
392.05	1070.28
392.42	1074.75
392.79	1073.18
393.16	1074.10
393.53	1076.58
393.89	1079.29
394.26	1078.00
394.63	1078.28
395.00	1075.55
395.37	1075.94
395.74	1073.65
396.11	1070.00
396.48	1073.32
396.84	1075.48
397.21	1072.18
397.58	1074.82
397.95	1080.32
398.32	1079.20
398.69	1079.60
399.06	1081.56
399.42	1080.63
399.79	1076.44
400.16	1077.25
400.53	1076.41
400.90	1075.31
401.27	1075.90
401.64	1077.96
402.00	1078.52
402.37	1079.08
402.74	1080.27
403.11	1078.75
403.48	1079.97
403.84	1079.41
404.21	1080.18
404.58	1080.81
404.95	1081.44
405.32	1079.57
405.68	1079.90
406.05	1078.59
406.42	1078.28
406.79	1078.28
407.16	1078.21
407.52	1077.56
407.89	1079.20
408.26	1077.21
408.63	1077.72
408.99	1079.76
409.36	1079.76
409.73	1079.74
410.10	1081.73
410.47	1082.76
410.83	1080.77
411.20	1079.27
411.57	1079.15
411.94	1078.10
412.30	1078.31
412.67	1078.92
413.04	1077.14
413.40	1074.42
413.77	1075.94
414.14	1075.76
414.51	1073.77
414.87	1075.76
415.24	1077.89
415.61	1078.36
415.97	1077.86
416.34	1079.69
416.71	1079.57
417.08	1079.31
417.44	1078.80
417.81	1082.08
418.18	1081.77
418.54	1079.64
418.91	1080.25
419.28	1079.71
419.64	1077.61
420.01	1076.48
420.38	1080.37
420.74	1081.49
421.11	1081.56
421.48	1078.73
421.84	1077.82
422.21	1078.87
422.58	1078.00
422.94	1078.52
423.31	1082.31
423.68	1087.06
424.04	1087.72
424.41	1086.59
424.77	1088.54
425.14	1087.13
425.51	1086.08
425.87	1089.73
426.24	1092.30
426.61	1086.97
426.97	1087.41
427.34	1088.42
427.70	1081.51
428.07	1078.85
428.44	1082.69
428.80	1084.72
429.17	1082.69
429.53	1083.57
429.90	1086.45
430.27	1086.17
430.63	1084.07
431.00	1083.18
431.36	1084.91
431.73	1082.19
432.09	1080.30
432.46	1081.37
432.83	1084.91
433.19	1081.14
433.56	1082.08
433.92	1083.41
434.29	1082.59
434.65	1081.56
435.02	1084.14
435.38	1084.70
435.75	1086.38
436.11	1086.10
436.48	1085.68
436.84	1088.23
437.21	1086.27
437.57	1085.80
437.94	1085.99
438.30	1081.73
438.67	1080.34
439.03	1082.76
439.40	1079.95
439.76	1081.28
440.13	1085.70
440.49	1085.66
440.86	1085.38
441.22	1087.67
441.59	1090.03
441.95	1089.50
442.32	1089.00
442.68	1088.68
443.05	1088.28
443.41	1085.26
443.78	1084.21
444.14	1082.43
444.51	1082.33
444.87	1083.32
445.24	1081.75
445.60	1081.94
445.96	1081.98
446.33	1082.08
446.69	1081.42
447.06	1082.69
447.42	1082.57
447.79	1080.20
448.15	1080.37
448.51	1081.26
448.88	1081.87
449.24	1084.39
449.61	1087.09
449.97	1084.35
450.33	1083.08
450.70	1082.69
451.06	1080.37
451.43	1082.57
451.79	1086.06
452.15	1085.00
452.52	1083.43
452.88	1082.50
453.24	1083.43
453.61	1085.26
453.97	1088.19
454.34	1090.81
454.70	1092.82
455.06	1091.18
455.43	1088.47
455.79	1087.16
456.15	1085.68
456.52	1085.96
456.88	1087.79
457.24	1086.43
457.61	1085.99
457.97	1087.72
458.33	1086.90
458.70	1085.87
459.06	1087.93
459.42	1089.26
459.79	1089.96
460.15	1092.07
460.51	1090.22
460.88	1089.73
461.24	1092.07
461.60	1092.07
461.96	1089.87
462.33	1092.66
462.69	1092.91
463.05	1089.45
463.42	1085.33
463.78	1083.71
464.14	1083.20
464.50	1082.05
464.87	1080.63
465.23	1082.05
465.59	1083.15
465.95	1081.77
466.32	1086.57
466.68	1087.58
467.04	1087.81
467.40	1092.63
467.77	1092.54
468.13	1090.39
468.49	1094.22
468.85	1100.10
469.22	1098.48
469.58	1101.64
469.94	1101.32
470.30	1098.27
470.66	1090.46
471.03	1088.49
471.39	1085.00
471.75	1083.88
472.11	1085.00
472.47	1088.70
472.84	1090.50
473.20	1092.00
473.56	1094.04
473.92	1094.50
474.28	1094.90
474.65	1095.16
475.01	1096.26
475.37	1096.28
475.73	1097.13
476.09	1096.87
476.45	1099.30
476.81	1102.51
477.18	1102.91
477.54	1104.52
477.90	1107.64
478.26	1109.74
478.62	1107.49
478.98	1110.23
479.34	1110.84
479.71	1110.00
480.07	1110.26
480.43	1114.24
480.79	1114.33
481.15	1117.16
481.51	1121.98
481.87	1122.36
482.23	1124.70
482.59	1126.29
482.96	1127.20
483.32	1131.09
483.68	1136.17
484.04	1138.97
484.40	1144.38
484.76	1150.70
485.12	1155.22
485.48	1156.20
485.84	1157.96
486.20	1164.02
486.56	1168.44
486.92	1170.20
487.28	1178.27
487.64	1187.40
488.00	1193.21
488.37	1195.99
488.73	1203.20
489.09	1208.79
489.45	1215.53
489.81	1220.66
490.17	1230.68
490.53	1237.98
490.89	1244.14
491.25	1252.51
491.61	1261.81
491.97	1269.83
492.33	1280.25
492.69	1288.98
493.05	1296.66
493.41	1310.58
493.77	1326.36
494.13	1337.69
494.49	1352.90
494.85	1367.90
495.21	1381.48
495.57	1391.50
495.93	1409.31
496.29	1430.02
496.64	1454.41
497.00	1472.95
497.36	1494.71
497.72	1515.57
498.08	1536.94
498.44	1552.08
498.80	1575.37
499.16	1603.34
499.52	1629.25
499.88	1657.64
500.24	1693.35
500.60	1727.36
500.96	1758.54
501.32	1798.42
501.68	1832.31
502.03	1871.68
502.39	1910.02
502.75	1957.16
503.11	1999.29
503.47	2044.41
503.83	2088.97
504.19	2136.21
504.55	2185.17
504.91	2238.79
505.26	2291.90
505.62	2350.34
505.98	2412.53
506.34	2479.47
506.70	2553.64
507.06	2630.46
507.42	2704.61
507.78	2783.93
508.13	2852.67
508.49	2927.47
508.85	3021.68
509.21	3115.98
509.57	3218.92
509.93	3339.76
510.28	3452.29
510.64	3565.22
511.00	3679.95
511.36	3792.93
511.72	3901.65
512.07	4026.89
512.43	4136.45
512.79	4264.41
513.15	4410.18
513.51	4556.53
513.86	4704.10
514.22	4888.00
514.58	5058.55
514.94	5213.40
515.30	5379.89
515.65	5543.61
516.01	5705.76
516.37	5880.50
516.73	6040.22
517.08	6210.94
517.44	6379.25
517.80	6547.84
518.16	6721.15
518.51	6916.96
518.87	7084.85
519.23	7255.38
519.59	7429.05
519.94	7596.63
520.30	7757.80
520.66	7896.78
521.01	8058.14
521.37	8208.31
521.73	8359.86
522.09	8507.12
522.44	8702.81
522.80	8837.61
523.16	8918.10
523.51	8945.62
523.87	9002.78
524.23	9045.52
524.58	9125.44
524.94	9244.18
525.30	9360.48
525.65	9432.31
526.01	9455.13
526.37	9439.59
526.72	9408.51
527.08	9360.11
527.44	9300.05
527.79	9272.62
528.15	9269.95
528.51	9251.58
528.86	9264.87
529.22	9268.19
529.58	9252.58
529.93	9178.53
530.29	9101.22
530.65	8990.04
531.00	8860.14
531.36	8711.15
531.71	8615.18
532.07	8502.91
532.43	8382.09
532.78	8246.32
533.14	8135.40
533.49	8011.07
533.85	7886.06
534.21	7770.23
534.56	7683.23
534.92	7579.03
535.27	7443.32
535.63	7274.34
535.98	7125.90
536.34	6983.36
536.69	6839.37
537.05	6702.45
537.41	6620.35
537.76	6530.98
538.12	6414.54
538.47	6310.88
538.83	6206.84
539.18	6099.13
539.54	6010.73
539.89	5932.63
540.25	5824.63
540.60	5731.39
540.96	5635.21
541.31	5517.60
541.67	5422.48
542.02	5369.19
542.38	5306.51
542.73	5229.72
543.09	5168.14
543.44	5101.27
543.80	5016.59
544.15	4922.64
544.51	4856.66
544.86	4796.34
545.22	4717.33
545.57	4631.01
545.93	4560.67
546.28	4487.63
546.64	4402.92
546.99	4331.77
547.35	4269.49
547.70	4215.80
548.05	4149.33
548.41	4085.10
548.76	4026.45
549.12	3973.39
549.47	3909.96
549.83	3856.57
550.18	3803.02
550.53	3747.36
550.89	3689.20
551.24	3627.60
551.60	3570.21
551.95	3516.87
552.30	3466.17
552.66	3407.77
553.01	3354.57
553.37	3295.36
553.72	3239.04
554.07	3187.53
554.43	3139.17
554.78	3087.07
555.13	3035.16
555.49	2984.60
555.84	2940.25
556.19	2896.23
556.55	2857.93
556.90	2817.89
557.26	2776.44
557.61	2732.90
557.96	2689.42
558.32	2649.72
558.67	2605.79
559.02	2556.45
559.37	2506.57
559.73	2468.98
560.08	2426.27
560.43	2391.98
560.79	2369.77
561.14	2339.51
561.49	2307.30
561.85	2279.33
562.20	2256.18
562.55	2232.19
562.90	2217.10
563.26	2189.83
563.61	2162.23
563.96	2135.39
564.32	2104.87
564.67	2072.45
565.02	2046.26
565.37	2026.83
565.73	2005.21
566.08	1984.82
566.43	1964.79
566.78	1940.54
567.14	1912.99
567.49	1885.25
567.84	1862.22
568.19	1838.40
568.54	1820.35
568.90	1804.32
569.25	1786.32
569.60	1767.48
569.95	1752.76
570.31	1738.57
570.66	1722.40
571.01	1709.32
571.36	1694.03
571.71	1676.81
572.06	1659.79
572.42	1642.49
572.77	1625.39
573.12	1613.71
573.47	1601.02
573.82	1591.56
574.18	1583.44
574.53	1570.24
574.88	1558.24
575.23	1547.82
575.58	1534.08
575.93	1526.52
576.28	1518.28
576.64	1505.43
576.99	1491.23
577.34	1482.50
577.69	1471.33
578.04	1462.30
578.39	1455.84
578.74	1446.69
579.09	1436.13
579.44	1422.51
579.80	1412.58
580.15	1397.44
580.50	1391.00
580.85	1383.63
581.20	1379.77
581.55	1375.74
581.90	1372.21
582.25	1366.78
582.60	1360.04
582.95	1351.17
583.30	1341.52
583.65	1333.57
584.00	1318.89
584.35	1309.76
584.71	1303.00
585.06	1299.98
585.41	1294.27
585.76	1294.46
586.11	1290.83
586.46	1285.26
586.81	1277.07
587.16	1275.55
587.51	1273.63
587.86	1267.99
588.21	1263.56
588.56	1257.48
588.91	1251.09
589.26	1240.76
589.61	1236.46
589.96	1232.41
590.31	1226.67
590.66	1219.70
591.01	1220.17
591.36	1215.63
591.71	1212.51
592.06	1213.80
592.41	1214.06
592.76	1210.88
593.10	1209.47
593.45	1203.34
593.80	1198.68
594.15	1193.16
594.50	1185.41
594.85	1182.09
595.20	1187.45
595.55	1183.80
595.90	1185.48
596.25	1183.54
596.60	1181.08
596.95	1173.85
597.30	1174.06
597.64	1221.78
597.99	1226.49
598.34	1226.77
598.69	1225.18
599.04	1220.68
599.39	1165.87
599.74	1161.35
600.09	1156.90
600.44	1154.61
600.78	1156.32
601.13	1154.66
601.48	1153.11
601.83	1152.62
602.18	1149.30
602.53	1145.55
602.88	1144.52
603.22	1141.64
603.57	1138.04
603.92	1137.76
604.27	1136.45
604.62	1134.18
604.97	1133.59
605.31	1133.33
605.66	1135.25
606.01	1135.58
606.36	1133.17
606.71	1133.64
607.05	1135.70
607.40	1134.29
607.75	1127.90
608.10	1128.98
608.44	1126.43
608.79	1121.51
609.14	1120.53
609.49	1122.54
609.84	1123.53
610.18	1125.98
610.53	1127.48
610.88	1127.01
611.23	1131.16
611.57	1129.33
611.92	1126.71
612.27	1127.62
612.62	1123.53
612.96	1120.98
613.31	1119.10
613.66	1115.62
614.00	1113.32
614.35	1114.45
614.70	1113.44
615.05	1116.41
615.39	1119.34
615.74	1117.14
616.09	1117.35
616.43	1115.87
616.78	1113.37
617.13	1108.31
617.47	1106.35
617.82	1104.26
618.17	1102.37
618.51	1098.76
618.86	1097.90
619.21	1100.52
619.55	1100.50
619.90	1101.60
620.25	1101.08
620.59	1101.18
620.94	1099.33
621.29	1098.37
621.63	1095.70
621.98	1097.43
622.32	1099.09
622.67	1095.79
623.02	1098.04
623.36	1100.03
623.71	1099.84
624.05	1101.25
624.40	1106.56
624.75	1104.48
625.09	1101.95
625.44	1100.08
625.78	1096.31
626.13	1093.78
626.48	1091.44
626.82	1089.71
627.17	1090.29
627.51	1088.54
627.86	1087.60
628.20	1087.72
628.55	1090.55
628.89	1090.64
629.24	1094.88
629.58	1093.29
629.93	1090.95
630.28	1087.18
630.62	1088.19
630.97	1086.78
631.31	1089.50
631.66	1091.32
632.00	1091.98
632.35	1089.07
632.69	1089.75
633.04	1085.89
633.38	1086.87
633.73	1087.69
634.07	1092.54
634.42	1090.29
634.76	1093.26
635.11	1093.55
635.45	1096.26
635.79	1093.99
636.14	1094.34
636.48	1094.20
636.83	1092.19
637.17	1090.17
637.52	1089.03
637.86	1085.77
638.21	1087.32
638.55	1086.99
638.89	1087.39
639.24	1087.32
639.58	1091.49
639.93	1088.84
640.27	1087.09
640.61	1085.24
640.96	1083.95
641.30	1082.29
641.65	1083.71
641.99	1087.09
642.33	1086.57
642.68	1087.93
643.02	1086.01
643.37	1079.81
643.71	1078.73
644.05	1080.56
644.40	1078.14
644.74	1080.41
645.08	1085.42
645.43	1086.10
645.77	1087.46
646.11	1088.02
646.46	1087.48
646.80	1086.59
647.14	1087.39
647.49	1083.97
647.83	1089.19
648.17	1086.97
648.52	1086.27
648.86	1084.60
649.20	1087.72
649.55	1085.54
649.89	1089.14
650.23	1089.75
650.57	1090.95
650.92	1089.47
651.26	1082.17
651.60	1081.82
651.95	1081.26
652.29	1082.36
652.63	1084.77
652.97	1089.64
653.32	1090.69
653.66	1092.54
654.00	1091.39
654.34	1086.50
654.69	1084.74
655.03	1081.42
655.37	1078.94
655.71	1077.68
656.05	1080.81
656.40	1081.35
656.74	1082.69
657.08	1085.33
657.42	1084.72
657.76	1084.77
658.11	1086.48
658.45	1087.48
658.79	1085.54
659.13	1086.15
659.47	1082.85
659.82	1078.38
660.16	1077.37
660.50	1077.09
660.84	1074.38
661.18	1073.09
661.52	1076.97
661.87	1078.92
662.21	1078.57
662.55	1082.97
662.89	1086.50
663.23	1086.83
663.57	1085.07
663.91	1086.97
664.25	1082.87
664.60	1081.87
664.94	1079.88
665.28	1079.22
665.62	1076.95
665.96	1078.54
666.30	1081.87
666.64	1082.01
666.98	1082.10
667.32	1087.23
667.66	1090.43
668.01	1087.41
668.35	1089.10
668.69	1088.14
669.03	1083.32
669.37	1080.74
669.71	1081.58
670.05	1083.06
670.39	1085.82
670.73	1084.93
671.07	1087.18
671.41	1086.36
671.75	1083.60
672.09	1083.69
672.43	1086.13
672.77	1082.05
673.11	1081.70
673.45	1081.94
673.79	1080.37
674.13	1077.96
674.47	1078.75
674.81	1077.09
675.15	1073.46
675.49	1077.04
675.83	1079.13
676.17	1077.91
676.51	1082.61
676.85	1086.43
677.19	1083.71
677.53	1083.86
677.87	1088.35
678.21	1086.08
678.55	1087.48
678.89	1084.11
679.23	1082.73
679.57	1083.83
679.90	1083.13
680.24	1083.29
680.58	1087.97
680.92	1089.43
681.26	1089.54
681.60	1090.36
681.94	1086.87
682.28	1087.16
682.62	1087.83
682.96	1085.87
683.29	1084.72
683.63	1088.16
683.97	1086.43
684.31	1083.71
684.65	1079.95
684.99	1082.36
685.33	1080.51
685.67	1080.20
686.00	1079.90
686.34	1084.51
686.68	1083.04
687.02	1085.47
687.36	1085.38
687.70	1086.13
688.03	1083.95
688.37	1081.26
688.71	1081.33
689.05	1080.27
689.39	1083.06
689.72	1083.36
690.06	1085.89
690.40	1085.54
690.74	1086.50
691.08	1086.20
691.41	1087.62
691.75	1086.38
692.09	1083.41
692.43	1082.61
692.76	1079.90
693.10	1080.02
693.44	1082.26
693.78	1082.59
694.11	1083.13
694.45	1087.58
694.79	1085.26
695.13	1084.49
695.46	1083.71
695.80	1084.44
696.14	1082.08
696.48	1081.16
696.81	1080.44
697.15	1082.26
697.49	1082.52
697.82	1080.81
698.16	1081.66
698.50	1082.90
698.83	1080.79
699.17	1079.31
699.51	1079.53
699.84	1079.31
700.18	1082.99
700.52	1083.13
700.85	1082.43
701.19	1082.78
701.53	1082.50
701.86	1077.28
702.20	1079.10
702.54	1080.88
702.87	1081.35
703.21	1081.14
703.55	1082.36
703.88	1081.44
704.22	1080.86
704.55	1080.58
704.89	1082.61
705.23	1080.20
705.56	1080.11
705.90	1080.20
706.23	1079.74
706.57	1077.47
706.91	1081.23
707.24	1082.01
707.58	1081.56
707.91	1082.43
708.25	1082.97
708.58	1082.50
708.92	1080.09
709.26	1081.19
709.59	1080.63
709.93	1083.06
710.26	1080.20
710.60	1082.03
710.93	1081.00
711.27	1083.41
711.60	1081.23
711.94	1078.47
712.27	1078.10
712.61	1076.58
712.94	1076.60
713.28	1078.47
713.61	1084.39
713.95	1085.24
714.28	1087.79
714.62	1083.27
714.95	1083.04
715.29	1083.29
715.62	1083.55
715.96	1084.39
716.29	1088.77
716.63	1089.33
716.96	1086.57
717.29	1085.94
717.63	1085.77
717.96	1086.43
718.30	1086.20
718.63	1086.15
718.97	1084.63
719.30	1081.05
719.63	1076.81
719.97	1074.91
720.30	1073.65
720.64	1077.58
720.97	1079.60
721.30	1079.03
721.64	1079.34
721.97	1080.67
722.31	1077.89
722.64	1078.28
722.97	1081.66
723.31	1083.13
723.64	1083.48
723.97	1082.40
724.31	1082.80
724.64	1081.61
724.98	1079.08
725.31	1077.93
725.64	1081.16
725.98	1080.65
726.31	1079.31
726.64	1080.02
726.97	1081.70
727.31	1081.66
727.64	1082.05
727.97	1083.41
728.31	1083.88
728.64	1084.96
728.97	1079.97
729.31	1078.28
729.64	1078.00
729.97	1079.57
730.30	1080.46
730.64	1084.25
730.97	1085.03
731.30	1082.50
731.63	1081.80
731.97	1079.13
732.30	1080.91
732.63	1080.60
732.96	1083.95
733.30	1081.89
733.63	1082.99
733.96	1082.43
734.29	1084.11
734.63	1082.54
734.96	1079.24
735.29	1077.75
735.62	1077.42
735.95	1076.46
736.29	1078.17
736.62	1081.70
736.95	1086.57
737.28	1088.40
737.61	1089.45
737.94	1091.37
738.28	1095.51
738.61	1090.20
738.94	1090.13
739.27	1086.20
739.60	1083.69
739.93	1080.74
740.27	1082.08
740.60	1077.04
740.93	1078.24
741.26	1075.90
741.59	1077.14
741.92	1076.81
742.25	1079.53
742.58	1078.61
742.91	1081.30
743.25	1080.67
743.58	1077.75
743.91	1078.61
744.24	1082.61
744.57	1080.65
744.90	1081.19
745.23	1084.42
745.56	1087.79
745.89	1087.46
746.22	1088.68
746.55	1084.53
746.88	1082.64
747.21	1078.68
747.54	1078.31
747.87	1080.27
748.20	1083.97
748.53	1085.17
748.87	1088.28
749.20	1085.35
749.53	1082.03
749.86	1080.74
750.19	1080.48
750.52	1076.53
750.85	1079.08
751.18	1080.48
751.51	1082.36
751.84	1081.89
752.16	1082.59
752.49	1083.48
752.82	1084.30
753.15	1083.15
753.48	1083.95
753.81	1085.00
754.14	1084.77
754.47	1085.91
754.80	1087.25
755.13	1088.21
755.46	1085.94
755.79	1082.47
756.12	1083.25
756.45	1081.98
756.78	1080.30
757.11	1081.23
757.43	1085.61
757.76	1083.13
758.09	1084.98
758.42	1086.85
758.75	1087.55
759.08	1085.19
759.41	1084.35
759.74	1082.59
760.07	1081.14
760.39	1080.84
760.72	1081.87
761.05	1082.87
761.38	1083.39
761.71	1084.09
762.04	1084.23
762.36	1083.90
762.69	1084.04
763.02	1080.70
763.35	1078.40
763.68	1079.03
764.01	1080.72
764.33	1078.66
764.66	1083.20
764.99	1087.72
765.32	1084.70
765.65	1084.09
765.97	1084.86
766.30	1083.29
