SpectraSuite Data File
++++++++++++++++++++++++++++++++++++
Date: Mon Aug 26 10:26:32 PDT 2019
User: corrico
Dark Spectrum Present: No
Reference Spectrum Present: No
Number of Sampled Component Spectra: 1
Spectrometers: USB2+H06089
Integration Time (usec): 10000 (USB2+H06089)
Spectra Averaged: 20 (USB2+H06089)
Boxcar Smoothing: 2 (USB2+H06089)
Correct for Electrical Dark: No (USB2+H06089)
Strobe/Lamp Enabled: No (USB2+H06089)
Correct for Detector Non-linearity: No (USB2+H06089)
Correct for Stray Light: No (USB2+H06089)
Number of Pixels in Processed Spectrum: 2048
>>>>>Begin Processed Spectral Data<<<<<
339.70	1033.58
340.07	1033.58
340.45	998.99
340.82	977.71
341.19	953.65
341.57	927.72
341.94	915.71
342.31	907.96
342.69	902.98
343.06	899.47
343.43	901.06
343.81	904.08
344.18	906.21
344.55	909.63
344.93	914.73
345.30	920.72
345.67	928.07
346.04	938.44
346.42	948.20
346.79	957.77
347.16	964.75
347.54	972.70
347.91	977.95
348.28	988.60
348.65	996.86
349.03	1004.30
349.40	1013.17
349.77	1023.77
350.14	1031.75
350.52	1038.29
350.89	1046.73
351.26	1051.42
351.63	1054.34
352.01	1057.20
352.38	1064.12
352.75	1069.09
353.12	1073.58
353.50	1080.30
353.87	1082.31
354.24	1085.80
354.61	1086.59
354.98	1091.42
355.36	1092.98
355.73	1090.46
356.10	1088.00
356.47	1089.19
356.84	1086.97
357.22	1082.12
357.59	1084.60
357.96	1086.10
358.33	1087.67
358.70	1087.62
359.08	1091.60
359.45	1094.15
359.82	1095.49
360.19	1092.80
360.56	1091.58
360.94	1091.72
361.31	1088.84
361.68	1086.97
362.05	1084.53
362.42	1083.04
362.79	1081.84
363.16	1083.29
363.54	1083.08
363.91	1087.02
364.28	1087.32
364.65	1084.58
365.02	1082.22
365.39	1079.36
365.76	1078.59
366.14	1081.09
366.51	1084.49
366.88	1087.67
367.25	1087.18
367.62	1084.96
367.99	1082.90
368.36	1078.26
368.73	1074.26
369.10	1075.59
369.48	1077.18
369.85	1079.48
370.22	1081.58
370.59	1085.05
370.96	1088.04
371.33	1085.31
371.70	1083.06
372.07	1084.25
372.44	1082.24
372.81	1077.98
373.18	1080.51
373.55	1080.60
373.93	1080.84
374.30	1082.43
374.67	1086.29
375.04	1084.53
375.41	1087.81
375.78	1089.78
376.15	1088.44
376.52	1087.20
376.89	1090.95
377.26	1090.71
377.63	1085.45
378.00	1087.65
378.37	1088.93
378.74	1086.15
379.11	1084.70
379.48	1085.94
379.85	1084.02
380.22	1083.15
380.59	1083.55
380.96	1083.97
381.33	1084.84
381.70	1085.80
382.07	1085.33
382.44	1085.99
382.81	1087.34
383.18	1089.68
383.55	1088.82
383.92	1091.53
384.29	1091.86
384.66	1089.68
385.03	1089.29
385.40	1088.72
385.77	1089.78
386.14	1090.27
386.51	1093.52
386.88	1090.90
387.25	1089.54
387.62	1087.60
387.99	1086.17
388.36	1081.49
388.73	1082.66
389.10	1086.08
389.46	1084.70
389.83	1087.53
390.20	1090.06
390.57	1090.76
390.94	1091.23
391.31	1093.05
391.68	1094.97
392.05	1096.52
392.42	1097.55
392.79	1095.91
393.16	1092.68
393.53	1091.95
393.89	1091.13
394.26	1090.15
394.63	1088.98
395.00	1092.45
395.37	1092.02
395.74	1091.95
396.11	1095.84
396.48	1097.71
396.84	1094.08
397.21	1092.19
397.58	1093.26
397.95	1089.26
398.32	1091.09
398.69	1092.66
399.06	1091.46
399.42	1091.39
399.79	1093.87
400.16	1092.33
400.53	1093.26
400.90	1094.04
401.27	1094.01
401.64	1090.55
402.00	1091.42
402.37	1091.02
402.74	1090.74
403.11	1091.23
403.48	1092.96
403.84	1093.36
404.21	1094.46
404.58	1098.53
404.95	1098.27
405.32	1099.07
405.68	1100.15
406.05	1100.71
406.42	1099.86
406.79	1098.25
407.16	1098.79
407.52	1094.83
407.89	1097.08
408.26	1095.75
408.63	1097.10
408.99	1097.10
409.36	1099.89
409.73	1097.83
410.10	1096.59
410.47	1098.46
410.83	1097.20
411.20	1099.44
411.57	1101.01
411.94	1105.27
412.30	1108.69
412.67	1111.10
413.04	1110.49
413.40	1109.98
413.77	1107.78
414.14	1105.36
414.51	1107.45
414.87	1106.28
415.24	1108.01
415.61	1108.66
415.97	1107.24
416.34	1106.44
416.71	1106.79
417.08	1106.32
417.44	1105.41
417.81	1103.75
418.18	1103.45
418.54	1104.94
418.91	1107.40
419.28	1108.36
419.64	1111.15
420.01	1113.42
420.38	1110.87
420.74	1110.28
421.11	1111.38
421.48	1111.29
421.84	1108.17
422.21	1111.26
422.58	1112.25
422.94	1111.50
423.31	1112.48
423.68	1115.22
424.04	1116.37
424.41	1115.80
424.77	1115.17
425.14	1112.78
425.51	1108.69
425.87	1109.95
426.24	1110.21
426.61	1110.61
426.97	1114.75
427.34	1120.46
427.70	1116.30
428.07	1114.61
428.44	1114.68
428.80	1114.96
429.17	1112.15
429.53	1113.84
429.90	1111.57
430.27	1113.09
430.63	1106.91
431.00	1107.38
431.36	1107.64
431.73	1110.98
432.09	1113.81
432.46	1117.14
432.83	1117.77
433.19	1116.83
433.56	1115.76
433.92	1112.76
434.29	1114.63
434.65	1113.35
435.02	1115.27
435.38	1116.39
435.75	1118.42
436.11	1117.37
436.48	1121.44
436.84	1120.27
437.21	1116.81
437.57	1115.38
437.94	1116.39
438.30	1114.80
438.67	1114.19
439.03	1116.30
439.40	1114.54
439.76	1113.25
440.13	1111.89
440.49	1111.75
440.86	1113.53
441.22	1112.32
441.59	1111.71
441.95	1111.64
442.32	1112.53
442.68	1111.12
443.05	1115.66
443.41	1116.32
443.78	1116.06
444.14	1117.28
444.51	1116.79
444.87	1116.22
445.24	1111.92
445.60	1110.07
445.96	1110.70
446.33	1109.65
446.69	1108.43
447.06	1112.83
447.42	1112.69
447.79	1109.32
448.15	1110.70
448.51	1110.94
448.88	1109.58
449.24	1113.18
449.61	1114.77
449.97	1113.44
450.33	1112.18
450.70	1112.60
451.06	1110.09
451.43	1111.08
451.79	1113.16
452.15	1114.09
452.52	1115.01
452.88	1112.60
453.24	1112.55
453.61	1113.98
453.97	1116.46
454.34	1114.75
454.70	1115.78
455.06	1115.48
455.43	1112.90
455.79	1110.26
456.15	1117.21
456.52	1119.13
456.88	1121.35
457.24	1123.11
457.61	1124.32
457.97	1118.03
458.33	1117.42
458.70	1113.35
459.06	1114.73
459.42	1114.59
459.79	1116.86
460.15	1117.49
460.51	1118.54
460.88	1116.90
461.24	1115.99
461.60	1117.04
461.96	1116.76
462.33	1119.74
462.69	1122.01
463.05	1123.43
463.42	1125.82
463.78	1128.61
464.14	1127.27
464.50	1124.09
464.87	1124.23
465.23	1123.46
465.59	1123.62
465.95	1124.56
466.32	1128.63
466.68	1132.49
467.04	1131.16
467.40	1131.13
467.77	1131.37
468.13	1131.67
468.49	1130.36
468.85	1133.87
469.22	1135.77
469.58	1138.53
469.94	1139.63
470.30	1141.99
470.66	1142.11
471.03	1143.02
471.39	1145.34
471.75	1149.55
472.11	1148.31
472.47	1150.35
472.84	1154.61
473.20	1158.75
473.56	1160.27
473.92	1167.48
474.28	1170.62
474.65	1172.96
475.01	1172.98
475.37	1174.55
475.73	1177.80
476.09	1182.13
476.45	1184.85
476.81	1190.37
477.18	1191.96
477.54	1197.86
477.90	1201.35
478.26	1207.88
478.62	1215.84
478.98	1228.36
479.34	1235.22
479.71	1244.58
480.07	1255.84
480.43	1265.67
480.79	1273.32
481.15	1283.18
481.51	1294.55
481.87	1305.78
482.23	1313.18
482.59	1325.30
482.96	1337.94
483.32	1355.40
483.68	1367.08
484.04	1388.45
484.40	1408.70
484.76	1424.99
485.12	1437.51
485.48	1457.62
485.84	1473.91
486.20	1492.21
486.56	1516.39
486.92	1541.69
487.28	1566.85
487.64	1592.52
488.00	1619.88
488.37	1648.65
488.73	1683.88
489.09	1716.27
489.45	1754.11
489.81	1791.70
490.17	1829.46
490.53	1867.02
490.89	1910.60
491.25	1956.29
491.61	2001.02
491.97	2051.18
492.33	2102.97
492.69	2153.55
493.05	2205.95
493.41	2269.87
493.77	2330.03
494.13	2395.35
494.49	2466.15
494.85	2543.18
495.21	2614.24
495.57	2689.28
495.93	2772.20
496.29	2857.89
496.64	2948.35
497.00	3039.28
497.36	3146.55
497.72	3248.10
498.08	3362.06
498.44	3478.13
498.80	3604.78
499.16	3738.54
499.52	3883.96
499.88	4037.92
500.24	4193.82
500.60	4352.48
500.96	4520.23
501.32	4685.64
501.68	4858.34
502.03	5048.42
502.39	5264.80
502.75	5478.21
503.11	5709.97
503.47	5935.15
503.83	6173.94
504.19	6425.17
504.55	6695.10
504.91	6981.40
505.26	7272.82
505.62	7586.89
505.98	7908.65
506.34	8245.71
506.70	8604.04
507.06	9002.57
507.42	9408.09
507.78	9823.16
508.13	10244.81
508.49	10690.84
508.85	11159.42
509.21	11648.89
509.57	12184.06
509.93	12746.37
510.28	13341.73
510.64	13969.67
511.00	14596.94
511.36	15189.02
511.72	15796.11
512.07	16455.53
512.43	17081.04
512.79	17757.74
513.15	18488.17
513.51	19225.30
513.86	19961.47
514.22	20810.64
514.58	21601.53
514.94	22441.71
515.30	23308.11
515.65	24141.53
516.01	24964.25
516.37	25847.68
516.73	26663.22
517.08	27570.71
517.44	28435.94
517.80	29278.35
518.16	30147.76
518.51	30976.71
518.87	31705.44
519.23	32582.97
519.59	33496.27
519.94	34347.41
520.30	35237.49
520.66	36031.73
521.01	36825.45
521.37	37491.12
521.73	38129.81
522.09	38748.69
522.44	39424.45
522.80	39846.36
523.16	40212.49
523.51	40461.19
523.87	40749.36
524.23	41030.27
524.58	41305.38
524.94	41703.88
525.30	42084.07
525.65	42289.29
526.01	42308.53
526.37	42316.30
526.72	42226.68
527.08	42070.73
527.44	41868.67
527.79	41737.28
528.15	41639.75
528.51	41407.61
528.86	41159.72
529.22	40936.27
529.58	40672.59
529.93	40277.81
530.29	39825.88
530.65	39467.40
531.00	39096.00
531.36	38641.82
531.71	38174.39
532.07	37702.92
532.43	37135.99
532.78	36465.83
533.14	35864.45
533.49	35275.57
533.85	34654.14
534.21	34024.58
534.56	33472.80
534.92	32877.34
535.27	32249.89
535.63	31623.80
535.98	30982.14
536.34	30335.85
536.69	29657.21
537.05	29028.85
537.41	28509.34
537.76	28004.09
538.12	27453.62
538.47	26972.52
538.83	26532.87
539.18	26064.16
539.54	25575.71
539.89	25119.99
540.25	24600.11
540.60	24085.42
540.96	23529.69
541.31	23037.26
541.67	22588.09
542.02	22178.75
542.38	21738.85
542.73	21291.97
543.09	20893.80
543.44	20534.55
543.80	20196.23
544.15	19802.10
544.51	19483.81
544.86	19144.22
545.22	18756.42
545.57	18353.47
545.93	17975.36
546.28	17637.20
546.64	17310.72
546.99	16975.23
547.35	16636.53
547.70	16347.45
548.05	16033.30
548.41	15717.73
548.76	15410.91
549.12	15136.29
549.47	14857.35
549.83	14596.05
550.18	14273.73
550.53	13945.24
550.89	13669.52
551.24	13384.45
551.60	13076.76
551.95	12823.94
552.30	12589.88
552.66	12345.81
553.01	12082.50
553.37	11817.97
553.72	11532.12
554.07	11266.22
554.43	10962.51
554.78	10678.67
555.13	10409.56
555.49	10192.03
555.84	9991.72
556.19	9798.51
556.55	9607.92
556.90	9414.03
557.26	9200.97
557.61	8976.82
557.96	8738.67
558.32	8535.14
558.67	8332.71
559.02	8111.17
559.37	7907.73
559.73	7758.22
560.08	7596.26
560.43	7444.61
560.79	7320.00
561.14	7167.66
561.49	6997.31
561.85	6835.49
562.20	6671.37
562.55	6534.47
562.90	6414.99
563.26	6295.74
563.61	6181.21
563.96	6071.77
564.32	5945.41
564.67	5815.86
565.02	5691.25
565.37	5575.79
565.73	5458.85
566.08	5346.39
566.43	5239.90
566.78	5133.47
567.14	5018.60
567.49	4911.29
567.84	4811.84
568.19	4705.97
568.54	4610.20
568.90	4526.90
569.25	4451.68
569.60	4379.68
569.95	4307.85
570.31	4234.15
570.66	4154.45
571.01	4060.88
571.36	3962.29
571.71	3886.16
572.06	3812.22
572.42	3749.61
572.77	3694.23
573.12	3639.72
573.47	3576.34
573.82	3515.72
574.18	3445.03
574.53	3382.78
574.88	3329.93
575.23	3278.18
575.58	3222.68
575.93	3172.15
576.28	3123.84
576.64	3063.34
576.99	3007.10
577.34	2955.21
577.69	2901.56
578.04	2845.34
578.39	2799.21
578.74	2756.05
579.09	2716.26
579.44	2677.36
579.80	2638.84
580.15	2592.21
580.50	2549.78
580.85	2511.04
581.20	2481.76
581.55	2449.44
581.90	2422.24
582.25	2389.87
582.60	2352.73
582.95	2314.02
583.30	2278.00
583.65	2243.05
584.00	2208.53
584.35	2177.63
584.71	2141.64
585.06	2113.08
585.41	2079.59
585.76	2051.95
586.11	2025.38
586.46	2005.23
586.81	1982.64
587.16	1968.27
587.51	1950.27
587.86	1928.46
588.21	1905.17
588.56	1882.89
588.91	1860.45
589.26	1843.03
589.61	1825.73
589.96	1808.09
590.31	1792.57
590.66	1777.80
591.01	1759.52
591.36	1742.34
591.71	1724.65
592.06	1704.73
592.41	1686.68
592.76	1672.17
593.10	1657.05
593.45	1640.81
593.80	1627.12
594.15	1611.58
594.50	1594.63
594.85	1581.76
595.20	1575.93
595.55	1567.27
595.90	1556.55
596.25	1548.92
596.60	1536.56
596.95	1522.59
597.30	1510.07
597.64	1551.99
597.99	1543.47
598.34	1536.51
598.69	1529.24
599.04	1520.01
599.39	1460.24
599.74	1450.92
600.09	1442.73
600.44	1433.37
600.78	1426.28
601.13	1419.00
601.48	1410.55
601.83	1405.30
602.18	1394.80
602.53	1387.96
602.88	1379.39
603.22	1370.38
603.57	1357.42
603.92	1353.16
604.27	1348.20
604.62	1342.84
604.97	1336.68
605.31	1334.71
605.66	1329.12
606.01	1319.59
606.36	1308.59
606.71	1305.50
607.05	1298.22
607.40	1293.17
607.75	1292.72
608.10	1293.61
608.44	1285.87
608.79	1281.79
609.14	1276.22
609.49	1271.38
609.84	1266.21
610.18	1264.05
610.53	1261.06
610.88	1258.69
611.23	1252.77
611.57	1251.32
611.92	1246.78
612.27	1243.43
612.62	1239.36
612.96	1235.80
613.31	1230.61
613.66	1230.61
614.00	1226.35
614.35	1221.88
614.70	1220.21
615.05	1218.11
615.39	1213.12
615.74	1211.55
616.09	1209.71
616.43	1203.53
616.78	1197.58
617.13	1192.74
617.47	1191.54
617.82	1191.24
618.17	1191.40
618.51	1188.50
618.86	1188.01
619.21	1181.90
619.55	1178.65
619.90	1173.83
620.25	1173.47
620.59	1172.54
620.94	1168.35
621.29	1167.95
621.63	1169.05
621.98	1168.04
622.32	1162.85
622.67	1165.77
623.02	1161.49
623.36	1160.88
623.71	1159.17
624.05	1163.43
624.40	1162.64
624.75	1163.20
625.09	1158.94
625.44	1158.17
625.78	1150.49
626.13	1145.81
626.48	1142.79
626.82	1140.22
627.17	1138.97
627.51	1141.67
627.86	1140.92
628.20	1142.44
628.55	1145.39
628.89	1140.07
629.24	1138.06
629.58	1140.66
629.93	1134.76
630.28	1133.19
630.62	1135.84
630.97	1135.79
631.31	1134.46
631.66	1134.79
632.00	1131.63
632.35	1127.18
632.69	1123.06
633.04	1119.97
633.38	1118.05
633.73	1117.51
634.07	1119.71
634.42	1123.20
634.76	1123.62
635.11	1123.69
635.45	1123.39
635.79	1122.66
636.14	1120.09
636.48	1116.97
636.83	1119.03
637.17	1115.85
637.52	1115.87
637.86	1115.55
638.21	1114.24
638.55	1110.51
638.89	1110.72
639.24	1108.15
639.58	1108.24
639.93	1108.57
640.27	1109.95
640.61	1112.11
640.96	1112.39
641.30	1110.23
641.65	1111.33
641.99	1112.04
642.33	1112.25
642.68	1111.54
643.02	1111.80
643.37	1111.80
643.71	1111.78
644.05	1109.95
644.40	1111.82
644.74	1109.60
645.08	1110.58
645.43	1109.34
645.77	1108.48
646.11	1110.89
646.46	1112.83
646.80	1108.78
647.14	1109.09
647.49	1110.35
647.83	1107.05
648.17	1106.46
648.52	1107.12
648.86	1108.29
649.20	1106.63
649.55	1105.69
649.89	1103.73
650.23	1102.35
650.57	1101.03
650.92	1100.43
651.26	1100.19
651.60	1101.69
651.95	1101.85
652.29	1102.44
652.63	1104.17
652.97	1104.31
653.32	1103.07
653.66	1105.69
654.00	1102.09
654.34	1098.76
654.69	1095.89
655.03	1096.14
655.37	1093.87
655.71	1094.08
656.05	1094.50
656.40	1097.13
656.74	1099.51
657.08	1101.13
657.42	1103.14
657.76	1105.15
658.11	1104.85
658.45	1101.64
658.79	1100.47
659.13	1097.17
659.47	1096.03
659.82	1097.24
660.16	1096.78
660.50	1096.82
660.84	1097.92
661.18	1098.48
661.52	1096.21
661.87	1096.24
662.21	1096.47
662.55	1099.47
662.89	1098.83
663.23	1096.68
663.57	1099.47
663.91	1097.38
664.25	1094.08
664.60	1094.41
664.94	1094.18
665.28	1093.15
665.62	1097.43
665.96	1098.48
666.30	1095.84
666.64	1097.90
666.98	1095.16
667.32	1094.83
667.66	1093.80
668.01	1094.62
668.35	1093.71
668.69	1095.56
669.03	1092.40
669.37	1092.30
669.71	1095.44
670.05	1095.79
670.39	1090.01
670.73	1090.06
671.07	1090.36
671.41	1087.62
671.75	1089.64
672.09	1097.15
672.43	1100.45
672.77	1100.85
673.11	1103.40
673.45	1102.49
673.79	1100.38
674.13	1095.72
674.47	1096.21
674.81	1093.22
675.15	1094.22
675.49	1093.40
675.83	1093.45
676.17	1091.25
676.51	1092.26
676.85	1091.37
677.19	1090.32
677.53	1089.73
677.87	1091.70
678.21	1087.32
678.55	1086.52
678.89	1087.86
679.23	1089.50
679.57	1086.59
679.90	1092.09
680.24	1092.26
680.58	1092.19
680.92	1093.29
681.26	1093.40
681.60	1088.98
681.94	1088.21
682.28	1087.88
682.62	1088.75
682.96	1088.77
683.29	1090.92
683.63	1092.68
683.97	1089.26
684.31	1084.72
684.65	1086.73
684.99	1086.71
685.33	1085.52
685.67	1086.83
686.00	1088.75
686.34	1088.77
686.68	1088.35
687.02	1087.23
687.36	1092.35
687.70	1092.73
688.03	1093.03
688.37	1093.64
688.71	1094.39
689.05	1091.86
689.39	1090.24
689.72	1091.56
690.06	1092.09
690.40	1092.30
690.74	1091.84
691.08	1095.39
691.41	1094.13
691.75	1092.45
692.09	1089.92
692.43	1090.15
692.76	1091.56
693.10	1092.00
693.44	1093.64
693.78	1093.99
694.11	1096.99
694.45	1093.05
694.79	1092.84
695.13	1089.40
695.46	1089.45
695.80	1086.66
696.14	1089.57
696.48	1092.00
696.81	1094.90
697.15	1096.78
697.49	1096.49
697.82	1095.70
698.16	1092.00
698.50	1093.03
698.83	1094.15
699.17	1095.18
699.51	1092.96
699.84	1092.40
700.18	1092.96
700.52	1092.77
700.85	1093.71
701.19	1096.21
701.53	1097.71
701.86	1097.13
702.20	1094.32
702.54	1091.91
702.87	1089.22
703.21	1085.94
703.55	1085.12
703.88	1088.86
704.22	1089.94
704.55	1090.27
704.89	1093.99
705.23	1092.54
705.56	1089.99
705.90	1090.62
706.23	1089.29
706.57	1087.37
706.91	1089.66
707.24	1091.09
707.58	1089.38
707.91	1092.66
708.25	1094.36
708.58	1093.03
708.92	1093.29
709.26	1092.87
709.59	1090.10
709.93	1091.20
710.26	1091.56
710.60	1092.19
710.93	1095.00
711.27	1095.28
711.60	1093.85
711.94	1093.26
712.27	1089.36
712.61	1085.24
712.94	1086.94
713.28	1087.32
713.61	1088.93
713.95	1091.09
714.28	1095.35
714.62	1097.99
714.95	1095.23
715.29	1097.06
715.62	1095.23
715.96	1091.95
716.29	1088.19
716.63	1090.76
716.96	1088.28
717.29	1089.52
717.63	1090.34
717.96	1089.75
718.30	1088.35
718.63	1085.28
718.97	1085.54
719.30	1083.81
719.63	1082.33
719.97	1081.96
720.30	1086.03
720.64	1084.96
720.97	1088.33
721.30	1091.51
721.64	1091.86
721.97	1088.28
722.31	1088.35
722.64	1085.26
722.97	1085.89
723.31	1087.53
723.64	1089.73
723.97	1092.52
724.31	1093.40
724.64	1090.74
724.98	1088.35
725.31	1089.14
725.64	1084.72
725.98	1084.23
726.31	1085.45
726.64	1086.17
726.97	1084.30
727.31	1087.44
727.64	1086.94
727.97	1087.81
728.31	1088.37
728.64	1090.03
728.97	1090.81
729.31	1091.65
729.64	1090.74
729.97	1093.19
730.30	1094.36
730.64	1096.99
730.97	1097.99
731.30	1101.50
731.63	1098.16
731.97	1097.97
732.30	1092.84
732.63	1092.91
732.96	1089.12
733.30	1091.20
733.63	1089.36
733.96	1090.97
734.29	1092.05
734.63	1093.66
734.96	1091.86
735.29	1089.87
735.62	1087.32
735.95	1085.40
736.29	1081.40
736.62	1083.06
736.95	1086.66
737.28	1089.43
737.61	1088.44
737.94	1089.82
738.28	1089.33
738.61	1088.70
738.94	1089.17
739.27	1088.89
739.60	1087.79
739.93	1087.06
740.27	1085.10
740.60	1081.77
740.93	1082.59
741.26	1088.16
741.59	1087.48
741.92	1088.21
742.25	1089.61
742.58	1090.62
742.91	1090.67
743.25	1086.83
743.58	1086.36
743.91	1088.65
744.24	1091.53
744.57	1086.36
744.90	1092.14
745.23	1090.13
745.56	1088.96
745.89	1086.36
746.22	1088.37
746.55	1087.76
746.88	1093.12
747.21	1092.45
747.54	1088.82
747.87	1090.81
748.20	1090.20
748.53	1087.60
748.87	1088.82
749.20	1091.67
749.53	1089.19
749.86	1087.69
750.19	1088.84
750.52	1088.51
750.85	1086.50
751.18	1087.72
751.51	1086.27
751.84	1083.43
752.16	1081.51
752.49	1083.32
752.82	1083.46
753.15	1085.40
753.48	1086.59
753.81	1092.82
754.14	1092.07
754.47	1089.50
754.80	1089.31
755.13	1090.60
755.46	1084.70
755.79	1084.96
756.12	1090.06
756.45	1089.96
756.78	1089.45
757.11	1088.98
757.43	1089.36
757.76	1085.14
758.09	1085.10
758.42	1087.58
758.75	1088.26
759.08	1088.84
759.41	1089.50
759.74	1090.08
760.07	1084.79
760.39	1086.10
760.72	1084.11
761.05	1086.64
761.38	1086.94
761.71	1091.39
762.04	1092.54
762.36	1094.97
762.69	1092.49
763.02	1093.83
763.35	1092.30
