SpectraSuite Data File
++++++++++++++++++++++++++++++++++++
Date: Mon Aug 26 10:26:31 PDT 2019
User: corrico
Dark Spectrum Present: No
Reference Spectrum Present: No
Number of Sampled Component Spectra: 1
Spectrometers: USB2+H06089
Integration Time (usec): 10000 (USB2+H06089)
Spectra Averaged: 20 (USB2+H06089)
Boxcar Smoothing: 2 (USB2+H06089)
Correct for Electrical Dark: No (USB2+H06089)
Strobe/Lamp Enabled: No (USB2+H06089)
Correct for Detector Non-linearity: No (USB2+H06089)
Correct for Stray Light: No (USB2+H06089)
Number of Pixels in Processed Spectrum: 2048
>>>>>Begin Processed Spectral Data<<<<<
339.70	1033.35
340.07	1033.35
340.45	996.72
340.82	977.52
341.19	951.12
341.57	926.69
341.94	919.08
342.31	907.29
342.69	903.77
343.06	902.42
343.43	897.34
343.81	898.88
344.18	906.21
344.55	906.89
344.93	911.64
345.30	920.37
345.67	925.03
346.04	931.58
346.42	941.27
346.79	951.97
347.16	964.91
347.54	978.23
347.91	986.00
348.28	995.22
348.65	1005.42
349.03	1013.26
349.40	1019.56
349.77	1030.84
350.14	1033.72
350.52	1038.29
350.89	1042.54
351.26	1043.74
351.63	1044.65
352.01	1052.21
352.38	1058.25
352.75	1061.36
353.12	1067.78
353.50	1074.12
353.87	1077.96
354.24	1081.49
354.61	1082.57
354.98	1083.25
355.36	1083.50
355.73	1084.89
356.10	1082.40
356.47	1086.97
356.84	1092.49
357.22	1092.49
357.59	1088.70
357.96	1090.03
358.33	1086.08
358.70	1083.48
359.08	1085.94
359.45	1088.54
359.82	1088.75
360.19	1092.12
360.56	1091.27
360.94	1087.55
361.31	1086.52
361.68	1085.49
362.05	1083.62
362.42	1083.08
362.79	1081.56
363.16	1079.99
363.54	1077.40
363.91	1076.72
364.28	1077.00
364.65	1080.65
365.02	1080.91
365.39	1084.07
365.76	1084.49
366.14	1083.86
366.51	1081.80
366.88	1082.47
367.25	1077.33
367.62	1076.53
367.99	1074.03
368.36	1071.97
368.73	1070.70
369.10	1075.87
369.48	1074.63
369.85	1075.59
370.22	1079.81
370.59	1077.07
370.96	1074.98
371.33	1075.34
371.70	1077.70
372.07	1076.48
372.44	1076.86
372.81	1076.44
373.18	1077.93
373.55	1076.86
373.93	1077.51
374.30	1080.37
374.67	1079.53
375.04	1078.78
375.41	1080.74
375.78	1077.47
376.15	1078.43
376.52	1080.13
376.89	1080.37
377.26	1078.82
377.63	1081.84
378.00	1081.47
378.37	1082.31
378.74	1083.25
379.11	1082.90
379.48	1081.02
379.85	1083.39
380.22	1083.48
380.59	1082.08
380.96	1083.53
381.33	1084.63
381.70	1082.54
382.07	1083.97
382.44	1086.55
382.81	1087.60
383.18	1088.49
383.55	1089.47
383.92	1086.69
384.29	1085.19
384.66	1082.99
385.03	1082.71
385.40	1084.28
385.77	1086.55
386.14	1085.80
386.51	1085.24
386.88	1085.21
387.25	1083.53
387.62	1083.29
387.99	1083.13
388.36	1083.67
388.73	1083.36
389.10	1079.15
389.46	1080.98
389.83	1084.00
390.20	1086.80
390.57	1088.09
390.94	1093.64
391.31	1093.73
391.68	1090.69
392.05	1089.14
392.42	1088.54
392.79	1085.28
393.16	1083.18
393.53	1082.85
393.89	1082.50
394.26	1085.12
394.63	1085.28
395.00	1089.19
395.37	1092.30
395.74	1094.74
396.11	1094.93
396.48	1097.92
396.84	1094.69
397.21	1092.80
397.58	1091.84
397.95	1090.13
398.32	1092.05
398.69	1094.08
399.06	1096.24
399.42	1094.11
399.79	1093.38
400.16	1091.93
400.53	1092.47
400.90	1092.07
401.27	1092.98
401.64	1093.01
402.00	1092.19
402.37	1090.92
402.74	1090.50
403.11	1092.66
403.48	1092.21
403.84	1092.77
404.21	1091.51
404.58	1092.87
404.95	1096.75
405.32	1098.18
405.68	1096.63
406.05	1100.89
406.42	1100.52
406.79	1095.93
407.16	1098.93
407.52	1101.32
407.89	1097.55
408.26	1097.24
408.63	1099.86
408.99	1098.37
409.36	1097.01
409.73	1102.60
410.10	1103.54
410.47	1099.30
410.83	1100.12
411.20	1100.12
411.57	1094.36
411.94	1092.87
412.30	1094.97
412.67	1096.52
413.04	1098.95
413.40	1100.19
413.77	1104.38
414.14	1105.01
414.51	1103.94
414.87	1104.62
415.24	1106.44
415.61	1106.63
415.97	1105.15
416.34	1105.11
416.71	1105.41
417.08	1109.27
417.44	1105.20
417.81	1106.49
418.18	1103.35
418.54	1100.85
418.91	1099.02
419.28	1104.17
419.64	1106.84
420.01	1108.88
420.38	1112.39
420.74	1110.58
421.11	1107.14
421.48	1107.68
421.84	1108.90
422.21	1107.17
422.58	1104.24
422.94	1106.58
423.31	1105.74
423.68	1104.31
424.04	1109.81
424.41	1112.76
424.77	1113.04
425.14	1114.89
425.51	1116.81
425.87	1113.81
426.24	1115.10
426.61	1111.97
426.97	1110.68
427.34	1111.36
427.70	1111.43
428.07	1108.99
428.44	1113.04
428.80	1112.25
429.17	1111.99
429.53	1110.19
429.90	1112.48
430.27	1111.24
430.63	1111.36
431.00	1111.73
431.36	1111.24
431.73	1113.95
432.09	1115.22
432.46	1114.66
432.83	1115.66
433.19	1117.14
433.56	1116.72
433.92	1116.34
434.29	1115.92
434.65	1114.59
435.02	1114.84
435.38	1114.77
435.75	1115.87
436.11	1118.31
436.48	1118.78
436.84	1119.53
437.21	1119.03
437.57	1114.31
437.94	1112.53
438.30	1111.61
438.67	1110.49
439.03	1110.19
439.40	1108.83
439.76	1111.29
440.13	1110.61
440.49	1110.16
440.86	1107.07
441.22	1107.05
441.59	1104.69
441.95	1106.68
442.32	1108.55
442.68	1110.42
443.05	1116.81
443.41	1117.51
443.78	1115.31
444.14	1112.95
444.51	1111.31
444.87	1109.93
445.24	1109.79
445.60	1110.12
445.96	1111.50
446.33	1111.45
446.69	1111.94
447.06	1108.97
447.42	1112.11
447.79	1111.10
448.15	1113.30
448.51	1111.24
448.88	1112.29
449.24	1110.30
449.61	1109.32
449.97	1108.90
450.33	1110.68
450.70	1110.75
451.06	1107.75
451.43	1110.14
451.79	1111.12
452.15	1108.95
452.52	1110.00
452.88	1114.45
453.24	1114.59
453.61	1112.18
453.97	1115.10
454.34	1117.07
454.70	1116.25
455.06	1118.52
455.43	1118.64
455.79	1116.41
456.15	1116.86
456.52	1118.21
456.88	1119.48
457.24	1119.15
457.61	1119.88
457.97	1118.47
458.33	1117.58
458.70	1112.57
459.06	1115.34
459.42	1115.90
459.79	1116.53
460.15	1116.13
460.51	1116.83
460.88	1116.41
461.24	1115.80
461.60	1114.61
461.96	1115.29
462.33	1115.17
462.69	1114.17
463.05	1116.86
463.42	1118.03
463.78	1119.60
464.14	1120.51
464.50	1123.13
464.87	1121.49
465.23	1122.31
465.59	1122.19
465.95	1130.01
466.32	1130.55
466.68	1135.46
467.04	1137.87
467.40	1138.55
467.77	1132.84
468.13	1134.76
468.49	1129.33
468.85	1131.51
469.22	1133.52
469.58	1136.61
469.94	1135.93
470.30	1140.40
470.66	1140.29
471.03	1141.06
471.39	1141.97
471.75	1147.35
472.11	1150.33
472.47	1150.49
472.84	1154.33
473.20	1157.32
473.56	1156.83
473.92	1159.01
474.28	1166.36
474.65	1169.99
475.01	1172.44
475.37	1175.35
475.73	1180.03
476.09	1181.32
476.45	1181.32
476.81	1184.90
477.18	1190.58
477.54	1194.42
477.90	1204.23
478.26	1212.09
478.62	1218.67
478.98	1228.27
479.34	1236.34
479.71	1238.54
480.07	1248.82
480.43	1259.30
480.79	1267.63
481.15	1279.41
481.51	1293.15
481.87	1303.73
482.23	1313.13
482.59	1323.34
482.96	1335.35
483.32	1346.93
483.68	1359.83
484.04	1375.98
484.40	1392.95
484.76	1409.89
485.12	1432.95
485.48	1450.87
485.84	1472.71
486.20	1495.77
486.56	1520.76
486.92	1543.00
487.28	1571.93
487.64	1598.61
488.00	1626.84
488.37	1652.11
488.73	1680.50
489.09	1710.49
489.45	1745.27
489.81	1779.65
490.17	1821.90
490.53	1865.71
490.89	1909.48
491.25	1953.69
491.61	1998.49
491.97	2043.05
492.33	2094.08
492.69	2148.85
493.05	2202.68
493.41	2265.45
493.77	2331.99
494.13	2394.32
494.49	2464.56
494.85	2539.57
495.21	2614.66
495.57	2691.62
495.93	2779.20
496.29	2864.56
496.64	2961.99
497.00	3051.47
497.36	3153.52
497.72	3259.55
498.08	3369.41
498.44	3485.83
498.80	3619.26
499.16	3762.25
499.52	3905.98
499.88	4065.49
500.24	4222.02
500.60	4377.97
500.96	4534.41
501.32	4707.07
501.68	4879.17
502.03	5074.30
502.39	5288.98
502.75	5505.81
503.11	5740.02
503.47	5980.65
503.83	6225.73
504.19	6484.48
504.55	6763.00
504.91	7043.02
505.26	7326.86
505.62	7638.10
505.98	7961.10
506.34	8304.92
506.70	8673.49
507.06	9075.94
507.42	9476.38
507.78	9892.65
508.13	10312.80
508.49	10747.60
508.85	11210.81
509.21	11704.64
509.57	12230.49
509.93	12806.36
510.28	13424.31
510.64	14056.49
511.00	14694.87
511.36	15300.57
511.72	15891.89
512.07	16538.46
512.43	17175.79
512.79	17849.28
513.15	18589.31
513.51	19341.39
513.86	20099.80
514.22	20941.78
514.58	21762.02
514.94	22615.08
515.30	23490.44
515.65	24316.74
516.01	25161.06
516.37	26039.75
516.73	26840.75
517.08	27748.10
517.44	28619.58
517.80	29455.62
518.16	30326.20
518.51	31178.37
518.87	31930.03
519.23	32818.01
519.59	33764.45
519.94	34625.04
520.30	35521.51
520.66	36315.26
521.01	37132.34
521.37	37777.42
521.73	38423.29
522.09	39050.46
522.44	39744.66
522.80	40131.43
523.16	40510.90
523.51	40751.91
523.87	41029.43
524.23	41280.31
524.58	41622.05
524.94	42035.90
525.30	42408.99
525.65	42627.73
526.01	42665.06
526.37	42634.38
526.72	42525.29
527.08	42391.03
527.44	42201.45
527.79	42060.55
528.15	41944.04
528.51	41700.86
528.86	41451.66
529.22	41227.27
529.58	40992.31
529.93	40604.46
530.29	40172.14
530.65	39803.95
531.00	39426.56
531.36	38925.92
531.71	38488.89
532.07	38023.31
532.43	37430.88
532.78	36723.24
533.14	36113.09
533.49	35486.22
533.85	34867.57
534.21	34243.32
534.56	33715.58
534.92	33152.80
535.27	32532.07
535.63	31881.93
535.98	31241.89
536.34	30579.64
536.69	29891.87
537.05	29249.16
537.41	28712.66
537.76	28203.67
538.12	27640.07
538.47	27125.36
538.83	26670.38
539.18	26192.09
539.54	25702.73
539.89	25234.70
540.25	24727.60
540.60	24227.84
540.96	23703.82
541.31	23209.34
541.67	22775.75
542.02	22380.34
542.38	21923.10
542.73	21466.86
543.09	21061.76
543.44	20713.72
543.80	20368.70
544.15	19991.31
544.51	19666.77
544.86	19345.14
545.22	18959.46
545.57	18546.64
545.93	18153.78
546.28	17812.95
546.64	17480.92
546.99	17123.20
547.35	16786.58
547.70	16498.04
548.05	16167.55
548.41	15823.26
548.76	15517.54
549.12	15242.74
549.47	14959.65
549.83	14708.21
550.18	14400.87
550.53	14073.13
550.89	13787.58
551.24	13515.94
551.60	13205.51
551.95	12940.19
552.30	12693.24
552.66	12435.57
553.01	12161.77
553.37	11883.51
553.72	11613.76
554.07	11345.72
554.43	11039.56
554.78	10747.37
555.13	10482.58
555.49	10235.19
555.84	10031.40
556.19	9846.05
556.55	9654.92
556.90	9460.70
557.26	9264.85
557.61	9046.52
557.96	8809.26
558.32	8602.33
558.67	8388.60
559.02	8165.47
559.37	7968.85
559.73	7819.45
560.08	7662.42
560.43	7507.17
560.79	7369.69
561.14	7212.85
561.49	7038.27
561.85	6870.71
562.20	6710.39
562.55	6582.92
562.90	6454.38
563.26	6330.92
563.61	6210.96
563.96	6099.83
564.32	5962.00
564.67	5836.64
565.02	5703.32
565.37	5587.79
565.73	5476.64
566.08	5373.50
566.43	5261.69
566.78	5164.25
567.14	5052.82
567.49	4943.07
567.84	4835.24
568.19	4735.40
568.54	4639.53
568.90	4553.18
569.25	4468.69
569.60	4394.03
569.95	4316.74
570.31	4234.01
570.66	4148.01
571.01	4060.85
571.36	3966.86
571.71	3889.78
572.06	3824.37
572.42	3762.53
572.77	3705.19
573.12	3649.85
573.47	3586.15
573.82	3518.36
574.18	3450.89
574.53	3390.78
574.88	3340.11
575.23	3290.02
575.58	3242.44
575.93	3192.35
576.28	3139.66
576.64	3075.23
576.99	3009.44
577.34	2953.03
577.69	2899.15
578.04	2842.25
578.39	2794.51
578.74	2755.61
579.09	2715.42
579.44	2674.53
579.80	2638.37
580.15	2596.75
580.50	2556.12
580.85	2514.18
581.20	2481.30
581.55	2448.01
581.90	2422.34
582.25	2393.48
582.60	2357.39
582.95	2322.28
583.30	2283.03
583.65	2247.34
584.00	2210.21
584.35	2180.35
584.71	2147.49
585.06	2119.28
585.41	2082.37
585.76	2057.40
586.11	2028.80
586.46	2009.00
586.81	1986.97
587.16	1969.82
587.51	1946.06
587.86	1926.54
588.21	1901.99
588.56	1879.82
588.91	1861.22
589.26	1843.38
589.61	1822.20
589.96	1801.53
590.31	1784.49
590.66	1766.68
591.01	1746.37
591.36	1734.08
591.71	1719.50
592.06	1705.38
592.41	1687.46
592.76	1674.02
593.10	1655.55
593.45	1640.53
593.80	1620.82
594.15	1607.99
594.50	1597.32
594.85	1587.07
595.20	1574.95
595.55	1566.22
595.90	1554.86
596.25	1543.70
596.60	1529.66
596.95	1517.51
597.30	1508.90
597.64	1549.79
597.99	1542.41
598.34	1534.97
598.69	1527.25
599.04	1515.38
599.39	1457.24
599.74	1442.03
600.09	1432.08
600.44	1424.52
600.78	1417.78
601.13	1408.93
601.48	1406.69
601.83	1401.11
602.18	1392.10
602.53	1383.37
602.88	1374.53
603.22	1365.16
603.57	1359.34
603.92	1355.78
604.27	1351.33
604.62	1346.98
604.97	1338.95
605.31	1333.75
605.66	1323.71
606.01	1317.86
606.36	1310.82
606.71	1306.44
607.05	1299.30
607.40	1298.01
607.75	1292.63
608.10	1288.58
608.44	1282.82
608.79	1278.26
609.14	1275.45
609.49	1272.74
609.84	1268.24
610.18	1269.48
610.53	1268.31
610.88	1263.68
611.23	1261.74
611.57	1257.97
611.92	1250.71
612.27	1244.81
612.62	1240.18
612.96	1232.08
613.31	1229.55
613.66	1226.00
614.00	1222.27
614.35	1219.30
614.70	1219.61
615.05	1217.59
615.39	1215.14
615.74	1211.86
616.09	1208.68
616.43	1200.11
616.78	1194.38
617.13	1192.78
617.47	1194.09
617.82	1190.23
618.17	1190.68
618.51	1188.06
618.86	1184.47
619.21	1178.09
619.55	1176.33
619.90	1178.11
620.25	1175.98
620.59	1173.83
620.94	1171.20
621.29	1170.64
621.63	1167.30
621.98	1167.25
622.32	1163.25
622.67	1162.43
623.02	1159.41
623.36	1158.92
623.71	1159.24
624.05	1160.06
624.40	1155.78
624.75	1157.70
625.09	1154.14
625.44	1151.85
625.78	1149.69
626.13	1149.83
626.48	1144.71
626.82	1141.34
627.17	1137.24
627.51	1134.86
627.86	1135.37
628.20	1135.72
628.55	1135.02
628.89	1135.44
629.24	1133.97
629.58	1133.52
629.93	1128.89
630.28	1130.97
630.62	1129.12
630.97	1131.63
631.31	1128.68
631.66	1128.98
632.00	1127.51
632.35	1127.39
632.69	1125.40
633.04	1125.63
633.38	1126.45
633.73	1126.85
634.07	1125.54
634.42	1124.16
634.76	1124.44
635.11	1122.24
635.45	1118.68
635.79	1116.62
636.14	1113.58
636.48	1111.82
636.83	1111.33
637.17	1109.72
637.52	1111.47
637.86	1110.75
638.21	1108.90
638.55	1109.41
638.89	1109.53
639.24	1109.09
639.58	1113.44
639.93	1112.53
640.27	1113.65
640.61	1115.62
640.96	1113.44
641.30	1109.74
641.65	1112.41
641.99	1108.97
642.33	1105.20
642.68	1105.55
643.02	1105.32
643.37	1104.83
643.71	1106.77
644.05	1111.22
644.40	1110.05
644.74	1109.16
645.08	1104.52
645.43	1101.83
645.77	1096.70
646.11	1097.20
646.46	1094.72
646.80	1099.16
647.14	1100.64
647.49	1103.59
647.83	1104.01
648.17	1106.44
648.52	1102.16
648.86	1102.63
649.20	1102.77
649.55	1102.30
649.89	1103.21
650.23	1103.28
650.57	1102.04
650.92	1101.57
651.26	1101.90
651.60	1098.23
651.95	1099.56
652.29	1101.41
652.63	1100.40
652.97	1102.04
653.32	1105.67
653.66	1104.10
654.00	1102.18
654.34	1100.50
654.69	1097.38
655.03	1097.38
655.37	1100.03
655.71	1099.93
656.05	1099.54
656.40	1097.80
656.74	1095.58
657.08	1095.89
657.42	1095.91
657.76	1097.41
658.11	1096.40
658.45	1093.03
658.79	1092.87
659.13	1092.07
659.47	1090.46
659.82	1092.42
660.16	1094.08
660.50	1094.15
660.84	1095.07
661.18	1095.00
661.52	1094.69
661.87	1095.65
662.21	1093.90
662.55	1091.44
662.89	1089.87
663.23	1089.10
663.57	1088.19
663.91	1092.59
664.25	1093.45
664.60	1094.83
664.94	1096.61
665.28	1095.25
665.62	1089.64
665.96	1088.54
666.30	1087.86
666.64	1086.29
666.98	1088.49
667.32	1092.68
667.66	1094.83
668.01	1095.96
668.35	1095.79
668.69	1094.25
669.03	1087.37
669.37	1088.75
669.71	1086.10
670.05	1088.68
670.39	1089.89
670.73	1093.97
671.07	1090.71
671.41	1094.32
671.75	1094.76
672.09	1094.95
672.43	1094.27
672.77	1093.62
673.11	1091.86
673.45	1088.16
673.79	1089.17
674.13	1090.55
674.47	1092.84
674.81	1093.26
675.15	1095.89
675.49	1096.40
675.83	1094.55
676.17	1092.98
676.51	1092.61
676.85	1089.38
677.19	1087.97
677.53	1090.92
677.87	1088.98
678.21	1088.09
678.55	1091.25
678.89	1090.06
679.23	1089.94
679.57	1089.66
679.90	1089.33
680.24	1089.12
680.58	1090.17
680.92	1087.02
681.26	1087.86
681.60	1087.20
681.94	1085.96
682.28	1083.29
682.62	1082.45
682.96	1082.47
683.29	1085.42
683.63	1086.13
683.97	1089.03
684.31	1091.11
684.65	1090.60
684.99	1087.32
685.33	1085.38
685.67	1086.45
686.00	1085.28
686.34	1087.39
686.68	1087.16
687.02	1086.80
687.36	1085.91
687.70	1086.87
688.03	1089.43
688.37	1089.78
688.71	1092.49
689.05	1092.45
689.39	1093.66
689.72	1092.84
690.06	1092.14
690.40	1091.37
690.74	1091.39
691.08	1089.03
691.41	1086.31
691.75	1090.03
692.09	1089.52
692.43	1090.41
692.76	1093.69
693.10	1094.43
693.44	1092.37
693.78	1092.70
694.11	1093.26
694.45	1092.33
694.79	1092.96
695.13	1095.51
695.46	1093.47
695.80	1092.42
696.14	1090.41
696.48	1091.70
696.81	1090.85
697.15	1094.81
697.49	1092.47
697.82	1094.29
698.16	1088.75
698.50	1087.65
698.83	1086.45
699.17	1089.82
699.51	1089.64
699.84	1093.94
700.18	1094.81
700.52	1090.46
700.85	1088.79
701.19	1086.27
701.53	1086.08
701.86	1083.64
702.20	1087.09
702.54	1086.57
702.87	1088.75
703.21	1089.17
703.55	1089.07
703.88	1086.99
704.22	1085.42
704.55	1082.59
704.89	1081.61
705.23	1083.43
705.56	1085.24
705.90	1087.95
706.23	1089.07
706.57	1091.63
706.91	1093.31
707.24	1094.15
707.58	1093.36
707.91	1093.52
708.25	1088.49
708.58	1088.28
708.92	1085.38
709.26	1086.99
709.59	1088.07
709.93	1092.05
710.26	1090.08
710.60	1089.07
710.93	1085.54
711.27	1084.09
711.60	1082.24
711.94	1082.52
712.27	1087.88
712.61	1090.95
712.94	1091.88
713.28	1090.64
713.61	1091.11
713.95	1086.20
714.28	1084.98
714.62	1081.98
714.95	1082.33
715.29	1082.33
715.62	1084.56
715.96	1082.12
716.29	1083.27
716.63	1087.44
716.96	1089.19
717.29	1091.63
717.63	1094.76
717.96	1093.99
718.30	1090.83
718.63	1088.09
718.97	1084.89
719.30	1085.19
719.63	1087.09
719.97	1087.93
720.30	1089.87
720.64	1091.16
720.97	1090.83
721.30	1090.53
721.64	1087.81
721.97	1087.18
722.31	1087.16
722.64	1088.35
722.97	1088.42
723.31	1090.08
723.64	1088.30
723.97	1088.79
724.31	1086.99
724.64	1089.71
724.98	1091.70
725.31	1092.80
725.64	1092.02
725.98	1089.75
726.31	1087.44
726.64	1084.21
726.97	1086.17
727.31	1088.33
727.64	1089.82
727.97	1087.62
728.31	1087.62
728.64	1085.33
728.97	1083.76
729.31	1081.98
729.64	1082.61
729.97	1084.91
730.30	1082.26
730.64	1082.26
730.97	1086.22
731.30	1087.44
731.63	1088.09
731.97	1090.48
732.30	1089.71
732.63	1085.80
732.96	1086.43
733.30	1085.82
733.63	1087.93
733.96	1085.42
734.29	1083.32
734.63	1083.36
734.96	1083.18
735.29	1081.56
735.62	1084.74
735.95	1087.81
736.29	1088.28
736.62	1087.16
736.95	1085.10
737.28	1084.56
737.61	1085.47
737.94	1084.53
738.28	1083.34
738.61	1083.88
738.94	1083.57
739.27	1081.35
739.60	1079.27
739.93	1079.95
740.27	1084.77
740.60	1084.53
740.93	1085.38
741.26	1088.79
741.59	1089.29
741.92	1086.69
742.25	1086.34
742.58	1089.33
742.91	1088.91
743.25	1092.21
743.58	1094.53
743.91	1093.78
744.24	1088.93
744.57	1089.82
744.90	1087.44
745.23	1085.07
745.56	1086.55
745.89	1089.85
746.22	1085.82
746.55	1084.60
746.88	1085.26
747.21	1083.43
747.54	1084.93
747.87	1086.45
748.20	1087.44
748.53	1086.08
748.87	1087.16
749.20	1084.74
749.53	1084.96
749.86	1083.32
750.19	1084.30
750.52	1084.46
750.85	1086.10
751.18	1086.73
751.51	1087.79
751.84	1083.81
752.16	1083.57
752.49	1084.35
752.82	1083.57
753.15	1085.24
753.48	1088.42
753.81	1088.54
754.14	1087.90
754.47	1086.55
754.80	1084.89
755.13	1084.46
755.46	1084.32
755.79	1084.56
756.12	1088.75
756.45	1087.11
756.78	1086.36
757.11	1087.25
757.43	1083.74
757.76	1079.48
758.09	1081.33
758.42	1079.78
758.75	1082.22
759.08	1084.11
759.41	1087.44
759.74	1084.23
760.07	1087.58
760.39	1084.49
760.72	1084.16
761.05	1083.11
761.38	1084.35
761.71	1083.04
762.04	1081.40
762.36	1086.59
762.69	1084.84
763.02	1084.77
763.35	1084.28
