SpectraSuite Data File
++++++++++++++++++++++++++++++++++++
Date: Mon Aug 26 10:26:35 PDT 2019
User: corrico
Dark Spectrum Present: No
Reference Spectrum Present: No
Number of Sampled Component Spectra: 1
Spectrometers: USB2+H06089
Integration Time (usec): 10000 (USB2+H06089)
Spectra Averaged: 20 (USB2+H06089)
Boxcar Smoothing: 2 (USB2+H06089)
Correct for Electrical Dark: No (USB2+H06089)
Strobe/Lamp Enabled: No (USB2+H06089)
Correct for Detector Non-linearity: No (USB2+H06089)
Correct for Stray Light: No (USB2+H06089)
Number of Pixels in Processed Spectrum: 2048
>>>>>Begin Processed Spectral Data<<<<<
339.70	1033.81
340.07	1033.81
340.45	998.14
340.82	977.64
341.19	952.22
341.57	928.40
341.94	918.89
342.31	911.97
342.69	904.55
343.06	903.21
343.43	899.63
343.81	903.84
344.18	907.10
344.55	913.72
344.93	921.68
345.30	930.50
345.67	933.76
346.04	942.23
346.42	952.22
346.79	956.48
347.16	965.47
347.54	973.85
347.91	980.31
348.28	987.43
348.65	998.59
349.03	1008.51
349.40	1018.11
349.77	1028.48
350.14	1035.15
350.52	1042.08
350.89	1044.42
351.26	1051.39
351.63	1053.03
352.01	1058.41
352.38	1064.90
352.75	1068.76
353.12	1072.34
353.50	1076.06
353.87	1075.94
354.24	1078.17
354.61	1082.31
354.98	1083.20
355.36	1084.56
355.73	1087.04
356.10	1088.54
356.47	1091.95
356.84	1092.52
357.22	1095.65
357.59	1095.21
357.96	1093.01
358.33	1091.51
358.70	1091.58
359.08	1093.24
359.45	1094.18
359.82	1091.58
360.19	1092.33
360.56	1092.09
360.94	1086.83
361.31	1086.36
361.68	1087.16
362.05	1083.88
362.42	1081.63
362.79	1081.09
363.16	1081.00
363.54	1080.46
363.91	1078.99
364.28	1079.64
364.65	1079.60
365.02	1081.58
365.39	1082.31
365.76	1081.66
366.14	1081.68
366.51	1083.43
366.88	1080.86
367.25	1078.52
367.62	1079.01
367.99	1079.01
368.36	1080.11
368.73	1079.43
369.10	1080.74
369.48	1081.75
369.85	1082.17
370.22	1081.37
370.59	1083.71
370.96	1083.90
371.33	1082.40
371.70	1084.67
372.07	1081.96
372.44	1080.48
372.81	1082.26
373.18	1084.23
373.55	1082.94
373.93	1086.90
374.30	1084.70
374.67	1082.40
375.04	1082.43
375.41	1080.91
375.78	1078.14
376.15	1078.00
376.52	1080.04
376.89	1083.48
377.26	1084.11
377.63	1086.31
378.00	1087.58
378.37	1085.07
378.74	1082.26
379.11	1083.55
379.48	1081.02
379.85	1081.84
380.22	1081.70
380.59	1081.68
380.96	1078.82
381.33	1082.50
381.70	1081.05
382.07	1081.96
382.44	1084.16
382.81	1087.67
383.18	1085.89
383.55	1088.70
383.92	1089.29
384.29	1089.52
384.66	1086.20
385.03	1085.28
385.40	1083.36
385.77	1085.19
386.14	1085.66
386.51	1089.26
386.88	1092.96
387.25	1091.39
387.62	1090.92
387.99	1087.62
388.36	1088.19
388.73	1085.63
389.10	1089.92
389.46	1088.98
389.83	1090.60
390.20	1088.30
390.57	1090.41
390.94	1090.90
391.31	1092.05
391.68	1087.06
392.05	1087.13
392.42	1086.27
392.79	1085.56
393.16	1086.78
393.53	1092.63
393.89	1093.12
394.26	1092.02
394.63	1091.09
395.00	1088.82
395.37	1085.94
395.74	1087.02
396.11	1086.71
396.48	1091.25
396.84	1090.99
397.21	1091.13
397.58	1089.59
397.95	1091.34
398.32	1088.70
398.69	1089.10
399.06	1091.09
399.42	1088.28
399.79	1089.96
400.16	1087.30
400.53	1088.91
400.90	1089.29
401.27	1095.51
401.64	1094.69
402.00	1097.85
402.37	1096.99
402.74	1097.73
403.11	1095.04
403.48	1092.75
403.84	1091.58
404.21	1092.37
404.58	1090.27
404.95	1094.86
405.32	1099.84
405.68	1099.49
406.05	1099.61
406.42	1101.60
406.79	1094.57
407.16	1089.29
407.52	1089.38
407.89	1090.34
408.26	1088.28
408.63	1092.33
408.99	1095.70
409.36	1097.71
409.73	1098.39
410.10	1100.75
410.47	1099.49
410.83	1098.11
411.20	1097.64
411.57	1100.82
411.94	1103.26
412.30	1104.76
412.67	1105.95
413.04	1108.69
413.40	1105.46
413.77	1104.24
414.14	1103.80
414.51	1105.32
414.87	1103.40
415.24	1106.39
415.61	1106.16
415.97	1106.68
416.34	1105.44
416.71	1103.52
417.08	1099.93
417.44	1098.74
417.81	1099.75
418.18	1101.48
418.54	1104.99
418.91	1105.08
419.28	1106.51
419.64	1106.14
420.01	1106.65
420.38	1105.34
420.74	1107.89
421.11	1107.47
421.48	1108.31
421.84	1107.78
422.21	1111.64
422.58	1111.97
422.94	1111.66
423.31	1113.25
423.68	1112.34
424.04	1109.81
424.41	1109.32
424.77	1111.78
425.14	1111.43
425.51	1112.41
425.87	1112.60
426.24	1114.24
426.61	1113.32
426.97	1114.49
427.34	1115.64
427.70	1117.09
428.07	1115.94
428.44	1115.10
428.80	1115.24
429.17	1112.85
429.53	1110.82
429.90	1112.36
430.27	1112.36
430.63	1110.16
431.00	1111.85
431.36	1112.08
431.73	1110.14
432.09	1112.18
432.46	1112.92
432.83	1109.32
433.19	1111.03
433.56	1112.08
433.92	1109.06
434.29	1111.15
434.65	1117.28
435.02	1114.89
435.38	1114.40
435.75	1117.25
436.11	1115.05
436.48	1113.86
436.84	1111.10
437.21	1112.99
437.57	1113.79
437.94	1115.94
438.30	1115.17
438.67	1117.61
439.03	1115.29
439.40	1113.65
439.76	1113.65
440.13	1111.97
440.49	1112.43
440.86	1112.99
441.22	1114.02
441.59	1113.14
441.95	1114.68
442.32	1119.36
442.68	1116.88
443.05	1115.03
443.41	1115.34
443.78	1111.54
444.14	1107.87
444.51	1107.87
444.87	1106.11
445.24	1100.33
445.60	1103.59
445.96	1104.87
446.33	1105.69
446.69	1106.58
447.06	1111.64
447.42	1110.56
447.79	1106.84
448.15	1106.96
448.51	1110.40
448.88	1108.27
449.24	1108.43
449.61	1111.71
449.97	1112.34
450.33	1110.61
450.70	1111.75
451.06	1111.43
451.43	1112.83
451.79	1112.71
452.15	1112.36
452.52	1113.63
452.88	1115.62
453.24	1110.87
453.61	1110.77
453.97	1113.23
454.34	1111.29
454.70	1110.30
455.06	1112.90
455.43	1113.39
455.79	1113.07
456.15	1114.77
456.52	1116.32
456.88	1114.77
457.24	1114.49
457.61	1114.66
457.97	1113.51
458.33	1112.48
458.70	1114.87
459.06	1115.24
459.42	1114.59
459.79	1118.61
460.15	1118.14
460.51	1115.01
460.88	1116.25
461.24	1117.35
461.60	1118.73
461.96	1117.42
462.33	1120.37
462.69	1120.70
463.05	1124.18
463.42	1120.06
463.78	1122.90
464.14	1123.20
464.50	1124.18
464.87	1119.85
465.23	1120.04
465.59	1119.43
465.95	1121.07
466.32	1122.26
466.68	1122.10
467.04	1123.34
467.40	1124.53
467.77	1124.65
468.13	1125.70
468.49	1132.91
468.85	1133.01
469.22	1136.38
469.58	1137.99
469.94	1140.07
470.30	1138.11
470.66	1140.00
471.03	1140.38
471.39	1144.80
471.75	1147.52
472.11	1147.35
472.47	1152.20
472.84	1155.92
473.20	1155.71
473.56	1157.11
473.92	1159.95
474.28	1163.04
474.65	1167.11
475.01	1171.74
475.37	1175.30
475.73	1183.47
476.09	1184.05
476.45	1187.70
476.81	1192.15
477.18	1194.77
477.54	1198.66
477.90	1205.77
478.26	1210.81
478.62	1218.39
478.98	1225.67
479.34	1232.83
479.71	1240.60
480.07	1247.76
480.43	1257.48
480.79	1266.51
481.15	1274.56
481.51	1285.38
481.87	1299.63
482.23	1313.18
482.59	1327.69
482.96	1342.60
483.32	1356.43
483.68	1369.63
484.04	1383.84
484.40	1399.97
484.76	1417.15
485.12	1434.56
485.48	1450.34
485.84	1468.17
486.20	1486.92
486.56	1509.06
486.92	1537.59
487.28	1567.62
487.64	1592.92
488.00	1623.11
488.37	1652.35
488.73	1682.99
489.09	1719.87
489.45	1755.71
489.81	1793.65
490.17	1833.79
490.53	1868.52
490.89	1902.39
491.25	1946.67
491.61	1991.26
491.97	2039.00
492.33	2095.32
492.69	2148.47
493.05	2204.41
493.41	2262.08
493.77	2324.46
494.13	2385.80
494.49	2454.71
494.85	2523.64
495.21	2603.19
495.57	2683.56
495.93	2771.05
496.29	2857.70
496.64	2956.59
497.00	3048.66
497.36	3144.02
497.72	3246.28
498.08	3360.45
498.44	3466.82
498.80	3589.82
499.16	3729.97
499.52	3870.38
499.88	4019.57
500.24	4178.32
500.60	4343.24
500.96	4495.40
501.32	4662.70
501.68	4831.94
502.03	5022.39
502.39	5225.08
502.75	5442.75
503.11	5679.59
503.47	5917.93
503.83	6164.83
504.19	6409.25
504.55	6681.64
504.91	6954.13
505.26	7246.25
505.62	7555.53
505.98	7886.41
506.34	8224.78
506.70	8589.74
507.06	8975.32
507.42	9372.44
507.78	9780.91
508.13	10208.62
508.49	10649.58
508.85	11124.47
509.21	11613.86
509.57	12146.68
509.93	12694.08
510.28	13288.37
510.64	13914.79
511.00	14536.65
511.36	15121.45
511.72	15745.02
512.07	16408.37
512.43	17012.46
512.79	17685.18
513.15	18431.84
513.51	19170.23
513.86	19896.96
514.22	20723.83
514.58	21522.75
514.94	22348.54
515.30	23218.68
515.65	24045.73
516.01	24908.31
516.37	25787.02
516.73	26588.53
517.08	27443.13
517.44	28298.88
517.80	29116.31
518.16	29966.60
518.51	30806.51
518.87	31562.52
519.23	32428.80
519.59	33319.26
519.94	34154.69
520.30	35033.79
520.66	35820.21
521.01	36617.56
521.37	37301.19
521.73	37937.60
522.09	38550.59
522.44	39204.68
522.80	39614.50
523.16	39984.26
523.51	40242.73
523.87	40534.54
524.23	40786.39
524.58	41063.97
524.94	41458.05
525.30	41828.86
525.65	42020.46
526.01	42070.99
526.37	42087.14
526.72	41988.65
527.08	41857.81
527.44	41702.89
527.79	41568.83
528.15	41499.48
528.51	41288.03
528.86	41069.05
529.22	40826.53
529.58	40573.72
529.93	40147.49
530.29	39694.99
530.65	39304.01
531.00	38943.14
531.36	38509.44
531.71	38072.89
532.07	37600.73
532.43	37013.54
532.78	36331.22
533.14	35725.82
533.49	35130.72
533.85	34502.45
534.21	33895.26
534.56	33339.67
534.92	32743.44
535.27	32108.59
535.63	31495.72
535.98	30863.36
536.34	30240.94
536.69	29573.96
537.05	28966.45
537.41	28443.95
537.76	27929.33
538.12	27363.93
538.47	26896.36
538.83	26441.15
539.18	25952.91
539.54	25485.70
539.89	25030.20
540.25	24484.41
540.60	23985.79
540.96	23487.16
541.31	22978.19
541.67	22538.98
542.02	22139.29
542.38	21682.47
542.73	21226.06
543.09	20841.53
543.44	20468.43
543.80	20120.44
544.15	19734.62
544.51	19407.04
544.86	19080.35
545.22	18708.93
545.57	18340.48
545.93	17983.53
546.28	17659.95
546.64	17341.73
546.99	17014.59
547.35	16667.98
547.70	16373.87
548.05	16061.95
548.41	15735.12
548.76	15429.28
549.12	15150.64
549.47	14858.49
549.83	14577.61
550.18	14259.60
550.53	13930.75
550.89	13651.81
551.24	13393.46
551.60	13103.63
551.95	12842.52
552.30	12606.78
552.66	12355.66
553.01	12079.22
553.37	11793.84
553.72	11518.99
554.07	11251.70
554.43	10955.21
554.78	10675.79
555.13	10418.38
555.49	10191.37
555.84	9988.07
556.19	9805.93
556.55	9614.50
556.90	9423.44
557.26	9213.71
557.61	8982.18
557.96	8734.79
558.32	8522.22
558.67	8310.96
559.02	8096.15
559.37	7911.43
559.73	7767.91
560.08	7602.95
560.43	7453.08
560.79	7329.08
561.14	7177.49
561.49	6999.14
561.85	6842.88
562.20	6686.47
562.55	6539.81
562.90	6417.21
563.26	6300.09
563.61	6189.24
563.96	6079.28
564.32	5949.97
564.67	5811.88
565.02	5689.54
565.37	5571.06
565.73	5458.20
566.08	5354.16
566.43	5255.35
566.78	5147.14
567.14	5035.69
567.49	4923.27
567.84	4817.67
568.19	4708.99
568.54	4619.35
568.90	4535.07
569.25	4456.66
569.60	4380.17
569.95	4307.33
570.31	4223.94
570.66	4145.39
571.01	4055.61
571.36	3967.86
571.71	3893.29
572.06	3828.65
572.42	3759.53
572.77	3707.88
573.12	3646.20
573.47	3579.73
573.82	3516.26
574.18	3448.19
574.53	3385.82
574.88	3336.97
575.23	3286.79
575.58	3235.86
575.93	3189.24
576.28	3133.18
576.64	3072.49
576.99	3015.87
577.34	2958.58
577.69	2902.92
578.04	2851.24
578.39	2804.36
578.74	2763.47
579.09	2726.77
579.44	2683.92
579.80	2644.99
580.15	2602.04
580.50	2555.58
580.85	2512.33
581.20	2481.04
581.55	2444.76
581.90	2419.27
582.25	2389.69
582.60	2353.71
582.95	2319.35
583.30	2282.96
583.65	2247.78
584.00	2210.68
584.35	2178.90
584.71	2144.87
585.06	2117.97
585.41	2080.74
585.76	2058.36
586.11	2034.07
586.46	2007.36
586.81	1987.26
587.16	1968.67
587.51	1944.82
587.86	1925.70
588.21	1907.40
588.56	1885.00
588.91	1865.15
589.26	1844.60
589.61	1821.24
589.96	1802.42
590.31	1781.15
590.66	1767.71
591.01	1753.11
591.36	1737.05
591.71	1717.67
592.06	1703.65
592.41	1684.81
592.76	1671.31
593.10	1661.15
593.45	1649.05
593.80	1632.48
594.15	1619.04
594.50	1602.03
594.85	1584.59
595.20	1570.31
595.55	1557.28
595.90	1549.15
596.25	1538.62
596.60	1526.59
596.95	1518.80
597.30	1509.74
597.64	1547.63
597.99	1540.07
598.34	1533.03
598.69	1526.92
599.04	1520.44
599.39	1459.11
599.74	1449.17
600.09	1438.35
600.44	1428.31
600.78	1419.93
601.13	1412.33
601.48	1405.09
601.83	1396.13
602.18	1386.49
602.53	1377.52
602.88	1370.29
603.22	1360.97
603.57	1354.63
603.92	1351.26
604.27	1349.41
604.62	1345.04
604.97	1338.95
605.31	1337.80
605.66	1330.62
606.01	1318.80
606.36	1313.04
606.71	1306.49
607.05	1298.69
607.40	1290.74
607.75	1288.00
608.10	1283.92
608.44	1283.39
608.79	1279.17
609.14	1278.33
609.49	1275.64
609.84	1273.13
610.18	1268.29
610.53	1267.10
610.88	1263.82
611.23	1259.68
611.57	1253.68
611.92	1247.88
612.27	1243.71
612.62	1237.23
612.96	1234.61
613.31	1229.53
613.66	1223.30
614.00	1216.12
614.35	1216.05
614.70	1209.71
615.05	1210.71
615.39	1210.97
615.74	1209.28
616.09	1206.76
616.43	1200.65
616.78	1195.48
617.13	1195.22
617.47	1193.63
617.82	1185.83
618.17	1189.34
618.51	1187.33
618.86	1183.91
619.21	1182.32
619.55	1181.78
619.90	1175.84
620.25	1170.55
620.59	1168.49
620.94	1167.51
621.29	1165.68
621.63	1167.06
621.98	1168.09
622.32	1164.65
622.67	1161.33
623.02	1161.80
623.36	1161.58
623.71	1159.88
624.05	1158.31
624.40	1156.97
624.75	1156.72
625.09	1149.88
625.44	1148.97
625.78	1151.29
626.13	1149.39
626.48	1145.55
626.82	1147.73
627.17	1147.10
627.51	1142.86
627.86	1142.51
628.20	1141.85
628.55	1138.51
628.89	1136.52
629.24	1138.72
629.58	1134.46
629.93	1133.17
630.28	1138.23
630.62	1137.36
630.97	1135.70
631.31	1139.91
631.66	1139.58
632.00	1133.26
632.35	1132.09
632.69	1128.65
633.04	1121.68
633.38	1120.32
633.73	1119.92
634.07	1118.40
634.42	1119.76
634.76	1122.92
635.11	1121.70
635.45	1120.41
635.79	1121.02
636.14	1119.17
636.48	1117.04
636.83	1119.55
637.17	1119.08
637.52	1121.33
637.86	1120.86
638.21	1119.67
638.55	1115.15
638.89	1116.90
639.24	1113.72
639.58	1112.88
639.93	1113.42
640.27	1115.15
640.61	1116.67
640.96	1116.88
641.30	1116.30
641.65	1117.35
641.99	1115.03
642.33	1110.51
642.68	1107.75
643.02	1106.42
643.37	1108.22
643.71	1107.64
644.05	1107.78
644.40	1104.43
644.74	1104.99
645.08	1100.38
645.43	1104.48
645.77	1105.39
646.11	1108.17
646.46	1112.43
646.80	1110.12
647.14	1108.64
647.49	1107.12
647.83	1110.87
648.17	1106.04
648.52	1106.21
648.86	1102.84
649.20	1104.03
649.55	1101.32
649.89	1099.16
650.23	1102.58
650.57	1102.81
650.92	1103.75
651.26	1105.13
651.60	1103.70
651.95	1103.61
652.29	1103.23
652.63	1100.80
652.97	1098.81
653.32	1100.94
653.66	1099.09
654.00	1100.89
654.34	1099.70
654.69	1095.39
655.03	1093.80
655.37	1095.84
655.71	1095.75
656.05	1097.22
656.40	1099.98
656.74	1101.76
657.08	1100.31
657.42	1099.98
657.76	1099.12
658.11	1100.05
658.45	1098.13
658.79	1097.06
659.13	1094.62
659.47	1093.38
659.82	1090.90
660.16	1094.69
660.50	1094.83
660.84	1097.73
661.18	1096.96
661.52	1094.93
661.87	1092.94
662.21	1093.10
662.55	1091.84
662.89	1096.94
663.23	1100.26
663.57	1102.13
663.91	1100.82
664.25	1098.90
664.60	1095.53
664.94	1091.39
665.28	1088.86
665.62	1091.88
665.96	1091.56
666.30	1090.99
666.64	1094.32
666.98	1092.59
667.32	1090.41
667.66	1094.62
668.01	1093.31
668.35	1092.73
668.69	1094.97
669.03	1094.60
669.37	1092.54
669.71	1091.04
670.05	1092.28
670.39	1091.81
670.73	1092.91
671.07	1092.82
671.41	1095.02
671.75	1096.12
672.09	1096.61
672.43	1095.49
672.77	1092.98
673.11	1092.98
673.45	1089.75
673.79	1090.27
674.13	1090.53
674.47	1093.24
674.81	1094.79
675.15	1097.76
675.49	1097.29
675.83	1093.69
676.17	1092.00
676.51	1089.82
676.85	1089.38
677.19	1090.36
677.53	1090.67
677.87	1089.31
678.21	1093.24
678.55	1089.12
678.89	1087.83
679.23	1087.27
679.57	1091.34
679.90	1088.56
680.24	1089.87
680.58	1088.12
680.92	1092.23
681.26	1090.85
681.60	1089.52
681.94	1091.81
682.28	1094.50
682.62	1095.56
682.96	1095.75
683.29	1097.38
683.63	1099.61
683.97	1096.31
684.31	1092.47
684.65	1089.94
684.99	1089.45
685.33	1088.33
685.67	1088.89
686.00	1088.21
686.34	1090.57
686.68	1088.42
687.02	1084.25
687.36	1085.35
687.70	1086.90
688.03	1085.91
688.37	1089.00
688.71	1091.20
689.05	1089.94
689.39	1089.45
689.72	1087.83
690.06	1085.84
690.40	1083.57
690.74	1087.11
691.08	1086.83
691.41	1088.23
691.75	1090.71
692.09	1093.05
692.43	1092.98
692.76	1094.72
693.10	1095.56
693.44	1096.59
693.78	1094.06
694.11	1091.91
694.45	1088.68
694.79	1087.81
695.13	1085.26
695.46	1091.06
695.80	1091.27
696.14	1094.39
696.48	1096.45
696.81	1093.26
697.15	1088.07
697.49	1087.04
697.82	1087.06
698.16	1084.30
698.50	1088.63
698.83	1091.81
699.17	1092.80
699.51	1092.05
699.84	1091.18
700.18	1087.32
700.52	1087.97
700.85	1088.00
701.19	1088.04
701.53	1090.03
701.86	1092.77
702.20	1090.97
702.54	1085.70
702.87	1086.06
703.21	1086.94
703.55	1084.37
703.88	1084.30
704.22	1087.30
704.55	1086.06
704.89	1083.43
705.23	1087.81
705.56	1090.03
705.90	1094.32
706.23	1095.21
706.57	1091.79
706.91	1090.90
707.24	1086.57
707.58	1084.65
707.91	1085.38
708.25	1090.17
708.58	1091.60
708.92	1097.01
709.26	1094.76
709.59	1096.42
709.93	1098.23
710.26	1096.03
710.60	1093.45
710.93	1094.06
711.27	1092.12
711.60	1090.20
711.94	1086.90
712.27	1085.14
712.61	1085.56
712.94	1085.42
713.28	1081.98
713.61	1083.97
713.95	1085.07
714.28	1086.76
714.62	1086.50
714.95	1089.92
715.29	1089.99
715.62	1086.92
715.96	1084.14
716.29	1082.40
716.63	1081.84
716.96	1079.10
717.29	1080.60
717.63	1080.91
717.96	1081.82
718.30	1083.60
718.63	1085.54
718.97	1085.40
719.30	1085.00
719.63	1085.96
719.97	1083.36
720.30	1086.27
720.64	1087.13
720.97	1088.89
721.30	1091.39
721.64	1093.10
721.97	1093.76
722.31	1095.23
722.64	1094.97
722.97	1092.49
723.31	1090.01
723.64	1086.66
723.97	1086.66
724.31	1087.20
724.64	1087.34
724.98	1088.30
725.31	1090.67
725.64	1087.81
725.98	1085.70
726.31	1084.00
726.64	1085.89
726.97	1086.76
727.31	1086.36
727.64	1086.64
727.97	1089.17
728.31	1085.87
728.64	1085.52
728.97	1086.34
729.31	1089.52
729.64	1089.40
729.97	1091.95
730.30	1092.35
730.64	1091.65
730.97	1091.65
731.30	1090.06
731.63	1090.27
731.97	1089.43
732.30	1089.94
732.63	1086.03
732.96	1087.27
733.30	1083.81
733.63	1084.09
733.96	1084.35
734.29	1084.11
734.63	1082.12
734.96	1081.49
735.29	1080.67
735.62	1082.76
735.95	1088.40
736.29	1091.13
736.62	1094.83
736.95	1094.88
737.28	1096.82
737.61	1093.80
737.94	1093.99
738.28	1094.60
738.61	1095.07
738.94	1090.60
739.27	1090.97
739.60	1088.91
739.93	1087.37
740.27	1086.34
740.60	1087.74
740.93	1086.38
741.26	1087.41
741.59	1086.24
741.92	1084.65
742.25	1087.48
742.58	1086.43
742.91	1084.89
743.25	1087.79
743.58	1089.52
743.91	1084.46
744.24	1085.66
744.57	1085.03
744.90	1083.57
745.23	1083.88
745.56	1086.17
745.89	1086.83
746.22	1089.71
746.55	1087.25
746.88	1085.10
747.21	1082.90
747.54	1081.94
747.87	1081.33
748.20	1083.86
748.53	1089.05
748.87	1090.76
749.20	1090.46
749.53	1087.95
749.86	1090.53
750.19	1086.71
750.52	1086.78
750.85	1086.48
751.18	1085.66
751.51	1087.97
751.84	1086.57
752.16	1085.14
752.49	1086.29
752.82	1091.70
753.15	1085.68
753.48	1083.90
753.81	1082.85
754.14	1079.36
754.47	1078.61
754.80	1078.87
755.13	1083.62
755.46	1088.04
755.79	1090.34
756.12	1094.01
756.45	1095.04
756.78	1092.89
757.11	1090.64
757.43	1095.02
757.76	1092.21
758.09	1092.47
758.42	1092.63
758.75	1093.55
759.08	1091.04
759.41	1086.57
759.74	1087.86
760.07	1087.81
760.39	1089.36
760.72	1087.41
761.05	1088.42
761.38	1088.91
761.71	1088.51
762.04	1087.88
762.36	1088.56
762.69	1089.45
763.02	1085.14
763.35	1084.49
