SpectraSuite Data File
++++++++++++++++++++++++++++++++++++
Date: Mon Aug 26 10:26:17 PDT 2019
User: corrico
Dark Spectrum Present: No
Reference Spectrum Present: No
Number of Sampled Component Spectra: 1
Spectrometers: USB2+H06089
Integration Time (usec): 10000 (USB2+H06089)
Spectra Averaged: 20 (USB2+H06089)
Boxcar Smoothing: 2 (USB2+H06089)
Correct for Electrical Dark: No (USB2+H06089)
Strobe/Lamp Enabled: No (USB2+H06089)
Correct for Detector Non-linearity: No (USB2+H06089)
Correct for Stray Light: No (USB2+H06089)
Number of Pixels in Processed Spectrum: 2048
>>>>>Begin Processed Spectral Data<<<<<
339.70	1051.02
340.07	1051.02
340.45	1010.90
340.82	985.58
341.19	957.42
341.57	929.50
341.94	917.70
342.31	910.61
342.69	901.27
343.06	899.91
343.43	901.27
343.81	901.55
344.18	902.70
344.55	912.76
344.93	914.66
345.30	921.16
345.67	929.36
346.04	938.46
346.42	944.20
346.79	954.49
347.16	962.22
347.54	971.74
347.91	982.21
348.28	993.07
348.65	1004.93
349.03	1010.90
349.40	1015.44
349.77	1022.63
350.14	1032.78
350.52	1033.79
350.89	1043.18
351.26	1052.75
351.63	1057.99
352.01	1061.15
352.38	1069.88
352.75	1068.45
353.12	1070.77
353.50	1074.59
353.87	1078.12
354.24	1078.31
354.61	1084.56
354.98	1087.20
355.36	1085.84
355.73	1086.55
356.10	1088.37
356.47	1087.34
356.84	1087.81
357.22	1090.27
357.59	1087.88
357.96	1088.77
358.33	1089.45
358.70	1091.04
359.08	1090.46
359.45	1093.36
359.82	1092.63
360.19	1094.95
360.56	1091.02
360.94	1090.99
361.31	1088.37
361.68	1090.36
362.05	1086.99
362.42	1086.13
362.79	1084.46
363.16	1083.36
363.54	1079.29
363.91	1078.38
364.28	1079.22
364.65	1076.53
365.02	1078.12
365.39	1081.87
365.76	1081.58
366.14	1082.87
366.51	1087.51
366.88	1084.23
367.25	1081.96
367.62	1082.22
367.99	1083.06
368.36	1078.82
368.73	1078.07
369.10	1078.54
369.48	1080.11
369.85	1078.82
370.22	1083.43
370.59	1084.91
370.96	1082.40
371.33	1082.40
371.70	1078.57
372.07	1077.21
372.44	1078.57
372.81	1083.57
373.18	1081.63
373.55	1084.28
373.93	1080.39
374.30	1077.28
374.67	1076.11
375.04	1077.09
375.41	1074.70
375.78	1078.50
376.15	1079.90
376.52	1078.19
376.89	1078.03
377.26	1078.78
377.63	1077.56
378.00	1079.41
378.37	1081.94
378.74	1084.11
379.11	1086.80
379.48	1088.42
379.85	1089.47
380.22	1084.60
380.59	1083.74
380.96	1086.38
381.33	1084.93
381.70	1083.97
382.07	1083.88
382.44	1084.18
382.81	1080.53
383.18	1081.28
383.55	1084.21
383.92	1089.64
384.29	1086.87
384.66	1087.18
385.03	1088.30
385.40	1085.24
385.77	1083.36
386.14	1087.20
386.51	1090.99
386.88	1091.79
387.25	1091.44
387.62	1090.60
387.99	1090.71
388.36	1090.78
388.73	1090.92
389.10	1092.14
389.46	1092.40
389.83	1089.82
390.20	1089.00
390.57	1087.76
390.94	1088.16
391.31	1089.29
391.68	1089.96
392.05	1087.41
392.42	1085.19
392.79	1081.80
393.16	1084.77
393.53	1085.38
393.89	1085.63
394.26	1089.71
394.63	1092.94
395.00	1088.26
395.37	1093.33
395.74	1093.71
396.11	1089.45
396.48	1089.66
396.84	1092.16
397.21	1091.65
397.58	1092.89
397.95	1095.82
398.32	1094.48
398.69	1093.83
399.06	1091.34
399.42	1093.10
399.79	1094.36
400.16	1098.86
400.53	1100.64
400.90	1098.39
401.27	1099.37
401.64	1098.72
402.00	1095.93
402.37	1095.72
402.74	1096.80
403.11	1095.16
403.48	1095.84
403.84	1097.78
404.21	1098.98
404.58	1099.82
404.95	1101.41
405.32	1101.29
405.68	1098.06
406.05	1097.41
406.42	1097.55
406.79	1096.17
407.16	1099.02
407.52	1102.65
407.89	1102.39
408.26	1102.98
408.63	1104.64
408.99	1104.15
409.36	1101.32
409.73	1102.02
410.10	1101.20
410.47	1098.37
410.83	1096.05
411.20	1098.23
411.57	1097.55
411.94	1099.96
412.30	1102.84
412.67	1107.33
413.04	1106.46
413.40	1106.61
413.77	1105.88
414.14	1106.00
414.51	1103.96
414.87	1107.56
415.24	1107.19
415.61	1107.59
415.97	1105.79
416.34	1106.96
416.71	1104.22
417.08	1106.96
417.44	1109.81
417.81	1113.23
418.18	1112.48
418.54	1117.07
418.91	1116.60
419.28	1112.69
419.64	1115.73
420.01	1117.28
420.38	1115.73
420.74	1116.86
421.11	1119.50
421.48	1115.01
421.84	1115.43
422.21	1117.18
422.58	1119.29
422.94	1118.35
423.31	1119.24
423.68	1114.77
424.04	1111.24
424.41	1108.36
424.77	1111.26
425.14	1112.97
425.51	1117.23
425.87	1120.48
426.24	1120.72
426.61	1121.19
426.97	1122.43
427.34	1122.50
427.70	1123.64
428.07	1126.69
428.44	1124.11
428.80	1122.10
429.17	1120.74
429.53	1120.25
429.90	1117.84
430.27	1118.85
430.63	1120.02
431.00	1118.40
431.36	1115.10
431.73	1117.91
432.09	1116.58
432.46	1113.84
432.83	1115.99
433.19	1119.06
433.56	1118.03
433.92	1120.58
434.29	1123.18
434.65	1124.93
435.02	1125.47
435.38	1124.02
435.75	1122.47
436.11	1121.96
436.48	1122.64
436.84	1117.63
437.21	1118.05
437.57	1118.68
437.94	1115.41
438.30	1114.31
438.67	1116.15
439.03	1113.81
439.40	1112.50
439.76	1113.21
440.13	1107.92
440.49	1107.00
440.86	1106.46
441.22	1106.77
441.59	1108.27
441.95	1109.86
442.32	1108.50
442.68	1109.02
443.05	1110.40
443.41	1113.11
443.78	1115.59
444.14	1118.38
444.51	1117.98
444.87	1116.06
445.24	1112.36
445.60	1115.01
445.96	1115.55
446.33	1119.90
446.69	1120.67
447.06	1121.35
447.42	1118.07
447.79	1118.80
448.15	1116.41
448.51	1115.31
448.88	1115.22
449.24	1115.05
449.61	1115.34
449.97	1113.72
450.33	1115.78
450.70	1115.94
451.06	1113.32
451.43	1109.79
451.79	1111.33
452.15	1108.85
452.52	1108.29
452.88	1110.84
453.24	1113.07
453.61	1113.98
453.97	1113.81
454.34	1115.01
454.70	1115.80
455.06	1115.59
455.43	1116.25
455.79	1117.72
456.15	1116.11
456.52	1115.90
456.88	1115.24
457.24	1115.99
457.61	1112.90
457.97	1110.05
458.33	1111.47
458.70	1113.49
459.06	1114.89
459.42	1117.35
459.79	1119.71
460.15	1118.66
460.51	1116.76
460.88	1114.54
461.24	1116.58
461.60	1119.88
461.96	1121.40
462.33	1124.30
462.69	1124.28
463.05	1124.07
463.42	1125.82
463.78	1128.14
464.14	1128.65
464.50	1130.76
464.87	1131.44
465.23	1131.16
465.59	1130.41
465.95	1131.81
466.32	1132.37
466.68	1135.18
467.04	1136.00
467.40	1135.02
467.77	1135.11
468.13	1136.63
468.49	1135.35
468.85	1136.35
469.22	1139.09
469.58	1140.78
469.94	1144.69
470.30	1147.96
470.66	1152.36
471.03	1154.14
471.39	1156.20
471.75	1158.40
472.11	1158.85
472.47	1160.06
472.84	1165.12
473.20	1165.84
473.56	1165.59
473.92	1174.81
474.28	1180.24
474.65	1183.40
475.01	1191.24
475.37	1194.16
475.73	1197.14
476.09	1203.04
476.45	1206.83
476.81	1210.43
477.18	1220.89
477.54	1225.76
477.90	1231.03
478.26	1242.19
478.62	1251.55
478.98	1260.21
479.34	1272.06
479.71	1281.61
480.07	1291.18
480.43	1302.41
480.79	1310.51
481.15	1319.06
481.51	1328.89
481.87	1340.71
482.23	1353.74
482.59	1371.69
482.96	1391.00
483.32	1408.02
483.68	1424.66
484.04	1445.40
484.40	1463.65
484.76	1484.13
485.12	1507.33
485.48	1531.39
485.84	1559.78
486.20	1589.36
486.56	1615.74
486.92	1651.29
487.28	1682.49
487.64	1706.13
488.00	1740.31
488.37	1775.48
488.73	1807.99
489.09	1849.16
489.45	1897.03
489.81	1939.30
490.17	1989.69
490.53	2040.76
490.89	2091.34
491.25	2144.47
491.61	2202.00
491.97	2255.32
492.33	2312.89
492.69	2376.39
493.05	2444.27
493.41	2515.98
493.77	2597.15
494.13	2687.24
494.49	2765.95
494.85	2851.33
495.21	2938.66
495.57	3036.12
495.93	3133.11
496.29	3241.88
496.64	3360.28
497.00	3478.43
497.36	3597.15
497.72	3728.99
498.08	3875.04
498.44	4029.61
498.80	4190.07
499.16	4368.21
499.52	4546.02
499.88	4733.10
500.24	4920.88
500.60	5113.11
500.96	5310.04
501.32	5508.12
501.68	5709.34
502.03	5923.52
502.39	6167.83
502.75	6416.27
503.11	6692.46
503.47	6990.31
503.83	7300.11
504.19	7599.06
504.55	7945.23
504.91	8283.69
505.26	8620.43
505.62	9005.89
505.98	9444.58
506.34	9853.94
506.70	10294.19
507.06	10795.23
507.42	11288.19
507.78	11752.37
508.13	12306.33
508.49	12860.00
508.85	13429.88
509.21	14015.97
509.57	14657.96
509.93	15277.50
510.28	15959.36
510.64	16689.87
511.00	17410.24
511.36	18161.83
511.72	18991.69
512.07	19867.24
512.43	20706.84
512.79	21667.60
513.15	22604.89
513.51	23422.93
513.86	24243.32
514.22	25215.88
514.58	26187.27
514.94	27137.83
515.30	28241.40
515.65	29419.15
516.01	30453.15
516.37	31436.16
516.73	32511.89
517.08	33481.64
517.44	34287.87
517.80	35193.42
518.16	36134.08
518.51	37077.74
518.87	38036.84
519.23	39115.10
519.59	40129.82
519.94	41171.43
520.30	42182.14
520.66	43045.49
521.01	43872.69
521.37	44726.28
521.73	45411.59
522.09	46009.88
522.44	46794.54
522.80	47405.56
523.16	47772.11
523.51	48067.28
523.87	48444.97
524.23	48760.33
524.58	49015.19
524.94	49410.63
525.30	49760.84
525.65	49898.40
526.01	49878.64
526.37	50059.12
526.72	50203.72
527.08	50235.36
527.44	50177.29
527.79	50087.65
528.15	49865.00
528.51	49526.34
528.86	49291.31
529.22	48964.85
529.58	48560.17
529.93	48135.90
530.29	47570.50
530.65	47052.61
531.00	46638.66
531.36	46077.38
531.71	45470.22
532.07	45030.55
532.43	44268.17
532.78	43425.39
533.14	42777.85
533.49	42063.97
533.85	41263.90
534.21	40684.83
534.56	40180.54
534.92	39523.64
535.27	38831.27
535.63	38068.11
535.98	37290.00
536.34	36473.15
536.69	35702.48
537.05	34992.86
537.41	34381.21
537.76	33739.59
538.12	32997.32
538.47	32364.69
538.83	31788.08
539.18	31174.67
539.54	30559.49
539.89	30085.74
540.25	29583.25
540.60	29042.09
540.96	28418.76
541.31	27878.80
541.67	27441.59
542.02	26963.51
542.38	26495.12
542.73	26030.57
543.09	25533.82
543.44	24972.04
543.80	24453.66
544.15	23951.80
544.51	23575.12
544.86	23165.69
545.22	22790.36
545.57	22397.45
545.93	21932.01
546.28	21469.38
546.64	21084.48
546.99	20673.93
547.35	20277.70
547.70	19914.12
548.05	19505.02
548.41	19074.94
548.76	18609.48
549.12	18183.20
549.47	17787.37
549.83	17447.76
550.18	17082.12
550.53	16709.04
550.89	16314.89
551.24	15902.40
551.60	15523.67
551.95	15205.50
552.30	14927.00
552.66	14679.77
553.01	14461.98
553.37	14184.84
553.72	13879.73
554.07	13579.09
554.43	13277.72
554.78	12942.65
555.13	12648.58
555.49	12318.97
555.84	12023.21
556.19	11721.45
556.55	11420.62
556.90	11128.17
557.26	10919.14
557.61	10711.81
557.96	10482.37
558.32	10285.11
558.67	10051.20
559.02	9790.30
559.37	9546.72
559.73	9356.57
560.08	9161.63
560.43	8974.01
560.79	8781.60
561.14	8564.46
561.49	8332.54
561.85	8111.95
562.20	7932.78
562.55	7785.14
562.90	7624.34
563.26	7480.82
563.61	7337.88
563.96	7168.34
564.32	6975.87
564.67	6810.77
565.02	6670.01
565.37	6535.20
565.73	6386.62
566.08	6261.99
566.43	6139.93
566.78	5987.09
567.14	5845.82
567.49	5735.79
567.84	5610.62
568.19	5480.15
568.54	5376.87
568.90	5287.15
569.25	5192.24
569.60	5096.87
569.95	5026.93
570.31	4948.36
570.66	4843.48
571.01	4736.10
571.36	4645.66
571.71	4553.89
572.06	4456.73
572.42	4371.11
572.77	4288.45
573.12	4208.61
573.47	4127.14
573.82	4060.15
574.18	3991.46
574.53	3928.54
574.88	3867.67
575.23	3797.10
575.58	3721.17
575.93	3652.48
576.28	3585.12
576.64	3517.43
576.99	3451.49
577.34	3392.30
577.69	3327.59
578.04	3261.96
578.39	3197.41
578.74	3136.22
579.09	3072.94
579.44	3015.80
579.80	2963.31
580.15	2917.69
580.50	2867.88
580.85	2817.89
581.20	2773.68
581.55	2734.49
581.90	2685.53
582.25	2644.50
582.60	2602.56
582.95	2563.85
583.30	2524.01
583.65	2485.74
584.00	2445.16
584.35	2412.88
584.71	2374.03
585.06	2336.56
585.41	2302.95
585.76	2279.85
586.11	2248.72
586.46	2217.61
586.81	2185.85
587.16	2158.93
587.51	2128.34
587.86	2108.21
588.21	2086.52
588.56	2061.92
588.91	2039.80
589.26	2017.49
589.61	1988.45
589.96	1963.62
590.31	1940.23
590.66	1914.98
591.01	1892.02
591.36	1874.21
591.71	1849.02
592.06	1831.89
592.41	1817.33
592.76	1797.91
593.10	1778.18
593.45	1767.10
593.80	1750.95
594.15	1733.75
594.50	1720.64
594.85	1707.65
595.20	1692.28
595.55	1677.74
595.90	1663.82
596.25	1651.44
596.60	1634.30
596.95	1624.12
597.30	1612.89
597.64	1652.30
597.99	1641.30
598.34	1629.67
598.69	1614.97
599.04	1605.00
599.39	1542.06
599.74	1528.74
600.09	1522.61
600.44	1515.38
600.78	1505.53
601.13	1495.81
601.48	1486.22
601.83	1473.91
602.18	1461.90
602.53	1451.58
602.88	1441.96
603.22	1434.94
603.57	1425.20
603.92	1420.45
604.27	1412.72
604.62	1409.31
604.97	1404.02
605.31	1401.47
605.66	1390.68
606.01	1382.30
606.36	1375.32
606.71	1364.79
607.05	1355.31
607.40	1349.86
607.75	1344.90
608.10	1336.38
608.44	1331.11
608.79	1327.04
609.14	1315.83
609.49	1308.34
609.84	1302.06
610.18	1297.01
610.53	1290.50
610.88	1292.00
611.23	1289.47
611.57	1286.17
611.92	1282.29
612.27	1278.35
612.62	1272.62
612.96	1265.62
613.31	1260.54
613.66	1255.23
614.00	1254.34
614.35	1254.81
614.70	1252.96
615.05	1246.97
615.39	1243.29
615.74	1236.81
616.09	1227.56
616.43	1226.84
616.78	1225.79
617.13	1222.63
617.47	1222.70
617.82	1221.50
618.17	1215.11
618.51	1212.37
618.86	1210.81
619.21	1206.20
619.55	1204.67
619.90	1201.47
620.25	1197.58
620.59	1194.61
620.94	1190.84
621.29	1189.98
621.63	1188.90
621.98	1186.51
622.32	1183.87
622.67	1181.36
623.02	1177.52
623.36	1174.71
623.71	1176.10
624.05	1172.91
624.40	1168.65
624.75	1165.28
625.09	1163.67
625.44	1159.01
625.78	1160.23
626.13	1159.36
626.48	1157.02
626.82	1156.01
627.17	1155.17
627.51	1150.86
627.86	1153.84
628.20	1152.50
628.55	1149.41
628.89	1147.82
629.24	1148.10
629.58	1143.77
629.93	1141.10
630.28	1141.10
630.62	1139.79
630.97	1139.21
631.31	1140.22
631.66	1142.16
632.00	1141.34
632.35	1138.20
632.69	1133.57
633.04	1131.23
633.38	1129.82
633.73	1128.14
634.07	1129.80
634.42	1131.91
634.76	1130.01
635.11	1129.47
635.45	1126.29
635.79	1123.57
636.14	1120.51
636.48	1123.29
636.83	1121.77
637.17	1123.60
637.52	1124.84
637.86	1126.20
638.21	1123.53
638.55	1125.54
638.89	1125.17
639.24	1121.51
639.58	1117.11
639.93	1113.77
640.27	1110.70
640.61	1110.47
640.96	1114.68
641.30	1116.74
641.65	1119.31
641.99	1121.09
642.33	1119.48
642.68	1115.34
643.02	1115.66
643.37	1112.74
643.71	1111.73
644.05	1112.39
644.40	1113.56
644.74	1111.01
645.08	1112.46
645.43	1110.94
645.77	1112.41
646.11	1111.03
646.46	1111.24
646.80	1108.03
647.14	1109.84
647.49	1107.35
647.83	1107.87
648.17	1109.62
648.52	1112.25
648.86	1108.10
649.20	1107.68
649.55	1104.01
649.89	1101.88
650.23	1102.58
650.57	1101.97
650.92	1104.15
651.26	1109.30
651.60	1111.45
651.95	1108.31
652.29	1110.75
652.63	1106.14
652.97	1103.59
653.32	1097.88
653.66	1099.51
654.00	1098.44
654.34	1099.07
654.69	1103.28
655.03	1107.49
655.37	1108.22
655.71	1107.33
656.05	1107.12
656.40	1103.47
656.74	1100.24
657.08	1099.86
657.42	1101.60
657.76	1100.19
658.11	1098.25
658.45	1101.74
658.79	1101.27
659.13	1101.92
659.47	1104.08
659.82	1104.26
660.16	1103.19
660.50	1101.46
660.84	1099.21
661.18	1096.28
661.52	1096.38
661.87	1096.24
662.21	1095.56
662.55	1094.60
662.89	1099.19
663.23	1098.30
663.57	1099.30
663.91	1098.13
664.25	1097.69
664.60	1095.56
664.94	1094.41
665.28	1092.54
665.62	1093.19
665.96	1095.23
666.30	1091.81
666.64	1091.81
666.98	1093.62
667.32	1093.66
667.66	1091.51
668.01	1092.56
668.35	1094.43
668.69	1094.43
669.03	1091.58
669.37	1093.73
669.71	1094.27
670.05	1091.49
670.39	1089.43
670.73	1095.42
671.07	1091.20
671.41	1094.08
671.75	1097.36
672.09	1093.83
672.43	1093.22
672.77	1095.91
673.11	1092.26
673.45	1089.07
673.79	1093.80
674.13	1093.19
674.47	1093.85
674.81	1095.18
675.15	1097.45
675.49	1095.91
675.83	1095.63
676.17	1097.85
676.51	1097.27
676.85	1097.78
677.19	1097.08
677.53	1095.35
677.87	1090.41
678.21	1090.95
678.55	1091.74
678.89	1091.91
679.23	1094.25
679.57	1094.53
679.90	1091.49
680.24	1085.59
680.58	1086.80
680.92	1087.13
681.26	1088.19
681.60	1088.19
681.94	1090.22
682.28	1087.74
682.62	1085.87
682.96	1085.00
683.29	1086.66
683.63	1087.46
683.97	1089.36
684.31	1086.71
684.65	1087.83
684.99	1090.55
685.33	1090.36
685.67	1090.71
686.00	1094.34
686.34	1093.66
686.68	1092.40
687.02	1089.50
687.36	1088.54
687.70	1084.65
688.03	1087.69
688.37	1088.07
688.71	1093.47
689.05	1093.31
689.39	1097.08
689.72	1097.88
690.06	1097.24
690.40	1098.11
690.74	1094.79
691.08	1092.09
691.41	1088.28
691.75	1090.34
692.09	1088.26
692.43	1095.42
692.76	1096.70
693.10	1095.82
693.44	1094.41
693.78	1094.36
694.11	1094.57
694.45	1094.93
694.79	1095.35
695.13	1092.91
695.46	1093.19
695.80	1093.69
696.14	1092.75
696.48	1093.90
696.81	1095.96
697.15	1097.29
697.49	1092.19
697.82	1091.84
698.16	1092.30
698.50	1093.64
698.83	1092.59
699.17	1093.08
699.51	1091.70
699.84	1092.37
700.18	1089.12
700.52	1088.16
700.85	1086.34
701.19	1085.14
701.53	1083.95
701.86	1084.46
702.20	1086.38
702.54	1088.00
702.87	1089.59
703.21	1088.77
703.55	1089.26
703.88	1088.89
704.22	1088.75
704.55	1087.39
704.89	1087.55
705.23	1088.98
705.56	1088.35
705.90	1089.40
706.23	1090.81
706.57	1087.13
706.91	1081.49
707.24	1081.91
707.58	1082.66
707.91	1084.42
708.25	1088.91
708.58	1091.37
708.92	1085.70
709.26	1082.87
709.59	1085.10
709.93	1082.83
710.26	1086.99
710.60	1094.01
710.93	1096.07
711.27	1095.53
711.60	1096.12
711.94	1092.66
712.27	1091.37
712.61	1090.50
712.94	1089.52
713.28	1092.59
713.61	1093.19
713.95	1091.53
714.28	1093.97
714.62	1093.94
714.95	1091.51
715.29	1092.45
715.62	1092.12
715.96	1090.24
716.29	1089.73
716.63	1090.78
716.96	1087.88
717.29	1090.76
717.63	1090.17
717.96	1087.58
718.30	1084.46
718.63	1087.16
718.97	1083.79
719.30	1087.55
719.63	1089.80
719.97	1091.04
720.30	1091.70
720.64	1092.21
720.97	1085.52
721.30	1081.47
721.64	1083.53
721.97	1083.93
722.31	1084.14
722.64	1088.96
722.97	1090.48
723.31	1089.66
723.64	1088.07
723.97	1089.36
724.31	1089.00
724.64	1089.96
724.98	1091.95
725.31	1093.19
725.64	1091.79
725.98	1092.26
726.31	1093.59
726.64	1090.27
726.97	1087.74
727.31	1089.78
727.64	1088.30
727.97	1088.77
728.31	1089.78
728.64	1090.29
728.97	1087.16
729.31	1088.44
729.64	1086.50
729.97	1085.03
730.30	1088.44
730.64	1088.49
730.97	1087.18
731.30	1088.79
731.63	1092.16
731.97	1089.61
732.30	1090.78
732.63	1090.15
732.96	1085.05
733.30	1081.30
733.63	1083.04
733.96	1082.83
734.29	1083.95
734.63	1086.85
734.96	1088.54
735.29	1086.41
735.62	1087.81
735.95	1088.28
736.29	1090.71
736.62	1090.64
736.95	1090.88
737.28	1092.45
737.61	1093.01
737.94	1092.42
738.28	1091.58
738.61	1092.59
738.94	1089.78
739.27	1086.45
739.60	1085.21
739.93	1085.26
740.27	1081.91
740.60	1079.43
740.93	1079.48
741.26	1081.05
741.59	1079.27
741.92	1083.15
742.25	1084.18
742.58	1083.93
742.91	1082.29
743.25	1083.55
743.58	1082.01
743.91	1083.22
744.24	1086.64
744.57	1089.00
744.90	1090.90
745.23	1093.64
745.56	1094.83
745.89	1091.02
746.22	1088.02
746.55	1085.96
746.88	1086.43
747.21	1084.60
747.54	1085.07
747.87	1085.94
748.20	1088.19
748.53	1084.67
748.87	1084.11
749.20	1084.65
749.53	1081.96
749.86	1079.24
750.19	1079.57
750.52	1079.17
750.85	1078.59
751.18	1081.51
751.51	1082.59
751.84	1083.81
752.16	1086.73
752.49	1085.19
752.82	1085.33
753.15	1087.90
753.48	1088.42
753.81	1086.71
754.14	1088.98
754.47	1086.99
754.80	1083.48
755.13	1080.04
755.46	1080.63
755.79	1083.90
756.12	1088.72
756.45	1091.88
756.78	1094.57
757.11	1092.42
757.43	1089.03
757.76	1087.48
758.09	1085.28
758.42	1080.56
758.75	1082.08
759.08	1082.31
759.41	1078.85
759.74	1078.92
760.07	1086.31
760.39	1085.68
760.72	1085.54
761.05	1088.26
761.38	1089.05
761.71	1085.56
762.04	1087.25
762.36	1088.93
762.69	1087.69
763.02	1088.00
