SpectraSuite Data File
++++++++++++++++++++++++++++++++++++
Date: Mon Aug 26 10:26:37 PDT 2019
User: corrico
Dark Spectrum Present: No
Reference Spectrum Present: No
Number of Sampled Component Spectra: 1
Spectrometers: USB2+H06089
Integration Time (usec): 10000 (USB2+H06089)
Spectra Averaged: 20 (USB2+H06089)
Boxcar Smoothing: 2 (USB2+H06089)
Correct for Electrical Dark: No (USB2+H06089)
Strobe/Lamp Enabled: No (USB2+H06089)
Correct for Detector Non-linearity: No (USB2+H06089)
Correct for Stray Light: No (USB2+H06089)
Number of Pixels in Processed Spectrum: 2048
>>>>>Begin Processed Spectral Data<<<<<
339.70	1046.10
340.07	1046.10
340.45	1007.51
340.82	983.63
341.19	956.65
341.57	928.47
341.94	919.43
342.31	911.64
342.69	905.97
343.06	902.67
343.43	901.76
343.81	902.04
344.18	901.81
344.55	905.39
344.93	913.98
345.30	919.92
345.67	926.74
346.04	937.52
346.42	944.85
346.79	948.67
347.16	956.69
347.54	968.79
347.91	975.65
348.28	985.32
348.65	995.36
349.03	1008.02
349.40	1013.43
349.77	1022.58
350.14	1032.86
350.52	1041.30
350.89	1044.77
351.26	1053.36
351.63	1058.44
352.01	1061.46
352.38	1065.41
352.75	1070.51
353.12	1070.07
353.50	1072.71
353.87	1077.00
354.24	1077.77
354.61	1080.98
354.98	1080.98
355.36	1083.22
355.73	1082.40
356.10	1089.14
356.47	1093.33
356.84	1101.34
357.22	1099.72
357.59	1100.38
357.96	1094.11
358.33	1089.75
358.70	1085.33
359.08	1086.36
359.45	1087.41
359.82	1090.03
360.19	1087.06
360.56	1085.45
360.94	1084.35
361.31	1084.09
361.68	1082.12
362.05	1083.64
362.42	1082.36
362.79	1083.88
363.16	1084.28
363.54	1084.67
363.91	1084.21
364.28	1086.06
364.65	1083.29
365.02	1080.23
365.39	1078.43
365.76	1077.28
366.14	1078.92
366.51	1079.01
366.88	1078.50
367.25	1079.74
367.62	1079.46
367.99	1079.27
368.36	1079.85
368.73	1077.93
369.10	1077.47
369.48	1078.21
369.85	1077.47
370.22	1076.79
370.59	1081.91
370.96	1082.45
371.33	1081.91
371.70	1083.62
372.07	1085.14
372.44	1082.94
372.81	1083.41
373.18	1082.59
373.55	1079.46
373.93	1079.06
374.30	1078.54
374.67	1080.91
375.04	1081.28
375.41	1082.50
375.78	1081.40
376.15	1082.03
376.52	1079.01
376.89	1079.50
377.26	1079.50
377.63	1079.95
378.00	1082.05
378.37	1083.57
378.74	1084.11
379.11	1081.70
379.48	1084.07
379.85	1082.76
380.22	1082.59
380.59	1085.49
380.96	1089.47
381.33	1087.69
381.70	1086.73
382.07	1086.17
382.44	1080.67
382.81	1077.68
383.18	1077.89
383.55	1079.31
383.92	1080.25
384.29	1085.40
384.66	1088.58
385.03	1087.58
385.40	1089.94
385.77	1090.88
386.14	1088.98
386.51	1085.96
386.88	1086.59
387.25	1084.14
387.62	1081.84
387.99	1084.00
388.36	1086.71
388.73	1087.18
389.10	1086.03
389.46	1087.55
389.83	1088.35
390.20	1088.30
390.57	1084.91
390.94	1084.77
391.31	1085.89
391.68	1082.71
392.05	1081.75
392.42	1087.58
392.79	1089.89
393.16	1091.46
393.53	1093.69
393.89	1095.07
394.26	1095.14
394.63	1095.86
395.00	1091.39
395.37	1092.75
395.74	1092.14
396.11	1088.44
396.48	1085.19
396.84	1086.10
397.21	1085.59
397.58	1084.91
397.95	1084.46
398.32	1087.83
398.69	1086.22
399.06	1083.93
399.42	1084.14
399.79	1086.85
400.16	1084.70
400.53	1089.43
400.90	1087.16
401.27	1086.55
401.64	1084.37
402.00	1084.18
402.37	1084.63
402.74	1089.24
403.11	1090.57
403.48	1092.80
403.84	1095.25
404.21	1094.29
404.58	1093.57
404.95	1093.38
405.32	1093.15
405.68	1091.60
406.05	1089.45
406.42	1088.07
406.79	1088.75
407.16	1090.27
407.52	1091.86
407.89	1093.87
408.26	1097.10
408.63	1097.38
408.99	1102.16
409.36	1102.13
409.73	1102.72
410.10	1100.50
410.47	1101.22
410.83	1095.79
411.20	1098.48
411.57	1098.81
411.94	1102.74
412.30	1101.55
412.67	1103.00
413.04	1102.25
413.40	1102.93
413.77	1099.37
414.14	1098.60
414.51	1095.44
414.87	1092.59
415.24	1092.26
415.61	1093.57
415.97	1096.33
416.34	1101.39
416.71	1102.13
417.08	1101.15
417.44	1100.12
417.81	1101.15
418.18	1102.32
418.54	1105.60
418.91	1108.41
419.28	1109.46
419.64	1108.17
420.01	1106.72
420.38	1103.54
420.74	1103.14
421.11	1105.29
421.48	1105.97
421.84	1103.73
422.21	1109.51
422.58	1111.03
422.94	1114.35
423.31	1116.62
423.68	1114.96
424.04	1110.16
424.41	1109.65
424.77	1105.83
425.14	1106.61
425.51	1107.52
425.87	1111.43
426.24	1113.23
426.61	1111.82
426.97	1110.00
427.34	1110.49
427.70	1109.51
428.07	1109.09
428.44	1110.35
428.80	1109.55
429.17	1111.33
429.53	1111.38
429.90	1111.82
430.27	1113.74
430.63	1114.77
431.00	1116.15
431.36	1115.36
431.73	1110.72
432.09	1108.90
432.46	1107.89
432.83	1107.14
433.19	1108.06
433.56	1110.77
433.92	1111.87
434.29	1113.65
434.65	1114.80
435.02	1116.18
435.38	1115.62
435.75	1115.80
436.11	1116.39
436.48	1118.73
436.84	1115.10
437.21	1115.52
437.57	1113.93
437.94	1114.80
438.30	1109.58
438.67	1111.12
439.03	1112.53
439.40	1115.15
439.76	1113.04
440.13	1111.50
440.49	1110.61
440.86	1108.88
441.22	1106.82
441.59	1106.70
441.95	1111.15
442.32	1110.21
442.68	1112.27
443.05	1112.64
443.41	1112.06
443.78	1110.44
444.14	1110.87
444.51	1110.70
444.87	1110.82
445.24	1109.65
445.60	1112.64
445.96	1112.78
446.33	1110.94
446.69	1110.58
447.06	1113.21
447.42	1114.70
447.79	1115.15
448.15	1115.10
448.51	1113.53
448.88	1113.07
449.24	1106.02
449.61	1105.74
449.97	1104.83
450.33	1106.42
450.70	1106.54
451.06	1109.20
451.43	1107.73
451.79	1110.89
452.15	1113.09
452.52	1113.86
452.88	1114.00
453.24	1116.81
453.61	1114.89
453.97	1115.94
454.34	1114.80
454.70	1115.80
455.06	1112.92
455.43	1113.39
455.79	1110.75
456.15	1113.42
456.52	1112.08
456.88	1115.17
457.24	1115.66
457.61	1115.73
457.97	1112.76
458.33	1114.26
458.70	1111.57
459.06	1108.52
459.42	1107.42
459.79	1107.05
460.15	1106.18
460.51	1107.73
460.88	1108.64
461.24	1110.96
461.60	1115.80
461.96	1115.34
462.33	1116.72
462.69	1118.03
463.05	1117.91
463.42	1114.14
463.78	1114.89
464.14	1114.35
464.50	1115.73
464.87	1114.84
465.23	1117.09
465.59	1118.24
465.95	1120.95
466.32	1125.05
466.68	1130.08
467.04	1131.53
467.40	1133.08
467.77	1134.90
468.13	1131.70
468.49	1134.11
468.85	1134.36
469.22	1133.26
469.58	1136.89
469.94	1139.84
470.30	1137.95
470.66	1140.07
471.03	1145.25
471.39	1141.25
471.75	1144.26
472.11	1145.36
472.47	1150.72
472.84	1153.44
473.20	1157.63
473.56	1160.53
473.92	1160.55
474.28	1159.62
474.65	1163.15
475.01	1165.07
475.37	1166.97
475.73	1173.45
476.09	1176.54
476.45	1180.68
476.81	1187.21
477.18	1192.71
477.54	1200.67
477.90	1207.15
478.26	1213.76
478.62	1219.93
478.98	1225.15
479.34	1230.84
479.71	1240.69
480.07	1248.51
480.43	1259.28
480.79	1270.09
481.15	1279.43
481.51	1288.77
481.87	1296.54
482.23	1304.43
482.59	1316.74
482.96	1326.17
483.32	1339.02
483.68	1354.96
484.04	1371.18
484.40	1385.25
484.76	1406.59
485.12	1423.61
485.48	1442.80
485.84	1464.52
486.20	1487.20
486.56	1506.37
486.92	1532.23
487.28	1555.94
487.64	1579.63
488.00	1613.52
488.37	1642.87
488.73	1678.14
489.09	1714.21
489.45	1751.66
489.81	1778.78
490.17	1821.83
490.53	1857.75
490.89	1894.08
491.25	1937.14
491.61	1983.42
491.97	2030.20
492.33	2081.81
492.69	2136.75
493.05	2190.67
493.41	2250.94
493.77	2312.64
494.13	2377.00
494.49	2444.90
494.85	2516.45
495.21	2591.60
495.57	2666.81
495.93	2748.33
496.29	2834.69
496.64	2922.60
497.00	3009.93
497.36	3110.99
497.72	3214.30
498.08	3325.08
498.44	3443.86
498.80	3573.32
499.16	3707.36
499.52	3844.70
499.88	3990.50
500.24	4146.38
500.60	4295.61
500.96	4452.26
501.32	4624.78
501.68	4794.92
502.03	4974.69
502.39	5188.57
502.75	5406.52
503.11	5627.86
503.47	5855.01
503.83	6098.29
504.19	6347.44
504.55	6614.45
504.91	6891.10
505.26	7183.64
505.62	7488.73
505.98	7807.54
506.34	8139.26
506.70	8501.50
507.06	8887.48
507.42	9284.51
507.78	9690.26
508.13	10100.21
508.49	10532.83
508.85	10984.79
509.21	11469.63
509.57	11993.77
509.93	12542.16
510.28	13125.44
510.64	13753.57
511.00	14365.34
511.36	14939.97
511.72	15513.59
512.07	16164.89
512.43	16764.72
512.79	17429.48
513.15	18159.37
513.51	18932.64
513.86	19662.58
514.22	20509.95
514.58	21307.39
514.94	22153.90
515.30	23000.94
515.65	23822.25
516.01	24642.12
516.37	25497.30
516.73	26257.28
517.08	27140.55
517.44	27973.92
517.80	28769.23
518.16	29604.17
518.51	30431.18
518.87	31162.15
519.23	32021.24
519.59	32913.62
519.94	33749.82
520.30	34647.86
520.66	35414.08
521.01	36199.12
521.37	36865.33
521.73	37481.64
522.09	38063.41
522.44	38725.47
522.80	39148.69
523.16	39510.96
523.51	39767.08
523.87	40063.77
524.23	40301.97
524.58	40568.11
524.94	40942.13
525.30	41298.38
525.65	41491.92
526.01	41549.03
526.37	41545.56
526.72	41483.75
527.08	41347.18
527.44	41115.40
527.79	40939.78
528.15	40823.27
528.51	40572.86
528.86	40353.11
529.22	40156.66
529.58	39907.61
529.93	39512.03
530.29	39069.91
530.65	38690.11
531.00	38309.30
531.36	37841.73
531.71	37384.42
532.07	36919.47
532.43	36341.33
532.78	35696.56
533.14	35138.67
533.49	34578.26
533.85	33962.53
534.21	33343.69
534.56	32790.76
534.92	32197.11
535.27	31555.64
535.63	30945.60
535.98	30319.28
536.34	29679.56
536.69	29025.33
537.05	28426.41
537.41	27896.63
537.76	27403.55
538.12	26865.91
538.47	26379.27
538.83	25948.21
539.18	25482.54
539.54	25001.58
539.89	24536.61
540.25	24023.35
540.60	23519.90
540.96	23007.37
541.31	22511.09
541.67	22097.35
542.02	21713.10
542.38	21284.20
542.73	20855.65
543.09	20490.01
543.44	20144.55
543.80	19788.85
544.15	19379.71
544.51	19049.78
544.86	18738.00
545.22	18360.03
545.57	17988.09
545.93	17648.93
546.28	17348.50
546.64	17018.11
546.99	16671.10
547.35	16350.70
547.70	16059.80
548.05	15730.72
548.41	15411.54
548.76	15124.10
549.12	14839.70
549.47	14567.89
549.83	14313.22
550.18	13995.91
550.53	13662.81
550.89	13385.45
551.24	13097.94
551.60	12790.65
551.95	12539.70
552.30	12317.28
552.66	12072.86
553.01	11830.31
553.37	11561.45
553.72	11289.83
554.07	11011.28
554.43	10727.71
554.78	10441.57
555.13	10184.30
555.49	9967.55
555.84	9786.74
556.19	9596.73
556.55	9399.83
556.90	9212.82
557.26	9006.36
557.61	8780.45
557.96	8535.00
558.32	8333.76
558.67	8120.25
559.02	7900.22
559.37	7711.74
559.73	7575.12
560.08	7425.86
560.43	7285.83
560.79	7167.75
561.14	7019.73
561.49	6857.49
561.85	6699.32
562.20	6546.13
562.55	6405.91
562.90	6276.97
563.26	6160.13
563.61	6048.01
563.96	5932.81
564.32	5812.23
564.67	5693.14
565.02	5560.15
565.37	5443.45
565.73	5335.58
566.08	5227.77
566.43	5123.18
566.78	5022.34
567.14	4917.56
567.49	4814.95
567.84	4710.40
568.19	4603.76
568.54	4516.79
568.90	4431.08
569.25	4355.13
569.60	4285.29
569.95	4222.42
570.31	4141.16
570.66	4063.10
571.01	3972.15
571.36	3883.44
571.71	3801.43
572.06	3732.87
572.42	3667.06
572.77	3614.49
573.12	3561.31
573.47	3506.36
573.82	3447.35
574.18	3382.47
574.53	3319.84
574.88	3265.02
575.23	3213.44
575.58	3161.31
575.93	3122.65
576.28	3071.60
576.64	3017.82
576.99	2953.26
577.34	2896.32
577.69	2837.22
578.04	2786.88
578.39	2738.57
578.74	2703.44
579.09	2667.25
579.44	2628.12
579.80	2591.75
580.15	2551.09
580.50	2511.58
580.85	2481.34
581.20	2448.76
581.55	2418.52
581.90	2391.33
582.25	2357.79
582.60	2321.06
582.95	2282.19
583.30	2243.61
583.65	2208.37
584.00	2175.22
584.35	2144.59
584.71	2117.48
585.06	2090.47
585.41	2064.47
585.76	2041.09
586.11	2009.35
586.46	1984.84
586.81	1962.14
587.16	1936.44
587.51	1917.37
587.86	1900.84
588.21	1883.43
588.56	1862.62
588.91	1840.22
589.26	1819.93
589.61	1798.21
589.96	1779.60
590.31	1762.80
590.66	1750.37
591.01	1736.21
591.36	1724.69
591.71	1708.43
592.06	1693.64
592.41	1682.70
592.76	1666.32
593.10	1652.02
593.45	1636.20
593.80	1618.88
594.15	1598.19
594.50	1582.18
594.85	1567.64
595.20	1556.53
595.55	1547.68
595.90	1540.61
596.25	1532.23
596.60	1519.45
596.95	1504.33
597.30	1493.64
597.64	1532.47
597.99	1523.83
598.34	1518.38
598.69	1516.71
599.04	1508.45
599.39	1450.57
599.74	1439.45
600.09	1427.09
600.44	1417.69
600.78	1409.52
601.13	1398.73
601.48	1392.69
601.83	1388.24
602.18	1378.15
602.53	1371.48
602.88	1366.36
603.22	1360.95
603.57	1354.09
603.92	1349.20
604.27	1341.34
604.62	1335.49
604.97	1328.18
605.31	1324.72
605.66	1321.44
606.01	1318.38
606.36	1312.15
606.71	1307.84
607.05	1300.52
607.40	1294.92
607.75	1291.11
608.10	1287.86
608.44	1284.16
608.79	1281.61
609.14	1276.90
609.49	1270.30
609.84	1267.68
610.18	1261.64
610.53	1258.81
610.88	1253.94
611.23	1255.53
611.57	1252.54
611.92	1249.38
612.27	1242.52
612.62	1239.62
612.96	1231.00
613.31	1226.23
613.66	1225.34
614.00	1225.11
614.35	1221.88
614.70	1219.75
615.05	1217.59
615.39	1212.47
615.74	1205.77
616.09	1207.53
616.43	1204.14
616.78	1199.34
617.13	1197.72
617.47	1194.94
617.82	1191.15
618.17	1188.20
618.51	1184.15
618.86	1181.92
619.21	1182.51
619.55	1176.91
619.90	1176.82
620.25	1179.21
620.59	1176.66
620.94	1174.18
621.29	1172.37
621.63	1168.54
621.98	1162.40
622.32	1161.16
622.67	1159.52
623.02	1158.59
623.36	1156.06
623.71	1156.90
624.05	1154.47
624.40	1152.64
624.75	1154.70
625.09	1154.12
625.44	1152.15
625.78	1150.68
626.13	1148.59
626.48	1142.88
626.82	1139.63
627.17	1137.22
627.51	1135.84
627.86	1136.26
628.20	1136.75
628.55	1140.64
628.89	1139.75
629.24	1139.70
629.58	1140.80
629.93	1141.34
630.28	1139.40
630.62	1138.62
630.97	1136.14
631.31	1133.85
631.66	1129.05
632.00	1124.81
632.35	1121.21
632.69	1121.77
633.04	1119.01
633.38	1120.20
633.73	1119.31
634.07	1121.37
634.42	1119.45
634.76	1120.39
635.11	1117.23
635.45	1117.25
635.79	1116.86
636.14	1117.56
636.48	1117.28
636.83	1117.75
637.17	1120.09
637.52	1122.73
637.86	1121.02
638.21	1120.39
638.55	1118.42
638.89	1113.09
639.24	1110.14
639.58	1107.96
639.93	1106.44
640.27	1106.44
640.61	1109.86
640.96	1106.65
641.30	1109.13
641.65	1107.96
641.99	1109.11
642.33	1110.82
642.68	1112.06
643.02	1112.04
643.37	1110.26
643.71	1110.16
644.05	1105.29
644.40	1104.26
644.74	1101.34
645.08	1101.62
645.43	1100.38
645.77	1101.50
646.11	1102.65
646.46	1100.96
646.80	1103.26
647.14	1103.56
647.49	1102.91
647.83	1103.02
648.17	1103.80
648.52	1101.36
648.86	1099.93
649.20	1098.32
649.55	1097.80
649.89	1098.23
650.23	1098.23
650.57	1097.99
650.92	1096.70
651.26	1095.56
651.60	1094.25
651.95	1093.19
652.29	1092.26
652.63	1096.68
652.97	1096.61
653.32	1099.28
653.66	1102.56
654.00	1100.33
654.34	1098.90
654.69	1100.33
655.03	1097.08
655.37	1094.08
655.71	1098.58
656.05	1098.67
656.40	1095.46
656.74	1096.31
657.08	1095.77
657.42	1095.28
657.76	1093.31
658.11	1092.45
658.45	1092.89
658.79	1091.53
659.13	1090.53
659.47	1091.72
659.82	1090.27
660.16	1087.97
660.50	1090.08
660.84	1089.10
661.18	1089.73
661.52	1093.12
661.87	1093.45
662.21	1095.30
662.55	1095.60
662.89	1095.21
663.23	1093.83
663.57	1094.90
663.91	1090.74
664.25	1091.39
664.60	1093.03
664.94	1092.70
665.28	1096.24
665.62	1098.72
665.96	1098.98
666.30	1099.02
666.64	1100.64
666.98	1094.74
667.32	1093.76
667.66	1091.93
668.01	1090.17
668.35	1092.00
668.69	1095.02
669.03	1094.11
669.37	1097.59
669.71	1097.64
670.05	1091.58
670.39	1089.45
670.73	1092.02
671.07	1089.05
671.41	1089.03
671.75	1092.70
672.09	1090.50
672.43	1087.67
672.77	1088.07
673.11	1083.43
673.45	1085.24
673.79	1088.79
674.13	1091.58
674.47	1091.79
674.81	1097.90
675.15	1097.50
675.49	1095.04
675.83	1091.34
676.17	1090.57
676.51	1090.08
676.85	1089.12
677.19	1092.70
677.53	1094.15
677.87	1094.86
678.21	1089.99
678.55	1092.05
678.89	1089.52
679.23	1091.84
679.57	1090.36
679.90	1091.04
680.24	1085.33
680.58	1085.59
680.92	1083.81
681.26	1082.80
681.60	1085.35
681.94	1085.87
682.28	1087.11
682.62	1089.19
682.96	1092.56
683.29	1089.26
683.63	1090.92
683.97	1088.42
684.31	1084.09
684.65	1080.27
684.99	1083.29
685.33	1083.60
685.67	1087.13
686.00	1090.29
686.34	1090.97
686.68	1091.34
687.02	1090.46
687.36	1088.28
687.70	1088.28
688.03	1092.94
688.37	1093.94
688.71	1097.71
689.05	1099.40
689.39	1097.80
689.72	1096.12
690.06	1092.07
690.40	1088.84
690.74	1088.72
691.08	1091.42
691.41	1092.14
691.75	1096.92
692.09	1099.98
692.43	1096.49
692.76	1091.51
693.10	1085.91
693.44	1083.60
693.78	1081.98
694.11	1084.70
694.45	1086.99
694.79	1089.59
695.13	1087.95
695.46	1087.53
695.80	1086.76
696.14	1086.62
696.48	1089.52
696.81	1094.11
697.15	1094.95
697.49	1097.15
697.82	1097.73
698.16	1098.46
698.50	1093.01
698.83	1090.06
699.17	1088.58
699.51	1089.22
699.84	1087.97
700.18	1089.99
700.52	1093.66
700.85	1093.50
701.19	1092.82
701.53	1090.32
701.86	1090.10
702.20	1088.58
702.54	1088.54
702.87	1088.35
703.21	1089.29
703.55	1090.64
703.88	1087.67
704.22	1089.52
704.55	1087.11
704.89	1086.22
705.23	1084.39
705.56	1085.49
705.90	1081.33
706.23	1083.43
706.57	1082.92
706.91	1083.88
707.24	1088.47
707.58	1089.68
707.91	1090.22
708.25	1094.74
708.58	1094.76
708.92	1092.45
709.26	1094.27
709.59	1093.36
709.93	1090.88
710.26	1090.20
710.60	1090.27
710.93	1090.48
711.27	1090.76
711.60	1091.93
711.94	1091.79
712.27	1090.55
712.61	1089.73
712.94	1087.62
713.28	1085.35
713.61	1086.45
713.95	1086.62
714.28	1086.03
714.62	1087.51
714.95	1089.19
715.29	1089.59
715.62	1089.19
715.96	1089.75
716.29	1088.04
716.63	1085.05
716.96	1079.99
717.29	1078.94
717.63	1078.00
717.96	1079.71
718.30	1081.84
718.63	1085.59
718.97	1085.26
719.30	1086.92
719.63	1085.54
719.97	1082.05
720.30	1083.34
720.64	1085.28
720.97	1085.19
721.30	1086.43
721.64	1087.88
721.97	1089.03
722.31	1090.46
722.64	1090.39
722.97	1094.36
723.31	1094.43
723.64	1092.07
723.97	1089.64
724.31	1089.94
724.64	1087.48
724.98	1087.60
725.31	1084.86
725.64	1086.34
725.98	1086.34
726.31	1083.83
726.64	1087.44
726.97	1088.04
727.31	1086.69
727.64	1084.89
727.97	1084.58
728.31	1080.72
728.64	1081.98
728.97	1081.73
729.31	1083.32
729.64	1084.86
729.97	1089.89
730.30	1092.47
730.64	1095.07
730.97	1097.48
731.30	1100.82
731.63	1100.54
731.97	1096.31
732.30	1093.94
732.63	1089.73
732.96	1086.50
733.30	1082.45
733.63	1087.67
733.96	1088.77
734.29	1091.84
734.63	1094.81
734.96	1095.25
735.29	1093.08
735.62	1091.32
735.95	1087.74
736.29	1083.13
736.62	1081.91
736.95	1084.02
737.28	1085.21
737.61	1089.12
737.94	1088.40
738.28	1089.96
738.61	1086.66
738.94	1086.90
739.27	1084.96
739.60	1086.20
739.93	1086.22
740.27	1087.41
740.60	1088.07
740.93	1090.53
741.26	1091.11
741.59	1092.82
741.92	1092.33
742.25	1090.67
742.58	1086.90
742.91	1085.73
743.25	1084.35
743.58	1082.99
743.91	1085.26
744.24	1086.62
744.57	1089.07
744.90	1090.90
745.23	1089.82
745.56	1088.79
745.89	1088.19
746.22	1088.00
746.55	1083.71
746.88	1082.92
747.21	1079.46
747.54	1078.85
747.87	1077.18
748.20	1077.11
748.53	1081.42
748.87	1083.62
749.20	1083.41
749.53	1084.02
749.86	1086.80
750.19	1085.84
750.52	1088.65
750.85	1088.21
751.18	1087.60
751.51	1084.09
751.84	1083.27
752.16	1082.43
752.49	1083.34
752.82	1083.34
753.15	1084.91
753.48	1084.21
753.81	1080.74
754.14	1079.78
754.47	1077.70
754.80	1079.71
755.13	1081.00
755.46	1083.22
755.79	1086.22
756.12	1090.74
756.45	1089.94
756.78	1087.55
757.11	1086.48
757.43	1084.09
757.76	1080.41
758.09	1079.62
758.42	1080.79
758.75	1081.49
759.08	1080.02
759.41	1084.09
759.74	1084.37
760.07	1083.76
760.39	1082.66
760.72	1086.76
761.05	1084.07
761.38	1084.86
761.71	1084.56
762.04	1084.74
762.36	1079.74
762.69	1080.18
763.02	1078.52
763.35	1080.77
