SpectraSuite Data File
++++++++++++++++++++++++++++++++++++
Date: Mon Aug 26 10:26:38 PDT 2019
User: corrico
Dark Spectrum Present: No
Reference Spectrum Present: No
Number of Sampled Component Spectra: 1
Spectrometers: USB2+H06089
Integration Time (usec): 10000 (USB2+H06089)
Spectra Averaged: 20 (USB2+H06089)
Boxcar Smoothing: 2 (USB2+H06089)
Correct for Electrical Dark: No (USB2+H06089)
Strobe/Lamp Enabled: No (USB2+H06089)
Correct for Detector Non-linearity: No (USB2+H06089)
Correct for Stray Light: No (USB2+H06089)
Number of Pixels in Processed Spectrum: 2048
>>>>>Begin Processed Spectral Data<<<<<
339.70	1045.40
340.07	1045.40
340.45	1004.84
340.82	982.95
341.19	955.59
341.57	928.30
341.94	916.65
342.31	910.19
342.69	902.18
343.06	901.36
343.43	900.47
343.81	903.14
344.18	907.36
344.55	912.53
344.93	914.89
345.30	920.86
345.67	930.95
346.04	936.96
346.42	943.35
346.79	954.70
347.16	961.70
347.54	964.89
347.91	971.42
348.28	981.43
348.65	990.28
349.03	1002.12
349.40	1011.51
349.77	1023.56
350.14	1031.68
350.52	1035.55
350.89	1041.66
351.26	1048.21
351.63	1051.11
352.01	1057.55
352.38	1069.20
352.75	1071.50
353.12	1079.10
353.50	1085.35
353.87	1084.79
354.24	1083.83
354.61	1086.83
354.98	1083.69
355.36	1082.76
355.73	1085.94
356.10	1086.08
356.47	1088.47
356.84	1088.26
357.22	1091.20
357.59	1090.41
357.96	1088.89
358.33	1089.78
358.70	1091.18
359.08	1088.37
359.45	1088.89
359.82	1090.03
360.19	1084.07
360.56	1086.01
360.94	1085.99
361.31	1085.28
361.68	1084.35
362.05	1088.14
362.42	1090.20
362.79	1089.19
363.16	1088.51
363.54	1087.65
363.91	1087.69
364.28	1084.72
364.65	1087.79
365.02	1087.23
365.39	1085.05
365.76	1079.62
366.14	1077.35
366.51	1074.07
366.88	1072.57
367.25	1076.67
367.62	1081.37
367.99	1081.21
368.36	1080.53
368.73	1081.63
369.10	1080.46
369.48	1077.70
369.85	1077.56
370.22	1077.91
370.59	1078.33
370.96	1075.73
371.33	1079.55
371.70	1080.46
372.07	1079.71
372.44	1081.02
372.81	1084.96
373.18	1080.58
373.55	1082.66
373.93	1084.16
374.30	1081.09
374.67	1077.89
375.04	1078.80
375.41	1078.10
375.78	1077.11
376.15	1079.55
376.52	1080.93
376.89	1084.44
377.26	1081.61
377.63	1082.99
378.00	1085.99
378.37	1087.30
378.74	1085.07
379.11	1087.13
379.48	1085.91
379.85	1082.08
380.22	1080.79
380.59	1081.49
380.96	1079.46
381.33	1080.84
381.70	1083.29
382.07	1082.73
382.44	1083.27
382.81	1086.27
383.18	1087.02
383.55	1088.12
383.92	1088.23
384.29	1086.87
384.66	1085.42
385.03	1082.36
385.40	1079.22
385.77	1081.09
386.14	1080.74
386.51	1080.98
386.88	1085.05
387.25	1085.42
387.62	1086.41
387.99	1089.89
388.36	1089.54
388.73	1085.89
389.10	1085.99
389.46	1082.92
389.83	1082.01
390.20	1083.46
390.57	1086.29
390.94	1087.65
391.31	1088.82
391.68	1088.02
392.05	1087.09
392.42	1087.18
392.79	1088.51
393.16	1087.65
393.53	1087.88
393.89	1090.43
394.26	1091.51
394.63	1090.71
395.00	1092.49
395.37	1092.00
395.74	1089.19
396.11	1090.99
396.48	1092.28
396.84	1092.68
397.21	1091.81
397.58	1092.96
397.95	1091.79
398.32	1090.60
398.69	1092.35
399.06	1093.73
399.42	1096.17
399.79	1096.42
400.16	1093.12
400.53	1091.74
400.90	1092.14
401.27	1090.06
401.64	1087.90
402.00	1091.88
402.37	1094.48
402.74	1097.76
403.11	1099.68
403.48	1098.76
403.84	1096.56
404.21	1096.07
404.58	1092.19
404.95	1092.49
405.32	1094.60
405.68	1099.49
406.05	1100.19
406.42	1101.74
406.79	1099.02
407.16	1100.10
407.52	1096.63
407.89	1094.57
408.26	1094.69
408.63	1097.69
408.99	1093.69
409.36	1092.00
409.73	1091.95
410.10	1091.20
410.47	1090.55
410.83	1092.28
411.20	1095.30
411.57	1093.17
411.94	1095.37
412.30	1095.67
412.67	1098.98
413.04	1099.51
413.40	1102.25
413.77	1101.76
414.14	1104.97
414.51	1104.85
414.87	1104.41
415.24	1105.95
415.61	1107.12
415.97	1106.72
416.34	1106.61
416.71	1106.77
417.08	1108.62
417.44	1108.74
417.81	1107.28
418.18	1107.07
418.54	1108.34
418.91	1105.83
419.28	1103.28
419.64	1103.38
420.01	1105.13
420.38	1108.20
420.74	1109.39
421.11	1112.29
421.48	1112.32
421.84	1108.59
422.21	1105.34
422.58	1104.66
422.94	1102.79
423.31	1102.70
423.68	1107.85
424.04	1109.30
424.41	1110.05
424.77	1114.10
425.14	1117.51
425.51	1116.18
425.87	1118.82
426.24	1119.13
426.61	1117.09
426.97	1118.38
427.34	1117.28
427.70	1117.07
428.07	1115.12
428.44	1114.28
428.80	1110.35
429.17	1109.55
429.53	1106.46
429.90	1110.07
430.27	1110.75
430.63	1114.24
431.00	1117.84
431.36	1119.45
431.73	1116.08
432.09	1116.27
432.46	1113.53
432.83	1108.55
433.19	1108.03
433.56	1106.09
433.92	1106.25
434.29	1109.58
434.65	1112.97
435.02	1112.99
435.38	1116.37
435.75	1115.83
436.11	1110.91
436.48	1113.91
436.84	1111.64
437.21	1112.83
437.57	1114.31
437.94	1115.52
438.30	1112.22
438.67	1112.97
439.03	1112.92
439.40	1110.56
439.76	1111.26
440.13	1112.25
440.49	1112.29
440.86	1109.62
441.22	1107.82
441.59	1107.05
441.95	1104.48
442.32	1103.52
442.68	1105.48
443.05	1109.20
443.41	1110.82
443.78	1110.79
444.14	1112.34
444.51	1110.79
444.87	1111.33
445.24	1108.62
445.60	1110.68
445.96	1108.66
446.33	1113.25
446.69	1111.36
447.06	1111.40
447.42	1109.30
447.79	1110.87
448.15	1109.77
448.51	1110.72
448.88	1111.03
449.24	1111.24
449.61	1115.59
449.97	1115.43
450.33	1113.77
450.70	1115.29
451.06	1117.16
451.43	1116.01
451.79	1114.00
452.15	1113.95
452.52	1115.87
452.88	1116.86
453.24	1111.36
453.61	1109.69
453.97	1110.23
454.34	1109.25
454.70	1108.69
455.06	1110.70
455.43	1110.26
455.79	1111.50
456.15	1107.73
456.52	1107.71
456.88	1106.98
457.24	1109.81
457.61	1112.46
457.97	1115.27
458.33	1113.42
458.70	1113.07
459.06	1112.85
459.42	1110.40
459.79	1108.22
460.15	1106.89
460.51	1110.72
460.88	1111.66
461.24	1112.71
461.60	1114.59
461.96	1120.60
462.33	1118.19
462.69	1116.22
463.05	1115.55
463.42	1115.92
463.78	1113.23
464.14	1115.22
464.50	1116.67
464.87	1116.72
465.23	1119.06
465.59	1120.37
465.95	1119.24
466.32	1121.58
466.68	1123.88
467.04	1125.38
467.40	1126.48
467.77	1129.85
468.13	1130.78
468.49	1128.72
468.85	1129.66
469.22	1132.14
469.58	1134.08
469.94	1135.25
470.30	1140.15
470.66	1140.38
471.03	1143.35
471.39	1144.45
471.75	1146.84
472.11	1149.95
472.47	1154.26
472.84	1151.17
473.20	1156.34
473.56	1159.97
473.92	1163.39
474.28	1165.63
474.65	1169.38
475.01	1171.48
475.37	1173.17
475.73	1174.83
476.09	1178.76
476.45	1185.57
476.81	1188.88
477.18	1195.31
477.54	1199.13
477.90	1207.60
478.26	1214.64
478.62	1223.87
478.98	1229.16
479.34	1240.09
479.71	1250.24
480.07	1261.01
480.43	1266.49
480.79	1278.52
481.15	1287.46
481.51	1294.85
481.87	1302.58
482.23	1312.13
482.59	1323.01
482.96	1331.53
483.32	1341.69
483.68	1355.52
484.04	1374.06
484.40	1391.66
484.76	1409.03
485.12	1425.81
485.48	1444.25
485.84	1464.50
486.20	1483.48
486.56	1509.01
486.92	1532.61
487.28	1558.91
487.64	1585.29
488.00	1617.17
488.37	1642.68
488.73	1672.99
489.09	1704.87
489.45	1740.54
489.81	1771.86
490.17	1817.43
490.53	1858.03
490.89	1896.02
491.25	1936.91
491.61	1982.20
491.97	2026.90
492.33	2084.53
492.69	2138.78
493.05	2189.52
493.41	2249.30
493.77	2312.22
494.13	2371.88
494.49	2444.29
494.85	2522.77
495.21	2600.50
495.57	2674.37
495.93	2757.01
496.29	2841.18
496.64	2936.69
497.00	3024.35
497.36	3124.38
497.72	3223.15
498.08	3329.22
498.44	3441.43
498.80	3572.24
499.16	3705.49
499.52	3847.56
499.88	3997.28
500.24	4148.06
500.60	4299.19
500.96	4462.28
501.32	4635.83
501.68	4801.42
502.03	4992.90
502.39	5202.78
502.75	5415.55
503.11	5642.66
503.47	5884.83
503.83	6126.98
504.19	6378.45
504.55	6648.81
504.91	6922.81
505.26	7207.96
505.62	7506.22
505.98	7826.17
506.34	8160.70
506.70	8522.29
507.06	8911.47
507.42	9309.57
507.78	9717.01
508.13	10122.07
508.49	10564.62
508.85	11029.00
509.21	11520.19
509.57	12048.21
509.93	12621.64
510.28	13200.06
510.64	13807.15
511.00	14422.73
511.36	14996.14
511.72	15588.11
512.07	16240.13
512.43	16852.04
512.79	17512.94
513.15	18257.58
513.51	19006.53
513.86	19746.77
514.22	20574.25
514.58	21382.10
514.94	22212.39
515.30	23073.47
515.65	23881.40
516.01	24733.05
516.37	25600.08
516.73	26397.19
517.08	27255.73
517.44	28109.44
517.80	28922.37
518.16	29763.05
518.51	30568.61
518.87	31312.11
519.23	32154.98
519.59	33012.18
519.94	33843.47
520.30	34722.78
520.66	35479.97
521.01	36285.51
521.37	36982.80
521.73	37594.76
522.09	38180.97
522.44	38835.76
522.80	39232.86
523.16	39572.96
523.51	39826.44
523.87	40123.48
524.23	40394.60
524.58	40675.35
524.94	41059.48
525.30	41399.82
525.65	41601.71
526.01	41639.63
526.37	41637.90
526.72	41566.74
527.08	41438.69
527.44	41240.57
527.79	41074.13
528.15	40951.56
528.51	40687.45
528.86	40463.37
529.22	40215.15
529.58	39952.43
529.93	39565.80
530.29	39149.65
530.65	38777.15
531.00	38449.36
531.36	37995.09
531.71	37546.41
532.07	37076.38
532.43	36497.03
532.78	35814.41
533.14	35261.43
533.49	34669.40
533.85	34034.53
534.21	33418.43
534.56	32853.33
534.92	32252.02
535.27	31645.40
535.63	31052.57
535.98	30427.81
536.34	29825.19
536.69	29160.38
537.05	28558.89
537.41	28038.12
537.76	27535.93
538.12	26987.90
538.47	26513.12
538.83	26057.75
539.18	25577.49
539.54	25083.76
539.89	24614.85
540.25	24091.77
540.60	23605.33
540.96	23100.99
541.31	22643.28
541.67	22236.17
542.02	21854.14
542.38	21418.83
542.73	20972.44
543.09	20572.58
543.44	20193.28
543.80	19844.98
544.15	19444.35
544.51	19138.79
544.86	18829.14
545.22	18472.07
545.57	18091.10
545.93	17746.04
546.28	17416.61
546.64	17083.34
546.99	16743.89
547.35	16414.29
547.70	16120.58
548.05	15793.00
548.41	15489.45
548.76	15187.62
549.12	14918.48
549.47	14630.78
549.83	14376.41
550.18	14055.22
550.53	13729.07
550.89	13447.64
551.24	13182.20
551.60	12883.15
551.95	12631.40
552.30	12388.74
552.66	12133.03
553.01	11871.36
553.37	11597.38
553.72	11325.27
554.07	11067.81
554.43	10787.95
554.78	10506.59
555.13	10261.47
555.49	10023.53
555.84	9823.56
556.19	9631.70
556.55	9435.10
556.90	9238.26
557.26	9043.48
557.61	8830.12
557.96	8592.67
558.32	8400.58
558.67	8195.25
559.02	7980.97
559.37	7786.99
559.73	7634.15
560.08	7470.80
560.43	7323.72
560.79	7198.62
561.14	7055.83
561.49	6889.95
561.85	6735.90
562.20	6584.56
562.55	6448.27
562.90	6318.88
563.26	6206.63
563.61	6091.34
563.96	5979.67
564.32	5850.54
564.67	5726.82
565.02	5606.24
565.37	5494.95
565.73	5386.91
566.08	5288.67
566.43	5182.18
566.78	5075.71
567.14	4964.98
567.49	4854.06
567.84	4752.20
568.19	4648.58
568.54	4555.53
568.90	4465.58
569.25	4384.50
569.60	4308.27
569.95	4235.71
570.31	4162.32
570.66	4087.79
571.01	3999.02
571.36	3909.72
571.71	3836.30
572.06	3763.51
572.42	3700.08
572.77	3650.98
573.12	3598.27
573.47	3537.28
573.82	3479.09
574.18	3408.08
574.53	3346.66
574.88	3289.62
575.23	3234.78
575.58	3184.35
575.93	3141.72
576.28	3087.82
576.64	3032.77
576.99	2975.57
577.34	2918.81
577.69	2863.74
578.04	2815.52
578.39	2762.67
578.74	2720.47
579.09	2680.90
579.44	2640.59
579.80	2597.78
580.15	2560.12
580.50	2523.75
580.85	2486.44
581.20	2454.36
581.55	2426.27
581.90	2399.96
582.25	2369.65
582.60	2335.36
582.95	2301.71
583.30	2261.94
583.65	2229.41
584.00	2187.02
584.35	2154.70
584.71	2122.68
585.06	2092.32
585.41	2058.29
585.76	2037.67
586.11	2012.88
586.46	1988.31
586.81	1970.57
587.16	1952.76
587.51	1935.13
587.86	1917.16
588.21	1898.08
588.56	1879.94
588.91	1857.00
589.26	1832.15
589.61	1809.75
589.96	1791.87
590.31	1772.56
590.66	1754.96
591.01	1744.64
591.36	1732.58
591.71	1712.69
592.06	1696.75
592.41	1683.62
592.76	1666.34
593.10	1646.59
593.45	1636.39
593.80	1616.63
594.15	1599.87
594.50	1582.72
594.85	1572.25
595.20	1559.66
595.55	1552.17
595.90	1543.89
596.25	1534.34
596.60	1522.33
596.95	1510.58
597.30	1500.03
597.64	1539.74
597.99	1537.69
598.34	1529.17
598.69	1520.22
599.04	1511.40
599.39	1453.05
599.74	1437.53
600.09	1426.07
600.44	1419.49
600.78	1412.02
601.13	1406.01
601.48	1402.43
601.83	1398.21
602.18	1392.24
602.53	1385.15
602.88	1377.12
603.22	1365.54
603.57	1358.61
603.92	1350.26
604.27	1343.42
604.62	1333.99
604.97	1332.30
605.31	1329.19
605.66	1324.49
606.01	1320.27
606.36	1315.78
606.71	1307.68
607.05	1301.97
607.40	1298.55
607.75	1294.46
608.10	1288.82
608.44	1286.48
608.79	1282.64
609.14	1275.45
609.49	1268.62
609.84	1263.89
610.18	1259.40
610.53	1255.63
610.88	1256.19
611.23	1256.10
611.57	1255.35
611.92	1252.33
612.27	1248.70
612.62	1239.66
612.96	1235.78
613.31	1229.37
613.66	1225.08
614.00	1219.42
614.35	1217.94
614.70	1211.63
615.05	1214.67
615.39	1212.73
615.74	1208.61
616.09	1209.71
616.43	1207.46
616.78	1201.19
617.13	1201.19
617.47	1198.78
617.82	1193.32
618.17	1191.85
618.51	1192.76
618.86	1186.18
619.21	1186.56
619.55	1182.63
619.90	1181.10
620.25	1179.02
620.59	1176.12
620.94	1174.36
621.29	1174.43
621.63	1171.37
621.98	1169.21
622.32	1170.48
622.67	1166.73
623.02	1165.12
623.36	1167.20
623.71	1164.37
624.05	1159.41
624.40	1155.83
624.75	1152.04
625.09	1150.84
625.44	1149.58
625.78	1150.09
626.13	1151.47
626.48	1150.26
626.82	1145.88
627.17	1142.02
627.51	1138.06
627.86	1139.26
628.20	1141.27
628.55	1140.15
628.89	1139.72
629.24	1138.72
629.58	1135.04
629.93	1133.87
630.28	1132.49
630.62	1129.45
630.97	1129.64
631.31	1130.15
631.66	1126.76
632.00	1127.72
632.35	1129.26
632.69	1129.80
633.04	1129.19
633.38	1129.82
633.73	1126.27
634.07	1124.37
634.42	1120.58
634.76	1118.73
635.11	1118.78
635.45	1119.71
635.79	1119.88
636.14	1122.31
636.48	1123.39
636.83	1118.57
637.17	1117.42
637.52	1118.85
637.86	1119.22
638.21	1116.55
638.55	1122.17
638.89	1121.61
639.24	1118.73
639.58	1115.22
639.93	1115.57
640.27	1112.13
640.61	1112.41
640.96	1114.00
641.30	1116.11
641.65	1112.29
641.99	1109.62
642.33	1107.26
642.68	1106.32
643.02	1105.44
643.37	1111.01
643.71	1110.77
644.05	1111.15
644.40	1111.08
644.74	1108.90
645.08	1105.76
645.43	1105.93
645.77	1108.20
646.11	1108.10
646.46	1112.55
646.80	1109.77
647.14	1111.36
647.49	1107.96
647.83	1107.00
648.17	1106.09
648.52	1106.75
648.86	1102.84
649.20	1104.43
649.55	1100.31
649.89	1102.49
650.23	1101.74
650.57	1102.51
650.92	1100.89
651.26	1103.49
651.60	1097.64
651.95	1097.80
652.29	1098.09
652.63	1097.76
652.97	1097.38
653.32	1097.78
653.66	1099.23
654.00	1098.76
654.34	1097.88
654.69	1097.08
655.03	1098.79
655.37	1098.65
655.71	1099.70
656.05	1101.27
656.40	1101.62
656.74	1097.13
657.08	1096.28
657.42	1096.42
657.76	1096.07
658.11	1095.37
658.45	1097.29
658.79	1096.63
659.13	1097.73
659.47	1096.96
659.82	1099.05
660.16	1101.50
660.50	1098.67
660.84	1094.43
661.18	1094.88
661.52	1091.86
661.87	1090.24
662.21	1093.31
662.55	1098.41
662.89	1096.10
663.23	1094.50
663.57	1093.90
663.91	1092.14
664.25	1087.86
664.60	1090.83
664.94	1092.80
665.28	1093.90
665.62	1094.76
665.96	1095.98
666.30	1095.53
666.64	1095.07
666.98	1093.52
667.32	1094.86
667.66	1093.83
668.01	1092.91
668.35	1093.87
668.69	1093.29
669.03	1092.89
669.37	1093.47
669.71	1093.45
670.05	1092.02
670.39	1093.57
670.73	1092.16
671.07	1091.65
671.41	1091.11
671.75	1091.11
672.09	1088.16
672.43	1088.23
672.77	1089.99
673.11	1090.48
673.45	1092.45
673.79	1095.07
674.13	1094.72
674.47	1094.06
674.81	1093.52
675.15	1092.16
675.49	1092.54
675.83	1093.40
676.17	1095.56
676.51	1096.80
676.85	1098.37
677.19	1096.40
677.53	1097.71
677.87	1091.02
678.21	1091.23
678.55	1090.64
678.89	1090.55
679.23	1088.89
679.57	1091.58
679.90	1088.61
680.24	1088.54
680.58	1089.24
680.92	1088.70
681.26	1090.03
681.60	1090.95
681.94	1089.99
682.28	1088.96
682.62	1087.79
682.96	1086.15
683.29	1085.33
683.63	1084.89
683.97	1086.45
684.31	1088.56
684.65	1088.02
684.99	1090.85
685.33	1092.26
685.67	1086.64
686.00	1086.78
686.34	1087.76
686.68	1087.06
687.02	1085.07
687.36	1090.13
687.70	1090.64
688.03	1091.27
688.37	1090.83
688.71	1088.58
689.05	1085.82
689.39	1084.09
689.72	1082.15
690.06	1079.31
690.40	1083.55
690.74	1084.63
691.08	1086.43
691.41	1089.29
691.75	1093.24
692.09	1093.15
692.43	1094.11
692.76	1091.84
693.10	1090.22
693.44	1089.68
693.78	1090.29
694.11	1088.19
694.45	1088.89
694.79	1089.10
695.13	1087.72
695.46	1090.95
695.80	1094.22
696.14	1094.74
696.48	1098.16
696.81	1098.37
697.15	1092.35
697.49	1091.67
697.82	1093.99
698.16	1089.47
698.50	1089.78
698.83	1090.71
699.17	1089.92
699.51	1087.37
699.84	1087.41
700.18	1086.24
700.52	1088.77
700.85	1087.55
701.19	1086.08
701.53	1088.40
701.86	1088.65
702.20	1087.97
702.54	1089.85
702.87	1090.53
703.21	1090.39
703.55	1093.29
703.88	1089.43
704.22	1091.39
704.55	1093.19
704.89	1088.49
705.23	1084.81
705.56	1084.86
705.90	1083.11
706.23	1086.34
706.57	1090.53
706.91	1091.13
707.24	1093.50
707.58	1091.86
707.91	1089.43
708.25	1090.36
708.58	1091.39
708.92	1089.80
709.26	1089.05
709.59	1088.35
709.93	1089.07
710.26	1089.03
710.60	1090.99
710.93	1090.83
711.27	1090.10
711.60	1086.62
711.94	1087.58
712.27	1088.26
712.61	1088.19
712.94	1087.93
713.28	1091.95
713.61	1091.16
713.95	1090.57
714.28	1093.22
714.62	1092.80
714.95	1092.73
715.29	1091.42
715.62	1091.42
715.96	1093.59
716.29	1093.85
716.63	1091.77
716.96	1092.37
717.29	1096.33
717.63	1091.74
717.96	1091.67
718.30	1089.68
718.63	1089.38
718.97	1086.80
719.30	1089.10
719.63	1087.51
719.97	1089.12
720.30	1088.82
720.64	1084.30
720.97	1083.20
721.30	1083.13
721.64	1085.45
721.97	1086.55
722.31	1089.24
722.64	1088.61
722.97	1089.94
723.31	1086.94
723.64	1085.14
723.97	1086.10
724.31	1089.31
724.64	1089.05
724.98	1089.26
725.31	1091.34
725.64	1091.23
725.98	1088.12
726.31	1088.70
726.64	1087.74
726.97	1084.00
727.31	1080.72
727.64	1082.97
727.97	1082.38
728.31	1082.90
728.64	1085.73
728.97	1084.84
729.31	1083.95
729.64	1084.77
729.97	1084.21
730.30	1085.49
730.64	1089.80
730.97	1092.52
731.30	1093.52
731.63	1094.53
731.97	1093.73
732.30	1092.09
732.63	1089.64
732.96	1087.11
733.30	1087.09
733.63	1081.56
733.96	1079.31
734.29	1076.20
734.63	1079.22
734.96	1080.46
735.29	1086.85
735.62	1086.94
735.95	1089.57
736.29	1087.83
736.62	1086.27
736.95	1084.70
737.28	1086.73
737.61	1086.34
737.94	1086.17
738.28	1086.01
738.61	1084.02
738.94	1085.99
739.27	1086.22
739.60	1085.40
739.93	1084.84
740.27	1084.02
740.60	1081.80
740.93	1079.78
741.26	1082.80
741.59	1084.18
741.92	1087.06
742.25	1089.40
742.58	1091.56
742.91	1090.99
743.25	1090.17
743.58	1089.05
743.91	1087.06
744.24	1085.99
744.57	1084.60
744.90	1086.55
745.23	1085.84
745.56	1086.50
745.89	1087.69
746.22	1090.06
746.55	1086.06
746.88	1087.34
747.21	1086.57
747.54	1085.56
747.87	1080.88
748.20	1082.43
748.53	1083.13
748.87	1084.16
749.20	1084.91
749.53	1085.99
749.86	1086.71
750.19	1086.08
750.52	1083.95
750.85	1081.19
751.18	1082.66
751.51	1081.70
751.84	1081.87
752.16	1081.40
752.49	1086.24
752.82	1085.38
753.15	1088.40
753.48	1090.13
753.81	1091.53
754.14	1090.43
754.47	1092.07
754.80	1090.97
755.13	1087.93
755.46	1092.00
755.79	1093.92
756.12	1095.72
756.45	1095.11
756.78	1096.73
757.11	1090.08
757.43	1084.23
757.76	1081.77
758.09	1081.12
758.42	1079.57
758.75	1083.93
759.08	1089.75
759.41	1089.03
759.74	1090.41
760.07	1091.18
760.39	1092.23
760.72	1087.04
761.05	1087.62
761.38	1088.70
761.71	1088.84
762.04	1084.67
762.36	1085.61
762.69	1082.87
763.02	1081.80
763.35	1080.48
