SpectraSuite Data File
++++++++++++++++++++++++++++++++++++
Date: Mon Aug 26 10:26:16 PDT 2019
User: corrico
Dark Spectrum Present: No
Reference Spectrum Present: No
Number of Sampled Component Spectra: 1
Spectrometers: USB2+H06089
Integration Time (usec): 10000 (USB2+H06089)
Spectra Averaged: 20 (USB2+H06089)
Boxcar Smoothing: 2 (USB2+H06089)
Correct for Electrical Dark: No (USB2+H06089)
Strobe/Lamp Enabled: No (USB2+H06089)
Correct for Detector Non-linearity: No (USB2+H06089)
Correct for Stray Light: No (USB2+H06089)
Number of Pixels in Processed Spectrum: 2048
>>>>>Begin Processed Spectral Data<<<<<
339.70	1049.26
340.07	1049.26
340.45	1007.79
340.82	986.37
341.19	959.85
341.57	934.01
341.94	924.54
342.31	917.26
342.69	909.23
343.06	902.72
343.43	898.16
343.81	896.57
344.18	900.05
344.55	905.04
344.93	912.29
345.30	920.28
345.67	931.30
346.04	939.91
346.42	947.40
346.79	957.93
347.16	968.02
347.54	975.86
347.91	981.90
348.28	990.33
348.65	999.92
349.03	1006.83
349.40	1013.73
349.77	1025.60
350.14	1034.10
350.52	1039.76
350.89	1048.42
351.26	1052.05
351.63	1055.39
352.01	1059.75
352.38	1064.52
352.75	1068.74
353.12	1073.37
353.50	1078.21
353.87	1082.17
354.24	1085.10
354.61	1084.28
354.98	1087.81
355.36	1088.70
355.73	1090.78
356.10	1090.81
356.47	1094.27
356.84	1096.63
357.22	1096.17
357.59	1092.59
357.96	1092.56
358.33	1091.70
358.70	1091.34
359.08	1090.57
359.45	1089.75
359.82	1090.22
360.19	1089.64
360.56	1087.11
360.94	1087.06
361.31	1089.00
361.68	1087.53
362.05	1085.70
362.42	1087.51
362.79	1086.73
363.16	1084.37
363.54	1082.64
363.91	1082.26
364.28	1078.03
364.65	1077.14
365.02	1076.60
365.39	1080.39
365.76	1081.14
366.14	1082.52
366.51	1084.39
366.88	1086.43
367.25	1083.67
367.62	1081.94
367.99	1078.26
368.36	1077.84
368.73	1079.48
369.10	1078.26
369.48	1079.20
369.85	1082.15
370.22	1081.28
370.59	1079.71
370.96	1080.95
371.33	1079.57
371.70	1079.81
372.07	1077.58
372.44	1076.48
372.81	1076.81
373.18	1075.52
373.55	1076.04
373.93	1076.90
374.30	1075.38
374.67	1076.81
375.04	1083.74
375.41	1083.04
375.78	1085.75
376.15	1088.49
376.52	1087.95
376.89	1083.13
377.26	1083.06
377.63	1084.14
378.00	1083.48
378.37	1082.87
378.74	1083.43
379.11	1087.13
379.48	1085.38
379.85	1086.85
380.22	1088.56
380.59	1089.24
380.96	1087.20
381.33	1087.67
381.70	1085.96
382.07	1084.72
382.44	1085.14
382.81	1082.94
383.18	1085.26
383.55	1085.61
383.92	1084.67
384.29	1085.80
384.66	1087.86
385.03	1085.82
385.40	1087.30
385.77	1088.93
386.14	1088.75
386.51	1088.91
386.88	1088.19
387.25	1088.68
387.62	1089.43
387.99	1084.96
388.36	1084.32
388.73	1084.25
389.10	1084.11
389.46	1086.20
389.83	1091.53
390.20	1090.97
390.57	1091.56
390.94	1091.84
391.31	1086.92
391.68	1086.64
392.05	1088.84
392.42	1089.85
392.79	1089.19
393.16	1092.33
393.53	1090.88
393.89	1093.17
394.26	1093.94
394.63	1093.15
395.00	1091.74
395.37	1092.42
395.74	1090.76
396.11	1089.47
396.48	1089.85
396.84	1090.08
397.21	1093.92
397.58	1092.47
397.95	1092.28
398.32	1094.18
398.69	1096.05
399.06	1095.23
399.42	1094.29
399.79	1092.80
400.16	1092.89
400.53	1090.01
400.90	1085.14
401.27	1086.50
401.64	1089.33
402.00	1090.15
402.37	1094.62
402.74	1093.71
403.11	1096.66
403.48	1098.11
403.84	1097.69
404.21	1094.46
404.58	1098.67
404.95	1097.71
405.32	1099.77
405.68	1099.23
406.05	1099.84
406.42	1101.18
406.79	1102.28
407.16	1100.50
407.52	1097.92
407.89	1098.30
408.26	1099.02
408.63	1098.20
408.99	1096.68
409.36	1100.29
409.73	1102.93
410.10	1104.57
410.47	1102.28
410.83	1102.77
411.20	1102.77
411.57	1103.59
411.94	1102.77
412.30	1106.79
412.67	1107.17
413.04	1107.31
413.40	1106.75
413.77	1102.91
414.14	1102.23
414.51	1103.73
414.87	1105.46
415.24	1105.46
415.61	1109.77
415.97	1109.81
416.34	1111.99
416.71	1112.08
417.08	1112.60
417.44	1110.87
417.81	1111.73
418.18	1109.46
418.54	1108.38
418.91	1110.82
419.28	1114.40
419.64	1115.34
420.01	1117.32
420.38	1119.90
420.74	1120.79
421.11	1119.97
421.48	1120.32
421.84	1118.61
422.21	1118.75
422.58	1114.89
422.94	1113.49
423.31	1113.11
423.68	1114.94
424.04	1115.73
424.41	1118.24
424.77	1117.09
425.14	1118.54
425.51	1119.88
425.87	1118.82
426.24	1119.24
426.61	1120.95
426.97	1122.83
427.34	1120.65
427.70	1121.35
428.07	1119.92
428.44	1121.56
428.80	1119.06
429.17	1116.25
429.53	1118.24
429.90	1119.29
430.27	1116.30
430.63	1118.03
431.00	1122.90
431.36	1118.89
431.73	1119.10
432.09	1118.99
432.46	1118.73
432.83	1115.99
433.19	1119.90
433.56	1121.37
433.92	1126.92
434.29	1124.04
434.65	1128.02
435.02	1126.99
435.38	1124.70
435.75	1121.21
436.11	1120.37
436.48	1120.13
436.84	1115.64
437.21	1115.38
437.57	1114.98
437.94	1116.08
438.30	1117.18
438.67	1119.67
439.03	1121.47
439.40	1123.15
439.76	1121.40
440.13	1120.48
440.49	1122.33
440.86	1117.70
441.22	1114.75
441.59	1120.02
441.95	1117.23
442.32	1116.37
442.68	1119.13
443.05	1120.18
443.41	1117.77
443.78	1117.61
444.14	1115.94
444.51	1114.40
444.87	1113.37
445.24	1107.66
445.60	1112.06
445.96	1114.02
446.33	1115.76
446.69	1119.27
447.06	1122.85
447.42	1117.42
447.79	1113.58
448.15	1111.24
448.51	1107.28
448.88	1108.41
449.24	1108.03
449.61	1108.01
449.97	1109.86
450.33	1116.25
450.70	1118.07
451.06	1119.69
451.43	1123.25
451.79	1124.39
452.15	1117.91
452.52	1116.08
452.88	1114.45
453.24	1113.70
453.61	1115.71
453.97	1117.28
454.34	1118.61
454.70	1120.09
455.06	1120.30
455.43	1118.80
455.79	1120.09
456.15	1119.57
456.52	1117.93
456.88	1114.87
457.24	1112.71
457.61	1109.32
457.97	1110.68
458.33	1113.58
458.70	1118.47
459.06	1121.82
459.42	1125.21
459.79	1127.16
460.15	1127.81
460.51	1126.38
460.88	1124.65
461.24	1125.68
461.60	1125.12
461.96	1122.92
462.33	1126.99
462.69	1126.36
463.05	1128.28
463.42	1131.13
463.78	1132.77
464.14	1131.56
464.50	1135.16
464.87	1134.48
465.23	1131.95
465.59	1135.82
465.95	1135.25
466.32	1133.83
466.68	1133.57
467.04	1136.59
467.40	1134.83
467.77	1136.59
468.13	1138.90
468.49	1141.99
468.85	1140.19
469.22	1144.78
469.58	1147.68
469.94	1149.23
470.30	1151.29
470.66	1157.21
471.03	1157.47
471.39	1159.67
471.75	1160.79
472.11	1164.53
472.47	1164.04
472.84	1166.55
473.20	1170.06
473.56	1175.81
473.92	1180.12
474.28	1183.07
474.65	1189.83
475.01	1190.40
475.37	1196.62
475.73	1201.63
476.09	1209.57
476.45	1214.53
476.81	1222.18
477.18	1227.99
477.54	1232.60
477.90	1237.82
478.26	1245.68
478.62	1256.89
478.98	1266.70
479.34	1276.01
479.71	1287.93
480.07	1296.75
480.43	1307.68
480.79	1318.10
481.15	1329.80
481.51	1343.47
481.87	1359.03
482.23	1373.80
482.59	1391.43
482.96	1410.22
483.32	1424.94
483.68	1442.61
484.04	1460.54
484.40	1484.06
484.76	1507.30
485.12	1533.19
485.48	1562.38
485.84	1587.05
486.20	1612.21
486.56	1638.30
486.92	1668.50
487.28	1698.62
487.64	1734.36
488.00	1767.27
488.37	1805.37
488.73	1847.17
489.09	1890.05
489.45	1938.22
489.81	1982.50
490.17	2032.24
490.53	2083.15
490.89	2135.93
491.25	2192.82
491.61	2255.71
491.97	2318.53
492.33	2381.66
492.69	2444.95
493.05	2512.38
493.41	2591.28
493.77	2674.06
494.13	2763.35
494.49	2857.19
494.85	2953.03
495.21	3046.11
495.57	3150.15
495.93	3256.27
496.29	3370.25
496.64	3490.14
497.00	3617.79
497.36	3746.61
497.72	3884.61
498.08	4036.98
498.44	4197.33
498.80	4368.14
499.16	4548.53
499.52	4740.43
499.88	4929.57
500.24	5128.07
500.60	5332.28
500.96	5536.28
501.32	5734.36
501.68	5941.59
502.03	6166.35
502.39	6414.94
502.75	6687.40
503.11	6988.49
503.47	7305.00
503.83	7641.66
504.19	7967.82
504.55	8324.42
504.91	8684.18
505.26	9037.16
505.62	9443.06
505.98	9890.12
506.34	10315.86
506.70	10771.87
507.06	11302.42
507.42	11810.20
507.78	12334.62
508.13	12927.18
508.49	13520.97
508.85	14136.13
509.21	14779.41
509.57	15436.11
509.93	16094.76
510.28	16789.41
510.64	17555.70
511.00	18289.88
511.36	19077.07
511.72	19922.45
512.07	20859.35
512.43	21717.04
512.79	22697.16
513.15	23690.04
513.51	24605.37
513.86	25476.38
514.22	26523.93
514.58	27578.72
514.94	28571.08
515.30	29683.10
515.65	30915.41
516.01	31983.80
516.37	33038.16
516.73	34164.05
517.08	35198.22
517.44	36054.29
517.80	37025.99
518.16	37992.49
518.51	38937.99
518.87	39914.21
519.23	41039.42
519.59	42068.98
519.94	43097.45
520.30	44175.29
520.66	45083.16
521.01	45910.92
521.37	46778.23
521.73	47479.62
522.09	48075.80
522.44	48839.79
522.80	49428.23
523.16	49775.80
523.51	50092.36
523.87	50450.60
524.23	50807.41
524.58	51067.98
524.94	51435.68
525.30	51771.15
525.65	51938.57
526.01	51911.21
526.37	52086.98
526.72	52272.73
527.08	52320.29
527.44	52246.82
527.79	52154.02
528.15	51929.23
528.51	51589.25
528.86	51349.97
529.22	51044.25
529.58	50613.99
529.93	50182.07
530.29	49597.12
530.65	49020.86
531.00	48537.77
531.36	47966.59
531.71	47314.77
532.07	46806.31
532.43	46043.84
532.78	45195.44
533.14	44492.83
533.49	43759.57
533.85	42992.41
534.21	42419.59
534.56	41932.08
534.92	41279.21
535.27	40585.66
535.63	39793.65
535.98	38965.61
536.34	38044.45
536.69	37245.58
537.05	36517.46
537.41	35893.03
537.76	35240.95
538.12	34503.52
538.47	33812.62
538.83	33189.31
539.18	32550.04
539.54	31899.56
539.89	31415.65
540.25	30945.79
540.60	30390.38
540.96	29715.23
541.31	29147.18
541.67	28680.48
542.02	28162.92
542.38	27666.14
542.73	27186.75
543.09	26643.77
543.44	26042.23
543.80	25489.77
544.15	24948.57
544.51	24574.60
544.86	24182.74
545.22	23819.80
545.57	23392.41
545.93	22917.54
546.28	22405.39
546.64	21985.59
546.99	21523.33
547.35	21120.92
547.70	20736.30
548.05	20296.66
548.41	19853.31
548.76	19373.92
549.12	18902.52
549.47	18495.76
549.83	18162.02
550.18	17782.36
550.53	17415.29
550.89	17028.64
551.24	16604.65
551.60	16218.81
551.95	15872.90
552.30	15569.78
552.66	15312.37
553.01	15079.25
553.37	14763.56
553.72	14442.93
554.07	14117.81
554.43	13779.74
554.78	13439.57
555.13	13151.75
555.49	12813.15
555.84	12504.27
556.19	12203.83
556.55	11885.15
556.90	11565.85
557.26	11351.76
557.61	11127.00
557.96	10886.21
558.32	10663.90
558.67	10429.66
559.02	10155.70
559.37	9898.97
559.73	9685.25
560.08	9487.69
560.43	9273.44
560.79	9072.52
561.14	8858.51
561.49	8632.69
561.85	8415.09
562.20	8244.19
562.55	8087.11
562.90	7917.89
563.26	7766.62
563.61	7606.69
563.96	7416.74
564.32	7216.08
564.67	7042.44
565.02	6880.96
565.37	6754.74
565.73	6607.24
566.08	6473.34
566.43	6337.00
566.78	6183.81
567.14	6028.31
567.49	5913.25
567.84	5779.27
568.19	5656.00
568.54	5552.13
568.90	5439.69
569.25	5338.41
569.60	5249.03
569.95	5170.29
570.31	5086.22
570.66	4994.68
571.01	4894.97
571.36	4800.16
571.71	4700.73
572.06	4601.94
572.42	4512.67
572.77	4419.52
573.12	4334.18
573.47	4250.44
573.82	4178.61
574.18	4108.90
574.53	4043.11
574.88	3981.91
575.23	3912.46
575.58	3836.65
575.93	3762.65
576.28	3692.57
576.64	3631.32
576.99	3563.18
577.34	3501.14
577.69	3431.41
578.04	3364.12
578.39	3286.37
578.74	3228.68
579.09	3165.29
579.44	3110.53
579.80	3051.12
580.15	2999.19
580.50	2945.94
580.85	2892.20
581.20	2842.07
581.55	2796.64
581.90	2752.28
582.25	2705.28
582.60	2663.39
582.95	2621.66
583.30	2586.46
583.65	2551.49
584.00	2508.49
584.35	2472.82
584.71	2436.90
585.06	2404.71
585.41	2370.28
585.76	2344.98
586.11	2314.56
586.46	2282.09
586.81	2240.95
587.16	2209.04
587.51	2180.35
587.86	2158.44
588.21	2137.61
588.56	2116.43
588.91	2091.32
589.26	2069.57
589.61	2041.25
589.96	2017.54
590.31	1992.71
590.66	1970.71
591.01	1943.25
591.36	1918.79
591.71	1888.02
592.06	1865.48
592.41	1846.07
592.76	1831.66
593.10	1812.74
593.45	1801.07
593.80	1786.32
594.15	1766.68
594.50	1750.65
594.85	1737.36
595.20	1718.63
595.55	1702.65
595.90	1686.64
596.25	1670.56
596.60	1652.51
596.95	1641.53
597.30	1629.76
597.64	1669.18
597.99	1659.70
598.34	1649.68
598.69	1638.82
599.04	1627.98
599.39	1567.32
599.74	1550.56
600.09	1537.29
600.44	1524.04
600.78	1511.75
601.13	1502.51
601.48	1493.36
601.83	1488.02
602.18	1480.74
602.53	1470.28
602.88	1463.84
603.22	1459.86
603.57	1450.22
603.92	1439.71
604.27	1433.34
604.62	1420.75
604.97	1410.38
605.31	1404.34
605.66	1397.56
606.01	1392.53
606.36	1386.44
606.71	1375.09
607.05	1369.35
607.40	1365.33
607.75	1355.47
608.10	1353.93
608.44	1347.75
608.79	1338.62
609.14	1327.01
609.49	1320.62
609.84	1308.55
610.18	1308.34
610.53	1301.90
610.88	1299.49
611.23	1296.61
611.57	1295.46
611.92	1288.93
612.27	1290.52
612.62	1287.51
612.96	1281.35
613.31	1275.12
613.66	1271.45
614.00	1262.81
614.35	1256.21
614.70	1253.33
615.05	1248.49
615.39	1242.12
615.74	1239.69
616.09	1240.11
616.43	1235.31
616.78	1231.24
617.13	1228.55
617.47	1223.07
617.82	1217.48
618.17	1217.01
618.51	1219.16
618.86	1215.39
619.21	1214.95
619.55	1211.93
619.90	1209.71
620.25	1202.97
620.59	1203.62
620.94	1203.48
621.29	1201.77
621.63	1199.03
621.98	1194.31
622.32	1187.94
622.67	1179.79
623.02	1178.95
623.36	1173.01
623.71	1174.25
624.05	1173.66
624.40	1175.00
624.75	1170.34
625.09	1169.31
625.44	1166.08
625.78	1164.11
626.13	1160.77
626.48	1159.34
626.82	1157.51
627.17	1158.35
627.51	1158.10
627.86	1157.96
628.20	1156.48
628.55	1154.61
628.89	1153.21
629.24	1153.35
629.58	1150.14
629.93	1149.62
630.28	1149.88
630.62	1148.41
630.97	1147.78
631.31	1149.81
631.66	1148.24
632.00	1145.48
632.35	1140.61
632.69	1137.24
633.04	1133.69
633.38	1131.51
633.73	1131.25
634.07	1135.67
634.42	1133.08
634.76	1132.28
635.11	1134.32
635.45	1133.50
635.79	1130.08
636.14	1130.64
636.48	1128.09
636.83	1124.60
637.17	1125.19
637.52	1126.59
637.86	1125.89
638.21	1126.48
638.55	1127.44
638.89	1128.44
639.24	1128.19
639.58	1129.21
639.93	1130.90
640.27	1132.33
640.61	1128.65
640.96	1126.27
641.30	1123.83
641.65	1120.58
641.99	1118.10
642.33	1120.79
642.68	1118.64
643.02	1115.62
643.37	1115.55
643.71	1114.10
644.05	1110.68
644.40	1110.91
644.74	1111.97
645.08	1112.20
645.43	1111.33
645.77	1111.38
646.11	1108.92
646.46	1109.91
646.80	1107.28
647.14	1107.87
647.49	1107.59
647.83	1108.83
648.17	1106.16
648.52	1109.58
648.86	1109.91
649.20	1111.38
649.55	1110.61
649.89	1114.17
650.23	1110.58
650.57	1113.79
650.92	1109.79
651.26	1110.09
651.60	1108.24
651.95	1109.84
652.29	1104.69
652.63	1107.42
652.97	1104.50
653.32	1105.60
653.66	1106.61
654.00	1106.84
654.34	1105.97
654.69	1108.20
655.03	1107.10
655.37	1105.81
655.71	1105.62
656.05	1106.46
656.40	1105.79
656.74	1107.52
657.08	1107.33
657.42	1106.07
657.76	1104.50
658.11	1103.59
658.45	1100.05
658.79	1098.30
659.13	1099.16
659.47	1099.07
659.82	1102.60
660.16	1101.15
660.50	1100.87
660.84	1098.04
661.18	1094.83
661.52	1092.77
661.87	1095.30
662.21	1094.90
662.55	1096.56
662.89	1098.25
663.23	1097.08
663.57	1093.10
663.91	1096.19
664.25	1094.39
664.60	1093.59
664.94	1094.65
665.28	1097.45
665.62	1095.30
665.96	1097.97
666.30	1100.10
666.64	1099.89
666.98	1101.01
667.32	1099.89
667.66	1100.78
668.01	1100.64
668.35	1102.06
668.69	1102.06
669.03	1098.37
669.37	1095.09
669.71	1094.93
670.05	1090.62
670.39	1090.64
670.73	1094.88
671.07	1095.42
671.41	1095.63
671.75	1099.65
672.09	1101.57
672.43	1101.34
672.77	1102.37
673.11	1098.65
673.45	1095.96
673.79	1092.80
674.13	1091.81
674.47	1089.33
674.81	1091.23
675.15	1092.14
675.49	1091.65
675.83	1092.45
676.17	1094.34
676.51	1095.96
676.85	1097.10
677.19	1096.05
677.53	1094.83
677.87	1093.64
678.21	1091.98
678.55	1089.22
678.89	1091.63
679.23	1090.90
679.57	1091.11
679.90	1094.69
680.24	1095.75
680.58	1096.70
680.92	1098.18
681.26	1099.16
681.60	1097.29
681.94	1097.38
682.28	1092.96
682.62	1092.45
682.96	1091.16
683.29	1088.14
683.63	1088.56
683.97	1091.44
684.31	1091.56
684.65	1089.94
684.99	1090.13
685.33	1089.57
685.67	1085.59
686.00	1086.99
686.34	1089.33
686.68	1090.64
687.02	1090.06
687.36	1094.27
687.70	1091.77
688.03	1092.19
688.37	1091.27
688.71	1093.47
689.05	1090.27
689.39	1091.63
689.72	1092.52
690.06	1094.13
690.40	1091.93
690.74	1094.65
691.08	1094.93
691.41	1094.18
691.75	1090.34
692.09	1089.89
692.43	1090.43
692.76	1087.69
693.10	1086.20
693.44	1089.47
693.78	1091.60
694.11	1090.50
694.45	1089.75
694.79	1088.70
695.13	1090.60
695.46	1085.82
695.80	1085.31
696.14	1089.89
696.48	1094.81
696.81	1091.27
697.15	1093.83
697.49	1092.40
697.82	1089.52
698.16	1086.24
698.50	1086.13
698.83	1085.70
699.17	1089.36
699.51	1092.68
699.84	1091.74
700.18	1093.31
700.52	1093.36
700.85	1087.67
701.19	1085.87
701.53	1087.88
701.86	1087.62
702.20	1087.60
702.54	1087.88
702.87	1087.72
703.21	1086.69
703.55	1086.38
703.88	1087.04
704.22	1089.24
704.55	1088.19
704.89	1087.93
705.23	1086.29
705.56	1086.90
705.90	1090.34
706.23	1090.41
706.57	1090.29
706.91	1090.99
707.24	1088.86
707.58	1088.44
707.91	1089.85
708.25	1089.52
708.58	1092.42
708.92	1092.77
709.26	1091.09
709.59	1090.71
709.93	1089.64
710.26	1088.42
710.60	1088.96
710.93	1086.48
711.27	1088.49
711.60	1091.49
711.94	1091.30
712.27	1091.34
712.61	1093.73
712.94	1091.65
713.28	1090.85
713.61	1090.20
713.95	1091.16
714.28	1095.67
714.62	1094.34
714.95	1095.28
715.29	1095.56
715.62	1094.93
715.96	1088.35
716.29	1087.02
716.63	1083.46
716.96	1079.83
717.29	1079.74
717.63	1082.43
717.96	1087.69
718.30	1093.33
718.63	1094.65
718.97	1094.95
719.30	1095.42
719.63	1092.61
719.97	1086.76
720.30	1087.65
720.64	1086.73
720.97	1085.49
721.30	1084.35
721.64	1085.54
721.97	1085.70
722.31	1089.12
722.64	1088.49
722.97	1087.37
723.31	1087.97
723.64	1089.00
723.97	1087.02
724.31	1089.64
724.64	1091.51
724.98	1092.00
725.31	1091.44
725.64	1093.22
725.98	1091.09
726.31	1091.93
726.64	1092.09
726.97	1093.64
727.31	1092.49
727.64	1093.83
727.97	1093.66
728.31	1094.01
728.64	1093.69
728.97	1089.66
729.31	1091.13
729.64	1088.58
729.97	1088.14
730.30	1088.93
730.64	1089.00
730.97	1085.66
731.30	1086.62
731.63	1086.87
731.97	1087.58
732.30	1090.50
732.63	1091.44
732.96	1092.23
733.30	1090.97
733.63	1087.32
733.96	1088.44
734.29	1086.97
734.63	1087.11
734.96	1087.04
735.29	1088.47
735.62	1086.01
735.95	1086.97
736.29	1088.96
736.62	1087.06
736.95	1088.02
737.28	1087.37
737.61	1087.62
737.94	1086.10
738.28	1090.55
738.61	1087.55
738.94	1092.54
739.27	1091.04
739.60	1087.74
739.93	1085.45
740.27	1088.44
740.60	1084.35
740.93	1086.01
741.26	1090.57
741.59	1092.42
741.92	1092.63
742.25	1092.47
742.58	1091.53
742.91	1090.43
743.25	1089.24
743.58	1089.68
743.91	1089.71
744.24	1088.86
744.57	1088.09
744.90	1089.43
745.23	1088.77
745.56	1092.00
745.89	1093.76
746.22	1092.40
746.55	1090.85
746.88	1094.76
747.21	1092.63
747.54	1091.60
747.87	1089.45
748.20	1088.51
748.53	1083.41
748.87	1082.24
749.20	1083.62
749.53	1088.04
749.86	1088.26
750.19	1085.82
750.52	1086.64
750.85	1087.20
751.18	1086.08
751.51	1088.77
751.84	1091.70
752.16	1092.75
752.49	1090.17
752.82	1088.96
753.15	1086.62
753.48	1086.43
753.81	1086.08
754.14	1085.54
754.47	1084.67
754.80	1086.01
755.13	1084.46
755.46	1085.63
755.79	1084.79
756.12	1089.40
756.45	1090.83
756.78	1091.95
757.11	1087.16
757.43	1090.01
757.76	1087.44
758.09	1084.16
758.42	1085.68
758.75	1089.29
759.08	1088.91
759.41	1088.23
759.74	1088.91
760.07	1090.43
760.39	1089.82
760.72	1087.48
761.05	1089.33
761.38	1088.14
761.71	1087.69
762.04	1086.27
762.36	1089.19
762.69	1089.24
763.02	1092.47
