SpectraSuite Data File
++++++++++++++++++++++++++++++++++++
Date: Mon Aug 26 10:26:16 PDT 2019
User: corrico
Dark Spectrum Present: No
Reference Spectrum Present: No
Number of Sampled Component Spectra: 1
Spectrometers: USB2+H06089
Integration Time (usec): 10000 (USB2+H06089)
Spectra Averaged: 20 (USB2+H06089)
Boxcar Smoothing: 2 (USB2+H06089)
Correct for Electrical Dark: No (USB2+H06089)
Strobe/Lamp Enabled: No (USB2+H06089)
Correct for Detector Non-linearity: No (USB2+H06089)
Correct for Stray Light: No (USB2+H06089)
Number of Pixels in Processed Spectrum: 2048
>>>>>Begin Processed Spectral Data<<<<<
339.70	1031.01
340.07	1031.01
340.45	995.01
340.82	975.35
341.19	955.90
341.57	930.81
341.94	923.15
342.31	919.27
342.69	911.03
343.06	905.41
343.43	906.35
343.81	905.01
344.18	902.98
344.55	909.37
344.93	912.62
345.30	916.81
345.67	926.13
346.04	939.00
346.42	947.54
346.79	955.78
347.16	967.60
347.54	975.47
347.91	982.67
348.28	991.33
348.65	1003.93
349.03	1013.24
349.40	1022.02
349.77	1029.09
350.14	1039.20
350.52	1044.30
350.89	1050.48
351.26	1054.41
351.63	1059.84
352.01	1061.15
352.38	1066.65
352.75	1069.91
353.12	1075.66
353.50	1079.50
353.87	1085.75
354.24	1089.22
354.61	1090.34
354.98	1092.40
355.36	1095.02
355.73	1095.96
356.10	1095.82
356.47	1100.24
356.84	1101.71
357.22	1100.05
357.59	1096.00
357.96	1095.39
358.33	1089.87
358.70	1087.25
359.08	1086.31
359.45	1087.09
359.82	1087.06
360.19	1087.62
360.56	1088.14
360.94	1090.24
361.31	1088.84
361.68	1085.82
362.05	1086.03
362.42	1084.77
362.79	1081.84
363.16	1079.15
363.54	1079.24
363.91	1076.46
364.28	1075.76
364.65	1074.42
365.02	1077.47
365.39	1076.79
365.76	1076.55
366.14	1077.54
366.51	1078.66
366.88	1075.99
367.25	1075.87
367.62	1080.25
367.99	1079.27
368.36	1079.38
368.73	1080.25
369.10	1081.49
369.48	1079.13
369.85	1080.23
370.22	1080.48
370.59	1082.66
370.96	1083.88
371.33	1083.88
371.70	1081.63
372.07	1080.16
372.44	1081.28
372.81	1079.03
373.18	1078.12
373.55	1080.63
373.93	1080.81
374.30	1080.65
374.67	1082.17
375.04	1082.12
375.41	1082.29
375.78	1086.78
376.15	1085.21
376.52	1085.31
376.89	1086.36
377.26	1083.71
377.63	1084.00
378.00	1085.38
378.37	1083.95
378.74	1085.49
379.11	1086.80
379.48	1082.64
379.85	1081.66
380.22	1081.82
380.59	1085.59
380.96	1089.31
381.33	1090.50
381.70	1089.99
382.07	1088.89
382.44	1083.04
382.81	1081.33
383.18	1081.84
383.55	1084.46
383.92	1087.88
384.29	1088.89
384.66	1090.46
385.03	1090.60
385.40	1087.83
385.77	1085.45
386.14	1084.77
386.51	1080.44
386.88	1078.38
387.25	1077.72
387.62	1081.33
387.99	1083.46
388.36	1085.45
388.73	1086.13
389.10	1090.67
389.46	1089.59
389.83	1090.81
390.20	1093.15
390.57	1092.09
390.94	1087.76
391.31	1089.80
391.68	1088.89
392.05	1085.21
392.42	1086.80
392.79	1087.53
393.16	1083.11
393.53	1083.69
393.89	1083.93
394.26	1084.37
394.63	1086.99
395.00	1088.28
395.37	1088.47
395.74	1087.58
396.11	1090.95
396.48	1091.04
396.84	1091.27
397.21	1086.59
397.58	1089.10
397.95	1088.86
398.32	1088.79
398.69	1092.19
399.06	1096.54
399.42	1096.35
399.79	1096.45
400.16	1094.46
400.53	1094.76
400.90	1095.30
401.27	1096.61
401.64	1091.42
402.00	1091.86
402.37	1089.78
402.74	1085.38
403.11	1084.89
403.48	1090.27
403.84	1094.18
404.21	1095.67
404.58	1097.80
404.95	1097.78
405.32	1096.94
405.68	1093.85
406.05	1091.09
406.42	1092.37
406.79	1093.92
407.16	1096.24
407.52	1098.27
407.89	1102.56
408.26	1104.85
408.63	1103.54
408.99	1102.56
409.36	1104.22
409.73	1102.70
410.10	1102.11
410.47	1101.62
410.83	1101.81
411.20	1103.21
411.57	1101.62
411.94	1100.82
412.30	1105.20
412.67	1104.87
413.04	1102.28
413.40	1108.15
413.77	1107.12
414.14	1107.07
414.51	1111.40
414.87	1115.59
415.24	1114.70
415.61	1118.00
415.97	1117.86
416.34	1114.82
416.71	1112.76
417.08	1112.99
417.44	1111.29
417.81	1111.92
418.18	1113.30
418.54	1111.94
418.91	1110.33
419.28	1110.54
419.64	1112.39
420.01	1110.68
420.38	1112.85
420.74	1114.91
421.11	1116.76
421.48	1113.21
421.84	1111.50
422.21	1110.72
422.58	1110.42
422.94	1111.66
423.31	1111.15
423.68	1113.14
424.04	1113.95
424.41	1113.02
424.77	1111.78
425.14	1115.85
425.51	1114.00
425.87	1115.45
426.24	1115.48
426.61	1117.18
426.97	1116.69
427.34	1118.87
427.70	1118.47
428.07	1118.10
428.44	1114.87
428.80	1114.94
429.17	1114.12
429.53	1112.64
429.90	1113.39
430.27	1116.72
430.63	1115.83
431.00	1118.28
431.36	1119.41
431.73	1118.52
432.09	1117.58
432.46	1118.99
432.83	1118.85
433.19	1118.80
433.56	1120.65
433.92	1119.74
434.29	1119.15
434.65	1119.57
435.02	1120.13
435.38	1120.13
435.75	1120.34
436.11	1119.17
436.48	1121.54
436.84	1121.89
437.21	1120.72
437.57	1123.11
437.94	1123.62
438.30	1118.14
438.67	1116.74
439.03	1120.25
439.40	1116.01
439.76	1116.32
440.13	1120.11
440.49	1121.94
440.86	1119.92
441.22	1124.77
441.59	1123.46
441.95	1120.13
442.32	1117.35
442.68	1119.34
443.05	1117.40
443.41	1118.80
443.78	1121.09
444.14	1118.80
444.51	1117.58
444.87	1116.69
445.24	1116.04
445.60	1116.34
445.96	1118.89
446.33	1118.45
446.69	1118.87
447.06	1116.76
447.42	1114.19
447.79	1116.27
448.15	1114.52
448.51	1113.72
448.88	1113.30
449.24	1116.30
449.61	1113.77
449.97	1114.77
450.33	1114.84
450.70	1117.61
451.06	1115.22
451.43	1118.78
451.79	1116.27
452.15	1118.26
452.52	1114.49
452.88	1115.36
453.24	1111.45
453.61	1113.25
453.97	1113.79
454.34	1114.63
454.70	1115.52
455.06	1116.11
455.43	1114.61
455.79	1115.45
456.15	1122.61
456.52	1122.12
456.88	1123.88
457.24	1122.22
457.61	1117.61
457.97	1116.83
458.33	1116.79
458.70	1118.87
459.06	1123.36
459.42	1125.82
459.79	1124.30
460.15	1125.19
460.51	1126.38
460.88	1124.58
461.24	1123.55
461.60	1124.18
461.96	1128.09
462.33	1126.85
462.69	1127.18
463.05	1130.60
463.42	1129.21
463.78	1127.23
464.14	1126.76
464.50	1126.59
464.87	1126.64
465.23	1130.90
465.59	1129.40
465.95	1132.02
466.32	1133.08
466.68	1132.73
467.04	1129.82
467.40	1131.65
467.77	1130.95
468.13	1135.65
468.49	1139.84
468.85	1145.20
469.22	1149.37
469.58	1148.31
469.94	1152.15
470.30	1154.42
470.66	1151.19
471.03	1151.54
471.39	1155.92
471.75	1156.51
472.11	1160.23
472.47	1166.57
472.84	1166.15
473.20	1168.51
473.56	1172.47
473.92	1174.97
474.28	1180.85
474.65	1191.12
475.01	1196.08
475.37	1198.45
475.73	1200.74
476.09	1205.61
476.45	1208.56
476.81	1215.79
477.18	1221.97
477.54	1230.75
477.90	1236.86
478.26	1245.96
478.62	1257.71
478.98	1267.99
479.34	1275.08
479.71	1282.73
480.07	1290.71
480.43	1301.01
480.79	1313.53
481.15	1327.88
481.51	1341.10
481.87	1355.05
482.23	1369.87
482.59	1385.32
482.96	1404.84
483.32	1423.07
483.68	1446.26
484.04	1460.45
484.40	1481.37
484.76	1500.80
485.12	1526.08
485.48	1550.46
485.84	1583.40
486.20	1608.74
486.56	1639.12
486.92	1669.60
487.28	1699.46
487.64	1726.31
488.00	1765.07
488.37	1801.16
488.73	1841.14
489.09	1881.77
489.45	1927.29
489.81	1973.68
490.17	2024.40
490.53	2071.07
490.89	2123.19
491.25	2177.31
491.61	2234.25
491.97	2294.05
492.33	2358.30
492.69	2417.96
493.05	2493.35
493.41	2573.68
493.77	2650.54
494.13	2742.29
494.49	2833.22
494.85	2920.71
495.21	3009.58
495.57	3117.22
495.93	3220.55
496.29	3334.65
496.64	3457.88
497.00	3580.13
497.36	3704.55
497.72	3838.62
498.08	3992.60
498.44	4151.03
498.80	4317.16
499.16	4496.87
499.52	4676.18
499.88	4865.01
500.24	5052.09
500.60	5250.59
500.96	5448.44
501.32	5647.69
501.68	5853.96
502.03	6084.92
502.39	6333.75
502.75	6600.10
503.11	6897.51
503.47	7201.08
503.83	7520.54
504.19	7841.12
504.55	8197.14
504.91	8544.94
505.26	8893.83
505.62	9298.81
505.98	9742.18
506.34	10161.65
506.70	10613.02
507.06	11135.08
507.42	11639.09
507.78	12136.96
508.13	12717.84
508.49	13308.99
508.85	13912.99
509.21	14520.66
509.57	15192.23
509.93	15839.18
510.28	16512.32
510.64	17268.57
511.00	18021.42
511.36	18787.27
511.72	19624.78
512.07	20554.54
512.43	21410.42
512.79	22386.40
513.15	23346.73
513.51	24225.46
513.86	25089.72
514.22	26074.11
514.58	27084.54
514.94	28072.78
515.30	29214.75
515.65	30397.47
516.01	31486.34
516.37	32513.04
516.73	33630.46
517.08	34624.11
517.44	35488.14
517.80	36416.09
518.16	37382.26
518.51	38333.32
518.87	39307.57
519.23	40386.39
519.59	41421.05
519.94	42460.69
520.30	43484.49
520.66	44334.01
521.01	45154.18
521.37	46017.86
521.73	46704.34
522.09	47315.19
522.44	48113.74
522.80	48740.72
523.16	49096.79
523.51	49408.55
523.87	49762.39
524.23	50111.64
524.58	50393.19
524.94	50803.46
525.30	51160.72
525.65	51347.59
526.01	51341.64
526.37	51520.67
526.72	51678.44
527.08	51725.79
527.44	51660.26
527.79	51544.49
528.15	51312.76
528.51	50979.68
528.86	50710.63
529.22	50389.91
529.58	49971.54
529.93	49517.89
530.29	48933.18
530.65	48388.77
531.00	47941.73
531.36	47375.74
531.71	46742.60
532.07	46237.03
532.43	45472.37
532.78	44603.36
533.14	43946.02
533.49	43236.95
533.85	42484.02
534.21	41917.87
534.56	41427.01
534.92	40773.68
535.27	40102.97
535.63	39320.65
535.98	38505.98
536.34	37625.63
536.69	36840.15
537.05	36092.75
537.41	35451.91
537.76	34821.16
538.12	34086.60
538.47	33372.41
538.83	32772.60
539.18	32145.76
539.54	31485.00
539.89	30990.59
540.25	30515.16
540.60	29958.11
540.96	29306.78
541.31	28747.89
541.67	28311.68
542.02	27815.14
542.38	27329.87
542.73	26856.36
543.09	26341.77
543.44	25729.06
543.80	25182.13
544.15	24645.40
544.51	24247.60
544.86	23837.47
545.22	23460.99
545.57	23045.43
545.93	22564.71
546.28	22075.98
546.64	21676.78
546.99	21241.06
547.35	20832.22
547.70	20462.55
548.05	20034.03
548.41	19592.46
548.76	19111.50
549.12	18669.89
549.47	18261.63
549.83	17924.31
550.18	17540.79
550.53	17182.18
550.89	16774.71
551.24	16355.48
551.60	15968.33
551.95	15619.73
552.30	15321.01
552.66	15079.11
553.01	14848.24
553.37	14560.52
553.72	14253.28
554.07	13934.71
554.43	13608.93
554.78	13267.77
555.13	12958.63
555.49	12627.66
555.84	12326.22
556.19	12021.25
556.55	11711.90
556.90	11424.25
557.26	11199.70
557.61	10974.54
557.96	10745.77
558.32	10537.70
558.67	10292.79
559.02	10033.17
559.37	9782.55
559.73	9566.61
560.08	9368.30
560.43	9168.86
560.79	8969.14
561.14	8761.91
561.49	8537.24
561.85	8316.27
562.20	8138.96
562.55	7991.57
562.90	7828.37
563.26	7686.79
563.61	7537.11
563.96	7347.90
564.32	7149.70
564.67	6968.52
565.02	6810.35
565.37	6677.43
565.73	6534.85
566.08	6395.02
566.43	6268.42
566.78	6115.66
567.14	5965.07
567.49	5844.43
567.84	5714.02
568.19	5591.35
568.54	5484.69
568.90	5381.83
569.25	5289.94
569.60	5207.93
569.95	5137.66
570.31	5050.55
570.66	4952.20
571.01	4851.70
571.36	4755.06
571.71	4649.76
572.06	4553.77
572.42	4462.65
572.77	4369.41
573.12	4282.24
573.47	4202.64
573.82	4137.67
574.18	4078.15
574.53	4018.77
574.88	3959.30
575.23	3891.26
575.58	3808.29
575.93	3728.45
576.28	3652.69
576.64	3581.39
576.99	3509.63
577.34	3448.22
577.69	3382.00
578.04	3317.12
578.39	3257.96
578.74	3201.92
579.09	3141.26
579.44	3079.91
579.80	3023.74
580.15	2964.97
580.50	2907.11
580.85	2858.71
581.20	2813.23
581.55	2770.26
581.90	2728.97
582.25	2687.71
582.60	2642.51
582.95	2606.42
583.30	2566.77
583.65	2529.79
584.00	2488.90
584.35	2456.20
584.71	2415.99
585.06	2385.08
585.41	2351.63
585.76	2323.43
586.11	2289.25
586.46	2261.19
586.81	2228.68
587.16	2194.72
587.51	2166.42
587.86	2146.97
588.21	2120.50
588.56	2092.06
588.91	2070.88
589.26	2051.57
589.61	2018.57
589.96	1994.37
590.31	1969.49
590.66	1946.65
591.01	1919.08
591.36	1900.40
591.71	1877.91
592.06	1856.96
592.41	1839.36
592.76	1822.62
593.10	1802.94
593.45	1790.02
593.80	1776.00
594.15	1754.37
594.50	1742.15
594.85	1729.26
595.20	1714.28
595.55	1699.60
595.90	1687.46
596.25	1669.57
596.60	1655.39
596.95	1638.09
597.30	1626.46
597.64	1665.97
597.99	1657.38
598.34	1646.10
598.69	1637.16
599.04	1623.65
599.39	1562.92
599.74	1544.43
600.09	1530.69
600.44	1518.59
600.78	1509.55
601.13	1497.24
601.48	1492.02
601.83	1487.32
602.18	1476.97
602.53	1467.40
602.88	1458.88
603.22	1446.17
603.57	1438.10
603.92	1426.93
604.27	1417.90
604.62	1411.69
604.97	1406.40
605.31	1398.17
605.66	1391.33
606.01	1385.67
606.36	1378.20
606.71	1370.01
607.05	1358.54
607.40	1354.96
607.75	1347.12
608.10	1339.96
608.44	1332.89
608.79	1329.31
609.14	1323.76
609.49	1318.94
609.84	1314.21
610.18	1312.64
610.53	1303.80
610.88	1298.88
611.23	1292.21
611.57	1286.71
611.92	1281.19
612.27	1280.98
612.62	1276.34
612.96	1273.20
613.31	1267.99
613.66	1263.19
614.00	1257.94
614.35	1254.34
614.70	1249.57
615.05	1242.89
615.39	1239.97
615.74	1235.92
616.09	1233.18
616.43	1229.97
616.78	1230.72
617.13	1226.37
617.47	1223.82
617.82	1217.85
618.17	1214.90
618.51	1213.90
618.86	1208.93
619.21	1205.94
619.55	1206.43
619.90	1206.20
620.25	1201.89
620.59	1200.16
620.94	1196.58
621.29	1194.19
621.63	1189.55
621.98	1188.43
622.32	1184.69
622.67	1182.81
623.02	1179.82
623.36	1175.70
623.71	1172.40
624.05	1172.75
624.40	1168.86
624.75	1165.80
625.09	1170.03
625.44	1166.97
625.78	1165.98
626.13	1167.11
626.48	1165.80
626.82	1163.85
627.17	1165.47
627.51	1164.00
627.86	1162.57
628.20	1158.54
628.55	1151.45
628.89	1145.69
629.24	1141.55
629.58	1139.28
629.93	1141.39
630.28	1142.23
630.62	1142.84
630.97	1142.44
631.31	1139.28
631.66	1135.16
632.00	1135.72
632.35	1134.74
632.69	1136.85
633.04	1136.99
633.38	1137.08
633.73	1137.29
634.07	1136.07
634.42	1133.08
634.76	1133.80
635.11	1132.82
635.45	1129.99
635.79	1125.07
636.14	1122.71
636.48	1123.11
636.83	1122.01
637.17	1118.19
637.52	1121.23
637.86	1118.38
638.21	1115.36
638.55	1116.58
638.89	1116.51
639.24	1114.84
639.58	1119.27
639.93	1120.04
640.27	1118.21
640.61	1119.85
640.96	1120.39
641.30	1116.34
641.65	1115.80
641.99	1114.75
642.33	1114.02
642.68	1113.44
643.02	1115.59
643.37	1114.56
643.71	1118.03
644.05	1117.47
644.40	1120.37
644.74	1116.95
645.08	1117.77
645.43	1115.73
645.77	1117.14
646.11	1115.92
646.46	1116.88
646.80	1113.46
647.14	1110.07
647.49	1105.88
647.83	1100.29
648.17	1101.88
648.52	1104.85
648.86	1107.54
649.20	1110.05
649.55	1111.43
649.89	1108.74
650.23	1106.72
650.57	1107.64
650.92	1105.58
651.26	1108.27
651.60	1109.74
651.95	1108.57
652.29	1104.19
652.63	1105.79
652.97	1101.71
653.32	1100.78
653.66	1102.04
654.00	1102.60
654.34	1100.40
654.69	1100.96
655.03	1102.42
655.37	1101.92
655.71	1103.28
656.05	1100.54
656.40	1099.00
656.74	1097.15
657.08	1097.24
657.42	1094.69
657.76	1096.40
658.11	1099.86
658.45	1097.78
658.79	1099.79
659.13	1101.32
659.47	1102.06
659.82	1100.43
660.16	1103.09
660.50	1099.42
660.84	1099.79
661.18	1099.16
661.52	1100.15
661.87	1099.19
662.21	1100.82
662.55	1098.81
662.89	1100.66
663.23	1100.50
663.57	1101.39
663.91	1100.19
664.25	1102.74
664.60	1101.03
664.94	1100.08
665.28	1100.10
665.62	1097.55
665.96	1095.37
666.30	1094.25
666.64	1094.81
666.98	1092.49
667.32	1093.90
667.66	1094.20
668.01	1096.12
668.35	1094.90
668.69	1093.97
669.03	1094.95
669.37	1094.90
669.71	1093.01
670.05	1093.19
670.39	1094.27
670.73	1094.79
671.07	1095.56
671.41	1094.43
671.75	1093.03
672.09	1093.15
672.43	1093.59
672.77	1093.92
673.11	1099.82
673.45	1099.65
673.79	1099.70
674.13	1098.79
674.47	1094.46
674.81	1090.43
675.15	1089.10
675.49	1086.08
675.83	1086.97
676.17	1089.36
676.51	1088.86
676.85	1091.67
677.19	1093.64
677.53	1093.99
677.87	1092.82
678.21	1094.29
678.55	1094.06
678.89	1091.51
679.23	1088.61
679.57	1089.22
679.90	1086.29
680.24	1088.28
680.58	1093.94
680.92	1094.36
681.26	1095.51
681.60	1097.66
681.94	1095.60
682.28	1093.87
682.62	1093.03
682.96	1092.96
683.29	1090.50
683.63	1087.27
683.97	1087.74
684.31	1088.96
684.65	1087.58
684.99	1089.57
685.33	1092.94
685.67	1090.57
686.00	1092.16
686.34	1090.50
686.68	1089.12
687.02	1088.44
687.36	1086.29
687.70	1083.95
688.03	1088.58
688.37	1089.24
688.71	1088.42
689.05	1092.42
689.39	1090.67
689.72	1085.26
690.06	1085.05
690.40	1086.43
690.74	1086.06
691.08	1088.12
691.41	1090.13
691.75	1089.10
692.09	1088.68
692.43	1087.37
692.76	1084.58
693.10	1086.45
693.44	1087.27
693.78	1085.47
694.11	1090.78
694.45	1092.82
694.79	1093.50
695.13	1095.39
695.46	1097.31
695.80	1094.27
696.14	1096.63
696.48	1096.94
696.81	1096.99
697.15	1096.52
697.49	1093.08
697.82	1091.39
698.16	1088.47
698.50	1088.51
698.83	1090.50
699.17	1093.29
699.51	1094.79
699.84	1095.91
700.18	1094.53
700.52	1095.23
700.85	1092.73
701.19	1091.18
701.53	1091.30
701.86	1090.39
702.20	1087.09
702.54	1088.91
702.87	1088.96
703.21	1087.74
703.55	1088.75
703.88	1088.51
704.22	1086.99
704.55	1086.45
704.89	1087.76
705.23	1086.15
705.56	1084.74
705.90	1082.78
706.23	1084.96
706.57	1085.14
706.91	1088.84
707.24	1090.17
707.58	1093.01
707.91	1094.86
708.25	1094.34
708.58	1093.10
708.92	1094.81
709.26	1093.85
709.59	1093.19
709.93	1094.79
710.26	1094.62
710.60	1093.45
710.93	1092.40
711.27	1091.39
711.60	1090.71
711.94	1090.24
712.27	1093.94
712.61	1096.21
712.94	1095.11
713.28	1093.10
713.61	1092.89
713.95	1088.93
714.28	1087.86
714.62	1087.83
714.95	1088.40
715.29	1086.69
715.62	1088.33
715.96	1086.99
716.29	1089.22
716.63	1091.74
716.96	1095.67
717.29	1094.65
717.63	1095.07
717.96	1095.04
718.30	1091.02
718.63	1088.07
718.97	1086.83
719.30	1086.66
719.63	1084.84
719.97	1085.87
720.30	1086.92
720.64	1089.92
720.97	1090.95
721.30	1089.92
721.64	1088.91
721.97	1086.78
722.31	1084.46
722.64	1083.64
722.97	1084.42
723.31	1086.22
723.64	1085.45
723.97	1083.83
724.31	1088.09
724.64	1086.52
724.98	1084.70
725.31	1086.03
725.64	1085.82
725.98	1083.18
726.31	1082.61
726.64	1086.29
726.97	1085.87
727.31	1087.58
727.64	1085.26
727.97	1087.09
728.31	1086.71
728.64	1086.92
728.97	1087.83
729.31	1090.83
729.64	1090.32
729.97	1090.74
730.30	1090.50
730.64	1090.71
730.97	1092.12
731.30	1093.15
731.63	1091.51
731.97	1093.38
732.30	1093.33
732.63	1093.19
732.96	1091.20
733.30	1091.53
733.63	1091.34
733.96	1090.10
734.29	1087.83
734.63	1086.34
734.96	1086.45
735.29	1083.97
735.62	1083.55
735.95	1085.03
736.29	1088.37
736.62	1085.77
736.95	1088.23
737.28	1087.51
737.61	1084.44
737.94	1083.32
738.28	1083.60
738.61	1082.73
738.94	1081.56
739.27	1084.16
739.60	1085.54
739.93	1091.18
740.27	1091.39
740.60	1093.08
740.93	1091.49
741.26	1090.32
741.59	1087.20
741.92	1088.91
742.25	1090.60
742.58	1090.17
742.91	1091.42
743.25	1087.72
743.58	1087.32
743.91	1086.10
744.24	1086.69
744.57	1085.75
744.90	1092.05
745.23	1089.87
745.56	1089.05
745.89	1090.88
746.22	1092.96
746.55	1085.89
746.88	1084.63
747.21	1086.29
747.54	1082.83
747.87	1079.29
748.20	1080.60
748.53	1081.37
748.87	1081.16
749.20	1086.85
749.53	1089.19
749.86	1091.46
750.19	1094.25
750.52	1095.11
750.85	1090.34
751.18	1088.26
751.51	1087.53
751.84	1085.52
752.16	1085.40
752.49	1087.23
752.82	1090.36
753.15	1089.31
753.48	1087.69
753.81	1086.38
754.14	1083.32
754.47	1080.32
754.80	1082.10
755.13	1084.00
755.46	1085.10
755.79	1088.63
756.12	1094.32
756.45	1094.08
756.78	1093.08
757.11	1092.07
757.43	1089.17
757.76	1086.31
758.09	1086.06
758.42	1086.80
758.75	1087.74
759.08	1091.37
759.41	1090.17
759.74	1089.38
760.07	1089.82
760.39	1087.23
760.72	1085.07
761.05	1084.96
761.38	1084.39
761.71	1084.04
762.04	1087.06
762.36	1086.06
762.69	1084.51
763.02	1083.90
