SpectraSuite Data File
++++++++++++++++++++++++++++++++++++
Date: Mon Aug 26 10:26:22 PDT 2019
User: corrico
Dark Spectrum Present: No
Reference Spectrum Present: No
Number of Sampled Component Spectra: 1
Spectrometers: USB2+H06089
Integration Time (usec): 10000 (USB2+H06089)
Spectra Averaged: 20 (USB2+H06089)
Boxcar Smoothing: 2 (USB2+H06089)
Correct for Electrical Dark: No (USB2+H06089)
Strobe/Lamp Enabled: No (USB2+H06089)
Correct for Detector Non-linearity: No (USB2+H06089)
Correct for Stray Light: No (USB2+H06089)
Number of Pixels in Processed Spectrum: 2048
>>>>>Begin Processed Spectral Data<<<<<
339.70	1033.11
340.07	1033.11
340.45	998.64
340.82	976.71
341.19	952.95
341.57	928.56
341.94	918.03
342.31	911.36
342.69	907.07
343.06	905.06
343.43	902.86
343.81	904.08
344.18	907.12
344.55	912.69
344.93	919.62
345.30	926.34
345.67	932.33
346.04	942.14
346.42	946.18
346.79	955.57
347.16	965.49
347.54	974.95
347.91	982.93
348.28	994.68
348.65	1001.23
349.03	1008.09
349.40	1016.26
349.77	1022.60
350.14	1028.81
350.52	1034.45
350.89	1041.98
351.26	1047.04
351.63	1054.29
352.01	1061.29
352.38	1069.65
352.75	1074.63
353.12	1079.20
353.50	1079.85
353.87	1082.03
354.24	1082.05
354.61	1082.83
354.98	1085.87
355.36	1088.26
355.73	1087.46
356.10	1092.98
356.47	1095.39
356.84	1096.28
357.22	1098.93
357.59	1102.49
357.96	1096.00
358.33	1097.01
358.70	1093.52
359.08	1093.22
359.45	1090.81
359.82	1093.17
360.19	1090.71
360.56	1093.59
360.94	1088.79
361.31	1089.31
361.68	1089.66
362.05	1087.20
362.42	1084.11
362.79	1084.04
363.16	1082.80
363.54	1082.78
363.91	1085.99
364.28	1085.00
364.65	1086.08
365.02	1084.58
365.39	1080.44
365.76	1079.27
366.14	1082.29
366.51	1082.33
366.88	1084.60
367.25	1086.34
367.62	1084.70
367.99	1082.33
368.36	1082.94
368.73	1081.14
369.10	1081.73
369.48	1082.83
369.85	1081.63
370.22	1083.81
370.59	1084.60
370.96	1084.91
371.33	1084.21
371.70	1087.55
372.07	1084.39
372.44	1084.46
372.81	1083.83
373.18	1082.90
373.55	1081.75
373.93	1082.76
374.30	1082.43
374.67	1079.76
375.04	1080.67
375.41	1079.76
375.78	1079.90
376.15	1079.85
376.52	1081.58
376.89	1082.03
377.26	1082.73
377.63	1084.46
378.00	1086.43
378.37	1088.09
378.74	1091.88
379.11	1092.26
379.48	1089.96
379.85	1086.22
380.22	1086.90
380.59	1085.84
380.96	1084.04
381.33	1083.62
381.70	1086.43
382.07	1083.18
382.44	1080.70
382.81	1080.25
383.18	1081.91
383.55	1086.08
383.92	1088.44
384.29	1089.14
384.66	1091.11
385.03	1089.66
385.40	1086.55
385.77	1087.04
386.14	1085.59
386.51	1086.90
386.88	1088.86
387.25	1086.52
387.62	1083.50
387.99	1087.41
388.36	1087.30
388.73	1086.57
389.10	1088.89
389.46	1091.74
389.83	1089.57
390.20	1091.02
390.57	1096.19
390.94	1095.84
391.31	1095.65
391.68	1098.23
392.05	1097.66
392.42	1089.89
392.79	1089.78
393.16	1089.87
393.53	1089.43
393.89	1089.99
394.26	1093.22
394.63	1092.94
395.00	1094.53
395.37	1092.77
395.74	1090.69
396.11	1090.10
396.48	1092.56
396.84	1092.75
397.21	1092.54
397.58	1094.15
397.95	1093.59
398.32	1092.75
398.69	1093.03
399.06	1092.49
399.42	1091.98
399.79	1092.09
400.16	1088.42
400.53	1090.20
400.90	1091.51
401.27	1091.65
401.64	1091.91
402.00	1093.90
402.37	1090.20
402.74	1090.67
403.11	1089.22
403.48	1091.72
403.84	1097.83
404.21	1101.43
404.58	1101.85
404.95	1103.00
405.32	1101.88
405.68	1098.69
406.05	1095.72
406.42	1096.19
406.79	1099.09
407.16	1104.08
407.52	1103.07
407.89	1103.40
408.26	1101.74
408.63	1101.88
408.99	1095.63
409.36	1095.67
409.73	1098.02
410.10	1099.72
410.47	1097.80
410.83	1099.49
411.20	1101.81
411.57	1099.68
411.94	1100.40
412.30	1102.06
412.67	1102.70
413.04	1101.22
413.40	1101.99
413.77	1102.53
414.14	1102.39
414.51	1105.18
414.87	1107.92
415.24	1108.99
415.61	1107.24
415.97	1108.81
416.34	1106.44
416.71	1106.25
417.08	1103.31
417.44	1105.90
417.81	1103.54
418.18	1105.93
418.54	1104.43
418.91	1110.54
419.28	1111.24
419.64	1113.77
420.01	1114.09
420.38	1112.06
420.74	1112.29
421.11	1108.48
421.48	1108.27
421.84	1106.02
422.21	1107.12
422.58	1103.89
422.94	1108.48
423.31	1108.99
423.68	1113.30
424.04	1118.80
424.41	1121.00
424.77	1121.51
425.14	1119.43
425.51	1117.32
425.87	1115.03
426.24	1116.11
426.61	1117.07
426.97	1117.91
427.34	1119.10
427.70	1119.53
428.07	1116.51
428.44	1114.66
428.80	1119.41
429.17	1119.92
429.53	1117.37
429.90	1120.74
430.27	1121.12
430.63	1117.96
431.00	1118.31
431.36	1121.00
431.73	1117.02
432.09	1115.43
432.46	1118.17
432.83	1118.14
433.19	1117.14
433.56	1119.27
433.92	1119.31
434.29	1116.72
434.65	1116.69
435.02	1118.42
435.38	1119.64
435.75	1122.19
436.11	1121.12
436.48	1126.13
436.84	1124.60
437.21	1122.73
437.57	1119.22
437.94	1122.22
438.30	1117.07
438.67	1118.61
439.03	1119.57
439.40	1119.69
439.76	1117.65
440.13	1116.60
440.49	1114.33
440.86	1112.22
441.22	1115.62
441.59	1114.26
441.95	1115.48
442.32	1115.03
442.68	1115.45
443.05	1113.16
443.41	1112.36
443.78	1111.10
444.14	1112.20
444.51	1111.61
444.87	1114.19
445.24	1116.62
445.60	1114.59
445.96	1112.60
446.33	1115.87
446.69	1115.64
447.06	1114.68
447.42	1117.79
447.79	1119.95
448.15	1118.17
448.51	1114.24
448.88	1115.27
449.24	1116.51
449.61	1115.55
449.97	1116.83
450.33	1118.73
450.70	1115.97
451.06	1114.28
451.43	1112.99
451.79	1112.29
452.15	1114.56
452.52	1118.26
452.88	1117.84
453.24	1119.74
453.61	1117.56
453.97	1114.33
454.34	1113.35
454.70	1116.39
455.06	1115.29
455.43	1115.90
455.79	1117.58
456.15	1114.49
456.52	1112.85
456.88	1112.67
457.24	1114.66
457.61	1113.98
457.97	1116.13
458.33	1112.48
458.70	1112.29
459.06	1111.01
459.42	1112.15
459.79	1113.79
460.15	1114.31
460.51	1118.78
460.88	1124.30
461.24	1124.65
461.60	1124.98
461.96	1125.45
462.33	1121.19
462.69	1116.37
463.05	1117.51
463.42	1118.35
463.78	1120.91
464.14	1122.10
464.50	1123.04
464.87	1121.89
465.23	1124.77
465.59	1125.17
465.95	1127.76
466.32	1132.75
466.68	1135.56
467.04	1136.14
467.40	1137.43
467.77	1140.29
468.13	1139.82
468.49	1140.71
468.85	1138.72
469.22	1143.30
469.58	1142.42
469.94	1144.92
470.30	1147.26
470.66	1150.77
471.03	1148.50
471.39	1152.15
471.75	1154.87
472.11	1158.47
472.47	1159.41
472.84	1165.68
473.20	1169.82
473.56	1169.80
473.92	1169.14
474.28	1174.43
474.65	1177.08
475.01	1180.89
475.37	1185.25
475.73	1189.62
476.09	1191.85
476.45	1195.87
476.81	1199.31
477.18	1206.64
477.54	1215.32
477.90	1223.42
478.26	1230.72
478.62	1237.51
478.98	1244.56
479.34	1253.40
479.71	1264.17
480.07	1276.88
480.43	1290.41
480.79	1302.25
481.15	1313.77
481.51	1325.75
481.87	1335.09
482.23	1348.24
482.59	1361.14
482.96	1374.69
483.32	1389.95
483.68	1405.42
484.04	1421.08
484.40	1440.62
484.76	1465.67
485.12	1488.35
485.48	1518.17
485.84	1542.06
486.20	1563.90
486.56	1583.02
486.92	1607.18
487.28	1632.38
487.64	1664.03
488.00	1700.94
488.37	1738.64
488.73	1776.44
489.09	1810.97
489.45	1845.91
489.81	1886.40
490.17	1932.91
490.53	1977.26
490.89	2023.74
491.25	2078.68
491.61	2132.74
491.97	2186.06
492.33	2243.38
492.69	2300.37
493.05	2362.12
493.41	2428.49
493.77	2502.01
494.13	2579.01
494.49	2658.68
494.85	2737.58
495.21	2822.08
495.57	2909.47
495.93	3002.13
496.29	3100.86
496.64	3211.22
497.00	3326.51
497.36	3438.60
497.72	3565.85
498.08	3703.34
498.44	3843.30
498.80	3980.36
499.16	4139.49
499.52	4294.44
499.88	4468.95
500.24	4645.68
500.60	4832.97
500.96	5015.02
501.32	5202.66
501.68	5383.58
502.03	5581.43
502.39	5801.02
502.75	6030.74
503.11	6290.63
503.47	6559.66
503.83	6854.61
504.19	7149.03
504.55	7479.35
504.91	7793.70
505.26	8110.89
505.62	8469.60
505.98	8869.72
506.34	9257.47
506.70	9687.20
507.06	10153.60
507.42	10597.78
507.78	11033.05
508.13	11508.37
508.49	11998.66
508.85	12542.95
509.21	13087.32
509.57	13645.86
509.93	14234.97
510.28	14877.01
510.64	15527.42
511.00	16196.13
511.36	16909.36
511.72	17686.47
512.07	18473.97
512.43	19255.52
512.79	20154.10
513.15	21023.82
513.51	21774.94
513.86	22562.95
514.22	23451.04
514.58	24323.78
514.94	25183.25
515.30	26200.78
515.65	27283.88
516.01	28246.19
516.37	29150.62
516.73	30138.84
517.08	30997.00
517.44	31683.22
517.80	32522.82
518.16	33447.59
518.51	34360.30
518.87	35300.22
519.23	36380.21
519.59	37355.86
519.94	38334.56
520.30	39250.39
520.66	40090.54
521.01	40835.35
521.37	41584.93
521.73	42165.52
522.09	42716.53
522.44	43398.99
522.80	43976.93
523.16	44343.95
523.51	44682.75
523.87	45068.07
524.23	45339.13
524.58	45552.72
524.94	45977.25
525.30	46277.10
525.65	46398.83
526.01	46364.63
526.37	46539.98
526.72	46610.69
527.08	46573.64
527.44	46486.95
527.79	46409.69
528.15	46194.76
528.51	45882.39
528.86	45649.74
529.22	45340.39
529.58	45031.46
529.93	44626.48
530.29	44093.38
530.65	43620.61
531.00	43195.57
531.36	42592.58
531.71	41995.04
532.07	41560.24
532.43	40865.61
532.78	40154.86
533.14	39576.40
533.49	38935.42
533.85	38219.38
534.21	37691.10
534.56	37175.34
534.92	36560.50
535.27	35922.54
535.63	35140.80
535.98	34401.62
536.34	33633.50
536.69	32911.28
537.05	32240.55
537.41	31691.02
537.76	31031.10
538.12	30356.75
538.47	29785.35
538.83	29236.38
539.18	28657.80
539.54	28154.00
539.89	27702.04
540.25	27209.03
540.60	26705.21
540.96	26142.78
541.31	25659.11
541.67	25254.80
542.02	24809.30
542.38	24367.69
542.73	23938.11
543.09	23462.02
543.44	22957.17
543.80	22489.74
544.15	22016.65
544.51	21666.71
544.86	21277.65
545.22	20920.76
545.57	20575.72
545.93	20163.43
546.28	19764.79
546.64	19413.95
546.99	19025.77
547.35	18654.61
547.70	18340.27
548.05	17953.83
548.41	17547.04
548.76	17117.51
549.12	16697.24
549.47	16322.59
549.83	15998.92
550.18	15667.19
550.53	15330.27
550.89	14983.97
551.24	14608.76
551.60	14295.15
551.95	14010.03
552.30	13754.39
552.66	13531.78
553.01	13338.92
553.37	13084.51
553.72	12812.44
554.07	12541.78
554.43	12262.63
554.78	11941.37
555.13	11648.75
555.49	11353.24
555.84	11083.79
556.19	10814.05
556.55	10548.02
556.90	10271.77
557.26	10063.18
557.61	9861.52
557.96	9655.46
558.32	9453.14
558.67	9252.93
559.02	9024.29
559.37	8813.26
559.73	8626.28
560.08	8459.94
560.43	8269.81
560.79	8094.30
561.14	7889.97
561.49	7697.32
561.85	7501.07
562.20	7339.10
562.55	7199.14
562.90	7056.93
563.26	6907.15
563.61	6766.18
563.96	6623.83
564.32	6453.68
564.67	6319.54
565.02	6197.69
565.37	6091.92
565.73	5946.72
566.08	5832.38
566.43	5712.62
566.78	5574.88
567.14	5443.66
567.49	5348.83
567.84	5230.11
568.19	5118.19
568.54	5023.23
568.90	4922.71
569.25	4837.65
569.60	4753.14
569.95	4669.93
570.31	4596.20
570.66	4510.98
571.01	4410.20
571.36	4323.34
571.71	4245.50
572.06	4157.80
572.42	4082.57
572.77	4002.76
573.12	3927.49
573.47	3850.91
573.82	3785.28
574.18	3723.16
574.53	3663.41
574.88	3608.36
575.23	3542.80
575.58	3469.42
575.93	3409.01
576.28	3356.61
576.64	3295.33
576.99	3238.15
577.34	3185.77
577.69	3120.96
578.04	3060.16
578.39	3003.84
578.74	2945.54
579.09	2894.84
579.44	2841.04
579.80	2794.83
580.15	2755.79
580.50	2713.17
580.85	2669.01
581.20	2629.64
581.55	2586.90
581.90	2541.82
582.25	2503.86
582.60	2462.27
582.95	2427.30
583.30	2389.38
583.65	2356.08
584.00	2321.48
584.35	2291.15
584.71	2258.15
585.06	2234.81
585.41	2209.40
585.76	2184.40
586.11	2157.62
586.46	2134.57
586.81	2101.82
587.16	2071.07
587.51	2050.26
587.86	2028.47
588.21	2002.42
588.56	1984.98
588.91	1961.98
589.26	1936.44
589.61	1912.15
589.96	1891.62
590.31	1867.82
590.66	1849.26
591.01	1828.54
591.36	1809.42
591.71	1789.08
592.06	1769.30
592.41	1753.23
592.76	1735.02
593.10	1716.78
593.45	1702.41
593.80	1689.02
594.15	1670.16
594.50	1662.74
594.85	1651.34
595.20	1642.73
595.55	1636.06
595.90	1622.51
596.25	1607.29
596.60	1591.63
596.95	1577.76
597.30	1558.00
597.64	1604.11
597.99	1594.98
598.34	1588.17
598.69	1573.85
599.04	1567.01
599.39	1501.71
599.74	1488.81
600.09	1480.46
600.44	1476.62
600.78	1463.89
601.13	1454.46
601.48	1447.90
601.83	1437.77
602.18	1425.92
602.53	1418.67
602.88	1411.76
603.22	1402.99
603.57	1397.49
603.92	1384.78
604.27	1377.97
604.62	1372.40
604.97	1367.79
605.31	1359.29
605.66	1359.27
606.01	1355.54
606.36	1348.90
606.71	1339.58
607.05	1337.69
607.40	1328.35
607.75	1320.02
608.10	1312.69
608.44	1309.90
608.79	1301.71
609.14	1296.63
609.49	1291.18
609.84	1286.05
610.18	1279.31
610.53	1275.69
610.88	1271.29
611.23	1267.38
611.57	1266.30
611.92	1262.02
612.27	1257.83
612.62	1255.84
612.96	1250.90
613.31	1247.04
613.66	1243.46
614.00	1238.14
614.35	1237.61
614.70	1236.65
615.05	1232.69
615.39	1227.66
615.74	1226.86
616.09	1218.60
616.43	1214.93
616.78	1212.77
617.13	1210.24
617.47	1203.71
617.82	1201.23
618.17	1198.28
618.51	1193.09
618.86	1192.41
619.21	1191.50
619.55	1193.02
619.90	1190.09
620.25	1188.59
620.59	1186.58
620.94	1183.12
621.29	1181.06
621.63	1177.69
621.98	1176.82
622.32	1176.49
622.67	1175.53
623.02	1168.68
623.36	1169.66
623.71	1168.56
624.05	1166.13
624.40	1164.04
624.75	1166.73
625.09	1164.21
625.44	1159.60
625.78	1155.29
626.13	1153.98
626.48	1152.32
626.82	1152.34
627.17	1153.42
627.51	1154.63
627.86	1154.68
628.20	1152.88
628.55	1152.43
628.89	1149.88
629.24	1145.55
629.58	1147.26
629.93	1147.05
630.28	1145.48
630.62	1146.21
630.97	1146.68
631.31	1138.34
631.66	1137.66
632.00	1134.76
632.35	1131.46
632.69	1130.46
633.04	1131.39
633.38	1128.40
633.73	1123.81
634.07	1121.89
634.42	1121.68
634.76	1122.83
635.11	1121.61
635.45	1125.10
635.79	1126.31
636.14	1124.44
636.48	1123.36
636.83	1122.85
637.17	1121.87
637.52	1123.25
637.86	1122.64
638.21	1123.43
638.55	1122.64
638.89	1122.50
639.24	1119.55
639.58	1118.64
639.93	1117.61
640.27	1114.98
640.61	1113.86
640.96	1114.45
641.30	1114.47
641.65	1115.08
641.99	1117.47
642.33	1115.17
642.68	1114.61
643.02	1112.48
643.37	1108.08
643.71	1106.16
644.05	1108.27
644.40	1107.89
644.74	1112.06
645.08	1115.45
645.43	1116.67
645.77	1118.05
646.11	1118.64
646.46	1113.72
646.80	1109.98
647.14	1107.49
647.49	1103.87
647.83	1102.32
648.17	1104.90
648.52	1107.40
648.86	1109.23
649.20	1109.04
649.55	1109.37
649.89	1108.08
650.23	1107.71
650.57	1106.61
650.92	1108.64
651.26	1107.96
651.60	1106.37
651.95	1106.44
652.29	1107.56
652.63	1106.91
652.97	1105.27
653.32	1107.78
653.66	1105.29
654.00	1100.80
654.34	1097.85
654.69	1098.55
655.03	1097.76
655.37	1098.30
655.71	1100.80
656.05	1102.77
656.40	1100.75
656.74	1098.13
657.08	1095.23
657.42	1096.05
657.76	1097.06
658.11	1100.15
658.45	1101.55
658.79	1105.60
659.13	1106.14
659.47	1104.97
659.82	1100.87
660.16	1101.15
660.50	1098.60
660.84	1097.50
661.18	1093.85
661.52	1096.14
661.87	1095.63
662.21	1095.35
662.55	1093.08
662.89	1095.93
663.23	1094.74
663.57	1093.40
663.91	1097.45
664.25	1098.76
664.60	1099.21
664.94	1099.44
665.28	1098.48
665.62	1094.22
665.96	1095.02
666.30	1096.42
666.64	1094.95
666.98	1096.07
667.32	1096.78
667.66	1094.18
668.01	1093.92
668.35	1099.30
668.69	1100.59
669.03	1101.41
669.37	1102.74
669.71	1102.72
670.05	1098.95
670.39	1097.97
670.73	1096.24
671.07	1094.86
671.41	1092.30
671.75	1091.02
672.09	1091.81
672.43	1093.43
672.77	1093.12
673.11	1092.14
673.45	1096.10
673.79	1094.43
674.13	1093.64
674.47	1097.69
674.81	1101.46
675.15	1098.23
675.49	1098.04
675.83	1095.91
676.17	1092.14
676.51	1091.67
676.85	1091.02
677.19	1092.59
677.53	1094.69
677.87	1094.72
678.21	1091.74
678.55	1092.00
678.89	1092.87
679.23	1092.37
679.57	1091.91
679.90	1092.56
680.24	1093.55
680.58	1094.22
680.92	1095.02
681.26	1099.00
681.60	1098.55
681.94	1098.81
682.28	1097.31
682.62	1098.55
682.96	1096.80
683.29	1096.42
683.63	1093.83
683.97	1092.59
684.31	1092.28
684.65	1091.72
684.99	1094.06
685.33	1096.40
685.67	1098.98
686.00	1097.50
686.34	1100.66
686.68	1098.51
687.02	1097.29
687.36	1096.17
687.70	1094.27
688.03	1090.06
688.37	1087.62
688.71	1086.36
689.05	1085.49
689.39	1086.06
689.72	1084.32
690.06	1085.03
690.40	1088.07
690.74	1087.16
691.08	1090.41
691.41	1089.45
691.75	1092.16
692.09	1090.85
692.43	1091.95
692.76	1090.41
693.10	1092.87
693.44	1093.12
693.78	1091.42
694.11	1093.01
694.45	1089.33
694.79	1088.68
695.13	1085.96
695.46	1086.85
695.80	1085.10
696.14	1087.86
696.48	1092.00
696.81	1094.11
697.15	1096.75
697.49	1094.22
697.82	1094.08
698.16	1089.71
698.50	1091.53
698.83	1090.24
699.17	1093.64
699.51	1095.30
699.84	1098.27
700.18	1096.10
700.52	1097.41
700.85	1095.25
701.19	1093.01
701.53	1089.38
701.86	1090.85
702.20	1088.23
702.54	1089.19
702.87	1091.30
703.21	1093.29
703.55	1090.55
703.88	1093.15
704.22	1093.15
704.55	1093.22
704.89	1095.04
705.23	1096.59
705.56	1093.85
705.90	1092.14
706.23	1086.36
706.57	1082.90
706.91	1082.54
707.24	1082.90
707.58	1088.56
707.91	1092.37
708.25	1092.07
708.58	1090.39
708.92	1091.02
709.26	1087.60
709.59	1087.60
709.93	1089.36
710.26	1093.12
710.60	1093.47
710.93	1093.38
711.27	1091.44
711.60	1091.58
711.94	1089.96
712.27	1088.93
712.61	1088.51
712.94	1091.63
713.28	1092.59
713.61	1091.25
713.95	1093.22
714.28	1092.70
714.62	1091.13
714.95	1091.67
715.29	1094.39
715.62	1091.20
715.96	1093.83
716.29	1097.76
716.63	1096.42
716.96	1094.60
717.29	1097.97
717.63	1096.99
717.96	1089.80
718.30	1089.36
718.63	1090.50
718.97	1090.08
719.30	1088.42
719.63	1093.05
719.97	1093.94
720.30	1090.55
720.64	1090.03
720.97	1094.11
721.30	1095.75
721.64	1096.33
721.97	1096.54
722.31	1095.00
722.64	1089.07
722.97	1088.07
723.31	1083.55
723.64	1084.39
723.97	1085.59
724.31	1088.21
724.64	1088.72
724.98	1090.92
725.31	1091.91
725.64	1090.13
725.98	1088.44
726.31	1084.93
726.64	1086.64
726.97	1085.82
727.31	1087.81
727.64	1090.53
727.97	1094.36
728.31	1091.02
728.64	1093.59
728.97	1094.41
729.31	1092.21
729.64	1090.08
729.97	1093.17
730.30	1092.45
730.64	1093.59
730.97	1094.18
731.30	1094.22
731.63	1091.09
731.97	1088.68
732.30	1086.01
732.63	1085.54
732.96	1085.75
733.30	1090.53
733.63	1092.77
733.96	1090.46
734.29	1091.70
734.63	1093.33
734.96	1090.24
735.29	1088.42
735.62	1092.66
735.95	1092.07
736.29	1091.34
736.62	1092.49
736.95	1090.27
737.28	1086.76
737.61	1085.77
737.94	1085.21
738.28	1086.08
738.61	1092.00
738.94	1090.95
739.27	1093.76
739.60	1092.77
739.93	1089.05
740.27	1085.38
740.60	1084.09
740.93	1081.30
741.26	1081.75
741.59	1083.67
741.92	1085.59
742.25	1090.97
742.58	1089.64
742.91	1089.68
743.25	1086.24
743.58	1082.24
743.91	1079.97
744.24	1084.28
744.57	1085.96
744.90	1090.83
745.23	1092.14
745.56	1091.09
745.89	1088.16
746.22	1084.81
746.55	1083.64
746.88	1083.93
747.21	1084.70
747.54	1085.33
747.87	1086.62
748.20	1086.90
748.53	1089.73
748.87	1090.22
749.20	1091.37
749.53	1093.19
749.86	1092.84
750.19	1090.76
750.52	1091.34
750.85	1089.19
751.18	1089.14
751.51	1088.84
751.84	1087.09
752.16	1088.61
752.49	1086.83
752.82	1085.66
753.15	1086.36
753.48	1087.39
753.81	1087.51
754.14	1090.15
754.47	1091.65
754.80	1090.57
755.13	1092.89
755.46	1090.64
755.79	1091.49
756.12	1090.50
756.45	1090.32
756.78	1089.29
757.11	1089.14
757.43	1087.62
757.76	1085.03
758.09	1083.48
758.42	1081.12
758.75	1082.50
759.08	1085.05
759.41	1088.47
759.74	1089.87
760.07	1090.99
760.39	1092.14
760.72	1091.11
761.05	1089.87
761.38	1092.33
761.71	1094.39
762.04	1093.66
762.36	1095.65
762.69	1094.08
763.02	1095.67
763.35	1092.09
