SpectraSuite Data File
++++++++++++++++++++++++++++++++++++
Date: Mon Aug 26 10:26:34 PDT 2019
User: corrico
Dark Spectrum Present: No
Reference Spectrum Present: No
Number of Sampled Component Spectra: 1
Spectrometers: USB2+H06089
Integration Time (usec): 10000 (USB2+H06089)
Spectra Averaged: 20 (USB2+H06089)
Boxcar Smoothing: 2 (USB2+H06089)
Correct for Electrical Dark: No (USB2+H06089)
Strobe/Lamp Enabled: No (USB2+H06089)
Correct for Detector Non-linearity: No (USB2+H06089)
Correct for Stray Light: No (USB2+H06089)
Number of Pixels in Processed Spectrum: 2048
>>>>>Begin Processed Spectral Data<<<<<
339.70	1031.24
340.07	1031.24
340.45	1000.77
340.82	979.02
341.19	954.12
341.57	930.13
341.94	920.23
342.31	911.97
342.69	907.14
343.06	903.12
343.43	900.17
343.81	899.19
344.18	901.64
344.55	906.14
344.93	913.77
345.30	920.28
345.67	927.81
346.04	934.74
346.42	940.78
346.79	952.18
347.16	960.58
347.54	963.88
347.91	974.06
348.28	985.86
348.65	995.83
349.03	1007.25
349.40	1019.19
349.77	1031.94
350.14	1036.20
350.52	1040.32
350.89	1047.34
351.26	1056.42
351.63	1053.10
352.01	1061.85
352.38	1069.04
352.75	1071.08
353.12	1072.34
353.50	1078.26
353.87	1080.86
354.24	1081.26
354.61	1083.67
354.98	1086.20
355.36	1086.87
355.73	1086.83
356.10	1087.58
356.47	1090.55
356.84	1090.48
357.22	1093.85
357.59	1093.66
357.96	1090.95
358.33	1090.81
358.70	1087.58
359.08	1083.15
359.45	1082.38
359.82	1084.84
360.19	1083.86
360.56	1085.54
360.94	1085.87
361.31	1086.31
361.68	1084.37
362.05	1081.37
362.42	1082.01
362.79	1082.15
363.16	1079.92
363.54	1080.91
363.91	1078.94
364.28	1078.43
364.65	1079.29
365.02	1080.72
365.39	1077.42
365.76	1078.66
366.14	1077.58
366.51	1075.20
366.88	1071.64
367.25	1073.32
367.62	1078.19
367.99	1081.19
368.36	1083.67
368.73	1085.47
369.10	1084.32
369.48	1079.20
369.85	1078.43
370.22	1077.23
370.59	1077.68
370.96	1077.63
371.33	1078.38
371.70	1075.36
372.07	1072.06
372.44	1072.15
372.81	1073.77
373.18	1071.82
373.55	1072.27
373.93	1075.03
374.30	1072.39
374.67	1073.11
375.04	1074.73
375.41	1076.97
375.78	1076.48
376.15	1081.98
376.52	1083.13
376.89	1086.71
377.26	1084.72
377.63	1083.81
378.00	1080.81
378.37	1077.04
378.74	1076.11
379.11	1077.89
379.48	1080.51
379.85	1081.91
380.22	1083.55
380.59	1080.44
380.96	1079.97
381.33	1080.27
381.70	1079.76
382.07	1082.83
382.44	1084.49
382.81	1083.06
383.18	1085.87
383.55	1085.03
383.92	1083.32
384.29	1082.94
384.66	1083.39
385.03	1080.46
385.40	1080.67
385.77	1078.12
386.14	1077.35
386.51	1077.56
386.88	1075.36
387.25	1076.97
387.62	1080.65
387.99	1084.53
388.36	1086.06
388.73	1088.28
389.10	1086.94
389.46	1085.28
389.83	1082.80
390.20	1083.36
390.57	1085.14
390.94	1090.99
391.31	1090.78
391.68	1092.33
392.05	1093.76
392.42	1095.84
392.79	1091.86
393.16	1091.13
393.53	1087.88
393.89	1085.87
394.26	1083.62
394.63	1083.46
395.00	1084.70
395.37	1086.01
395.74	1089.50
396.11	1091.98
396.48	1092.37
396.84	1093.80
397.21	1095.89
397.58	1093.50
397.95	1091.11
398.32	1092.12
398.69	1091.18
399.06	1091.93
399.42	1092.77
399.79	1094.29
400.16	1093.17
400.53	1094.69
400.90	1092.09
401.27	1091.25
401.64	1086.62
402.00	1087.95
402.37	1084.81
402.74	1087.72
403.11	1087.51
403.48	1092.82
403.84	1095.18
404.21	1097.20
404.58	1094.13
404.95	1095.72
405.32	1091.23
405.68	1088.63
406.05	1091.46
406.42	1094.36
406.79	1093.01
407.16	1099.47
407.52	1100.38
407.89	1100.00
408.26	1099.82
408.63	1100.85
408.99	1098.18
409.36	1098.46
409.73	1095.70
410.10	1096.54
410.47	1098.51
410.83	1100.19
411.20	1099.58
411.57	1100.92
411.94	1099.30
412.30	1099.82
412.67	1098.41
413.04	1099.51
413.40	1097.20
413.77	1098.79
414.14	1098.69
414.51	1096.00
414.87	1094.43
415.24	1097.76
415.61	1098.34
415.97	1100.15
416.34	1104.45
416.71	1108.95
417.08	1109.16
417.44	1108.10
417.81	1106.61
418.18	1105.86
418.54	1103.68
418.91	1107.85
419.28	1110.56
419.64	1108.92
420.01	1108.97
420.38	1107.10
420.74	1106.39
421.11	1106.82
421.48	1108.85
421.84	1107.71
422.21	1109.60
422.58	1108.20
422.94	1107.19
423.31	1105.51
423.68	1109.44
424.04	1112.25
424.41	1109.88
424.77	1112.62
425.14	1115.52
425.51	1113.79
425.87	1112.32
426.24	1113.53
426.61	1111.85
426.97	1113.42
427.34	1112.01
427.70	1110.82
428.07	1113.04
428.44	1114.52
428.80	1114.05
429.17	1115.24
429.53	1118.05
429.90	1117.98
430.27	1113.86
430.63	1111.24
431.00	1112.18
431.36	1110.58
431.73	1110.02
432.09	1115.80
432.46	1118.19
432.83	1119.38
433.19	1120.11
433.56	1120.63
433.92	1119.48
434.29	1119.83
434.65	1118.05
435.02	1115.22
435.38	1114.73
435.75	1112.81
436.11	1109.65
436.48	1108.48
436.84	1112.85
437.21	1111.45
437.57	1108.10
437.94	1110.54
438.30	1110.63
438.67	1107.73
439.03	1109.69
439.40	1112.27
439.76	1110.02
440.13	1111.80
440.49	1113.16
440.86	1112.53
441.22	1112.95
441.59	1112.99
441.95	1113.65
442.32	1111.59
442.68	1114.45
443.05	1114.84
443.41	1115.29
443.78	1113.79
444.14	1115.08
444.51	1110.63
444.87	1109.18
445.24	1110.09
445.60	1108.85
445.96	1108.43
446.33	1107.82
446.69	1108.85
447.06	1107.19
447.42	1111.03
447.79	1109.34
448.15	1109.53
448.51	1109.79
448.88	1108.38
449.24	1107.03
449.61	1110.19
449.97	1110.96
450.33	1110.47
450.70	1108.20
451.06	1107.17
451.43	1105.81
451.79	1107.03
452.15	1109.09
452.52	1112.76
452.88	1113.35
453.24	1113.16
453.61	1110.61
453.97	1111.71
454.34	1113.95
454.70	1111.75
455.06	1112.64
455.43	1116.44
455.79	1113.44
456.15	1112.64
456.52	1114.61
456.88	1113.25
457.24	1110.87
457.61	1113.28
457.97	1114.14
458.33	1119.20
458.70	1122.08
459.06	1126.13
459.42	1125.66
459.79	1125.52
460.15	1119.60
460.51	1117.04
460.88	1113.70
461.24	1112.55
461.60	1112.48
461.96	1114.26
462.33	1114.91
462.69	1117.56
463.05	1121.56
463.42	1122.05
463.78	1120.63
464.14	1119.15
464.50	1117.30
464.87	1115.20
465.23	1114.54
465.59	1119.10
465.95	1125.80
466.32	1129.26
466.68	1127.55
467.04	1131.63
467.40	1129.87
467.77	1128.82
468.13	1130.24
468.49	1134.72
468.85	1135.00
469.22	1138.58
469.58	1140.24
469.94	1139.65
470.30	1138.69
470.66	1137.03
471.03	1135.21
471.39	1135.00
471.75	1137.43
472.11	1140.85
472.47	1147.35
472.84	1154.66
473.20	1156.95
473.56	1161.40
473.92	1165.35
474.28	1164.65
474.65	1165.96
475.01	1170.97
475.37	1171.53
475.73	1172.09
476.09	1179.37
476.45	1184.97
476.81	1192.11
477.18	1198.82
477.54	1206.08
477.90	1210.29
478.26	1212.87
478.62	1218.04
478.98	1223.84
479.34	1230.96
479.71	1241.35
480.07	1248.09
480.43	1254.74
480.79	1266.63
481.15	1277.09
481.51	1287.79
481.87	1305.22
482.23	1317.18
482.59	1328.61
482.96	1340.00
483.32	1352.15
483.68	1364.39
484.04	1376.84
484.40	1393.63
484.76	1410.80
485.12	1425.06
485.48	1444.16
485.84	1469.27
486.20	1491.53
486.56	1515.15
486.92	1543.23
487.28	1569.87
487.64	1596.57
488.00	1627.09
488.37	1659.16
488.73	1690.43
489.09	1723.73
489.45	1760.32
489.81	1792.83
490.17	1830.95
490.53	1864.68
490.89	1905.90
491.25	1948.10
491.61	1995.40
491.97	2039.43
492.33	2097.59
492.69	2149.48
493.05	2203.54
493.41	2260.44
493.77	2323.22
494.13	2385.36
494.49	2451.27
494.85	2521.76
495.21	2599.45
495.57	2682.04
495.93	2767.15
496.29	2855.73
496.64	2953.94
497.00	3046.35
497.36	3149.64
497.72	3255.40
498.08	3369.01
498.44	3484.64
498.80	3610.81
499.16	3742.21
499.52	3879.98
499.88	4028.30
500.24	4189.30
500.60	4342.54
500.96	4503.40
501.32	4677.94
501.68	4850.46
502.03	5030.72
502.39	5244.41
502.75	5460.03
503.11	5696.82
503.47	5932.49
503.83	6178.55
504.19	6437.62
504.55	6715.91
504.91	6990.64
505.26	7282.76
505.62	7592.00
505.98	7908.30
506.34	8243.16
506.70	8600.67
507.06	8983.19
507.42	9387.12
507.78	9806.26
508.13	10223.20
508.49	10666.92
508.85	11147.71
509.21	11634.57
509.57	12164.07
509.93	12725.38
510.28	13333.35
510.64	13955.56
511.00	14594.53
511.36	15175.82
511.72	15770.79
512.07	16423.49
512.43	17033.72
512.79	17692.34
513.15	18430.88
513.51	19190.22
513.86	19899.70
514.22	20735.16
514.58	21535.55
514.94	22378.82
515.30	23243.79
515.65	24089.64
516.01	24943.58
516.37	25817.63
516.73	26616.69
517.08	27482.59
517.44	28335.81
517.80	29164.81
518.16	30025.21
518.51	30848.61
518.87	31612.19
519.23	32473.08
519.59	33352.26
519.94	34175.94
520.30	35069.35
520.66	35837.18
521.01	36645.49
521.37	37316.61
521.73	37959.98
522.09	38578.91
522.44	39251.42
522.80	39633.53
523.16	40006.36
523.51	40265.69
523.87	40540.42
524.23	40784.96
524.58	41086.68
524.94	41481.83
525.30	41828.95
525.65	42026.57
526.01	42088.24
526.37	42090.93
526.72	41996.70
527.08	41879.18
527.44	41685.48
527.79	41538.54
528.15	41442.06
528.51	41219.97
528.86	40970.68
529.22	40739.72
529.58	40483.12
529.93	40092.96
530.29	39638.84
530.65	39272.93
531.00	38934.46
531.36	38499.33
531.71	38033.89
532.07	37564.99
532.43	36958.02
532.78	36240.18
533.14	35613.87
533.49	35024.34
533.85	34395.72
534.21	33796.12
534.56	33257.44
534.92	32665.17
535.27	32042.40
535.63	31428.69
535.98	30793.52
536.34	30156.23
536.69	29505.66
537.05	28882.98
537.41	28372.89
537.76	27866.47
538.12	27323.02
538.47	26834.90
538.83	26384.09
539.18	25890.07
539.54	25421.05
539.89	24956.08
540.25	24421.13
540.60	23914.14
540.96	23390.03
541.31	22894.23
541.67	22457.67
542.02	22052.78
542.38	21630.13
542.73	21191.19
543.09	20779.84
543.44	20411.77
543.80	20067.14
544.15	19658.25
544.51	19333.34
544.86	19005.10
545.22	18632.23
545.57	18242.35
545.93	17882.25
546.28	17537.94
546.64	17220.73
546.99	16866.70
547.35	16540.45
547.70	16242.19
548.05	15919.34
548.41	15605.66
548.76	15311.67
549.12	15026.54
549.47	14761.55
549.83	14502.54
550.18	14180.51
550.53	13859.25
550.89	13587.02
551.24	13297.66
551.60	12991.85
551.95	12731.86
552.30	12497.10
552.66	12242.13
553.01	11992.83
553.37	11730.37
553.72	11468.72
554.07	11204.19
554.43	10916.21
554.78	10624.51
555.13	10367.22
555.49	10126.40
555.84	9927.22
556.19	9738.78
556.55	9541.12
556.90	9350.96
557.26	9148.64
557.61	8921.61
557.96	8690.46
558.32	8490.25
558.67	8281.42
559.02	8066.00
559.37	7885.94
559.73	7724.94
560.08	7559.56
560.43	7405.29
560.79	7276.61
561.14	7125.57
561.49	6957.57
561.85	6798.11
562.20	6648.88
562.55	6510.90
562.90	6374.33
563.26	6260.28
563.61	6149.83
563.96	6035.02
564.32	5902.83
564.67	5778.53
565.02	5647.76
565.37	5533.92
565.73	5418.55
566.08	5322.05
566.43	5219.21
566.78	5116.34
567.14	5003.18
567.49	4895.35
567.84	4789.27
568.19	4682.29
568.54	4593.75
568.90	4504.38
569.25	4429.58
569.60	4358.57
569.95	4288.14
570.31	4205.59
570.66	4126.83
571.01	4030.68
571.36	3927.61
571.71	3842.97
572.06	3776.71
572.42	3712.77
572.77	3662.12
573.12	3612.29
573.47	3558.36
573.82	3490.72
574.18	3423.01
574.53	3357.99
574.88	3302.24
575.23	3248.62
575.58	3201.57
575.93	3153.85
576.28	3102.33
576.64	3050.82
576.99	2992.84
577.34	2929.74
577.69	2876.54
578.04	2822.36
578.39	2769.72
578.74	2730.05
579.09	2690.16
579.44	2648.29
579.80	2616.70
580.15	2575.01
580.50	2534.96
580.85	2501.40
581.20	2471.82
581.55	2438.89
581.90	2413.00
582.25	2381.00
582.60	2345.92
582.95	2305.54
583.30	2266.74
583.65	2231.23
584.00	2193.22
584.35	2165.16
584.71	2138.90
585.06	2109.69
585.41	2081.32
585.76	2054.97
586.11	2021.47
586.46	1996.85
586.81	1975.62
587.16	1955.75
587.51	1937.43
587.86	1919.52
588.21	1901.17
588.56	1875.26
588.91	1852.65
589.26	1829.06
589.61	1812.72
589.96	1790.95
590.31	1779.28
590.66	1769.07
591.01	1757.53
591.36	1741.94
591.71	1730.29
592.06	1713.67
592.41	1690.10
592.76	1672.87
593.10	1656.44
593.45	1639.92
593.80	1619.77
594.15	1607.06
594.50	1593.86
594.85	1577.50
595.20	1566.64
595.55	1558.35
595.90	1547.14
596.25	1534.46
596.60	1523.88
596.95	1512.57
597.30	1501.92
597.64	1541.45
597.99	1533.03
598.34	1525.98
598.69	1514.58
599.04	1507.23
599.39	1446.17
599.74	1438.73
600.09	1432.13
600.44	1428.12
600.78	1419.25
601.13	1415.81
601.48	1409.33
601.83	1402.54
602.18	1394.49
602.53	1389.15
602.88	1379.23
603.22	1373.43
603.57	1367.86
603.92	1360.48
604.27	1352.20
604.62	1347.89
604.97	1337.57
605.31	1329.40
605.66	1322.71
606.01	1314.30
606.36	1308.29
606.71	1304.01
607.05	1299.11
607.40	1293.45
607.75	1293.12
608.10	1289.10
608.44	1284.56
608.79	1278.59
609.14	1273.51
609.49	1266.35
609.84	1261.27
610.18	1255.70
610.53	1257.99
610.88	1258.51
611.23	1261.43
611.57	1261.69
611.92	1262.60
612.27	1255.39
612.62	1249.73
612.96	1241.49
613.31	1234.87
613.66	1230.26
614.00	1226.89
614.35	1224.22
614.70	1219.33
615.05	1219.28
615.39	1212.65
615.74	1210.34
616.09	1206.38
616.43	1207.18
616.78	1201.14
617.13	1200.65
617.47	1191.89
617.82	1189.62
618.17	1187.85
618.51	1184.17
618.86	1183.56
619.21	1183.49
619.55	1181.41
619.90	1175.81
620.25	1176.91
620.59	1175.98
620.94	1179.21
621.29	1176.73
621.63	1176.91
621.98	1176.07
622.32	1169.59
622.67	1165.49
623.02	1163.50
623.36	1163.81
623.71	1162.36
624.05	1166.66
624.40	1163.71
624.75	1161.30
625.09	1156.58
625.44	1150.12
625.78	1146.09
626.13	1144.36
626.48	1145.36
626.82	1146.23
627.17	1147.99
627.51	1148.34
627.86	1148.22
628.20	1145.97
628.55	1143.96
628.89	1143.02
629.24	1136.66
629.58	1137.15
629.93	1133.99
630.28	1135.04
630.62	1135.60
630.97	1135.65
631.31	1134.06
631.66	1135.07
632.00	1130.67
632.35	1126.13
632.69	1126.10
633.04	1125.91
633.38	1123.78
633.73	1119.99
634.07	1118.05
634.42	1117.42
634.76	1114.87
635.11	1113.67
635.45	1117.65
635.79	1119.17
636.14	1121.80
636.48	1117.82
636.83	1116.88
637.17	1116.01
637.52	1118.94
637.86	1113.84
638.21	1112.22
638.55	1112.15
638.89	1109.86
639.24	1106.37
639.58	1107.24
639.93	1111.43
640.27	1112.76
640.61	1114.68
640.96	1112.71
641.30	1111.71
641.65	1112.64
641.99	1107.31
642.33	1104.92
642.68	1106.39
643.02	1104.29
643.37	1105.22
643.71	1113.23
644.05	1113.14
644.40	1110.98
644.74	1111.80
645.08	1112.04
645.43	1107.73
645.77	1108.62
646.11	1108.69
646.46	1110.16
646.80	1105.62
647.14	1105.48
647.49	1101.20
647.83	1100.05
648.17	1100.29
648.52	1100.87
648.86	1098.69
649.20	1104.43
649.55	1106.61
649.89	1107.26
650.23	1106.25
650.57	1107.73
650.92	1104.83
651.26	1103.96
651.60	1102.88
651.95	1102.42
652.29	1100.12
652.63	1098.25
652.97	1093.33
653.32	1091.18
653.66	1093.99
654.00	1094.81
654.34	1095.11
654.69	1099.98
655.03	1102.46
655.37	1098.72
655.71	1098.95
656.05	1098.27
656.40	1096.07
656.74	1096.38
657.08	1099.19
657.42	1099.79
657.76	1102.91
658.11	1104.55
658.45	1101.03
658.79	1099.26
659.13	1100.29
659.47	1098.18
659.82	1098.02
660.16	1102.42
660.50	1100.22
660.84	1098.27
661.18	1096.21
661.52	1093.24
661.87	1090.08
662.21	1093.69
662.55	1093.24
662.89	1093.94
663.23	1096.56
663.57	1094.50
663.91	1096.00
664.25	1093.57
664.60	1093.83
664.94	1093.33
665.28	1093.90
665.62	1090.46
665.96	1092.05
666.30	1094.06
666.64	1090.67
666.98	1093.03
667.32	1092.61
667.66	1091.60
668.01	1089.96
668.35	1092.23
668.69	1090.13
669.03	1091.58
669.37	1088.75
669.71	1085.49
670.05	1083.76
670.39	1080.58
670.73	1077.70
671.07	1083.32
671.41	1085.87
671.75	1089.29
672.09	1091.65
672.43	1094.08
672.77	1093.87
673.11	1093.78
673.45	1091.42
673.79	1092.98
674.13	1093.76
674.47	1092.45
674.81	1094.18
675.15	1096.12
675.49	1094.95
675.83	1091.79
676.17	1093.26
676.51	1088.61
676.85	1087.13
677.19	1088.96
677.53	1090.50
677.87	1088.65
678.21	1090.34
678.55	1092.82
678.89	1092.87
679.23	1090.92
679.57	1090.48
679.90	1091.84
680.24	1088.51
680.58	1088.49
680.92	1092.28
681.26	1093.45
681.60	1094.65
681.94	1096.54
682.28	1095.86
682.62	1095.65
682.96	1092.68
683.29	1092.00
683.63	1092.37
683.97	1094.04
684.31	1092.52
684.65	1094.39
684.99	1093.83
685.33	1094.11
685.67	1093.29
686.00	1094.01
686.34	1095.56
686.68	1098.60
687.02	1097.36
687.36	1095.23
687.70	1094.25
688.03	1092.49
688.37	1090.29
688.71	1090.17
689.05	1088.04
689.39	1086.69
689.72	1087.86
690.06	1087.48
690.40	1085.68
690.74	1087.67
691.08	1087.46
691.41	1086.94
691.75	1089.87
692.09	1094.20
692.43	1094.69
692.76	1093.85
693.10	1093.17
693.44	1091.02
693.78	1091.79
694.11	1091.86
694.45	1092.56
694.79	1092.30
695.13	1088.77
695.46	1085.38
695.80	1087.04
696.14	1093.10
696.48	1094.27
696.81	1094.04
697.15	1095.51
697.49	1093.94
697.82	1088.86
698.16	1088.28
698.50	1093.29
698.83	1091.79
699.17	1091.42
699.51	1093.15
699.84	1093.55
700.18	1090.90
700.52	1093.47
700.85	1094.76
701.19	1091.98
701.53	1092.89
701.86	1091.56
702.20	1088.63
702.54	1088.09
702.87	1087.67
703.21	1085.70
703.55	1086.03
703.88	1082.97
704.22	1082.78
704.55	1085.03
704.89	1086.15
705.23	1087.02
705.56	1090.36
705.90	1088.65
706.23	1087.76
706.57	1088.49
706.91	1089.64
707.24	1087.74
707.58	1089.22
707.91	1090.13
708.25	1090.50
708.58	1088.47
708.92	1087.65
709.26	1087.95
709.59	1086.17
709.93	1085.49
710.26	1086.36
710.60	1091.98
710.93	1094.22
711.27	1096.28
711.60	1096.33
711.94	1098.16
712.27	1095.04
712.61	1092.07
712.94	1093.55
713.28	1093.31
713.61	1091.04
713.95	1091.06
714.28	1094.86
714.62	1091.56
714.95	1093.29
715.29	1093.85
715.62	1093.73
715.96	1090.69
716.29	1091.84
716.63	1089.31
716.96	1091.67
717.29	1095.86
717.63	1094.67
717.96	1091.95
718.30	1095.96
718.63	1094.06
718.97	1087.39
719.30	1085.07
719.63	1087.81
719.97	1083.25
720.30	1084.09
720.64	1087.09
720.97	1090.32
721.30	1089.59
721.64	1090.13
721.97	1089.26
722.31	1087.69
722.64	1085.54
722.97	1086.06
723.31	1085.59
723.64	1087.39
723.97	1087.37
724.31	1088.70
724.64	1087.86
724.98	1089.14
725.31	1086.03
725.64	1086.15
725.98	1087.34
726.31	1087.93
726.64	1085.40
726.97	1086.15
727.31	1087.51
727.64	1086.06
727.97	1085.03
728.31	1089.22
728.64	1087.69
728.97	1088.30
729.31	1088.96
729.64	1088.61
729.97	1087.83
730.30	1088.54
730.64	1088.42
730.97	1086.20
731.30	1088.61
731.63	1088.49
731.97	1093.17
732.30	1089.38
732.63	1090.76
732.96	1087.37
733.30	1087.34
733.63	1083.74
733.96	1086.62
734.29	1088.84
734.63	1094.48
734.96	1092.23
735.29	1092.77
735.62	1092.47
735.95	1091.32
736.29	1089.82
736.62	1090.88
736.95	1090.92
737.28	1092.98
737.61	1092.70
737.94	1092.05
738.28	1090.46
738.61	1088.91
738.94	1086.94
739.27	1087.58
739.60	1085.68
739.93	1085.66
740.27	1084.46
740.60	1086.06
740.93	1086.94
741.26	1087.83
741.59	1091.06
741.92	1092.16
742.25	1088.51
742.58	1088.14
742.91	1087.20
743.25	1084.32
743.58	1083.79
743.91	1086.64
744.24	1087.62
744.57	1087.76
744.90	1090.32
745.23	1092.21
745.56	1089.99
745.89	1088.40
746.22	1088.26
746.55	1086.64
746.88	1088.19
747.21	1090.46
747.54	1088.82
747.87	1091.88
748.20	1090.67
748.53	1087.39
748.87	1085.42
749.20	1088.04
749.53	1085.26
749.86	1084.14
750.19	1082.33
750.52	1082.17
750.85	1081.61
751.18	1082.19
751.51	1084.65
751.84	1086.76
752.16	1085.47
752.49	1085.07
752.82	1084.02
753.15	1084.72
753.48	1085.00
753.81	1087.48
754.14	1088.89
754.47	1090.50
754.80	1091.20
755.13	1091.25
755.46	1089.43
755.79	1091.32
756.12	1095.18
756.45	1094.41
756.78	1093.17
757.11	1093.38
757.43	1086.80
757.76	1085.03
758.09	1083.57
758.42	1082.31
758.75	1083.08
759.08	1086.97
759.41	1083.20
759.74	1084.04
760.07	1086.90
760.39	1086.64
760.72	1085.24
761.05	1087.95
761.38	1087.95
761.71	1091.27
762.04	1091.53
762.36	1090.39
762.69	1087.60
763.02	1086.83
763.35	1083.76
