SpectraSuite Data File
++++++++++++++++++++++++++++++++++++
Date: Mon Aug 26 10:26:39 PDT 2019
User: corrico
Dark Spectrum Present: No
Reference Spectrum Present: No
Number of Sampled Component Spectra: 1
Spectrometers: USB2+H06089
Integration Time (usec): 10000 (USB2+H06089)
Spectra Averaged: 20 (USB2+H06089)
Boxcar Smoothing: 2 (USB2+H06089)
Correct for Electrical Dark: No (USB2+H06089)
Strobe/Lamp Enabled: No (USB2+H06089)
Correct for Detector Non-linearity: No (USB2+H06089)
Correct for Stray Light: No (USB2+H06089)
Number of Pixels in Processed Spectrum: 2048
>>>>>Begin Processed Spectral Data<<<<<
339.70	1034.17
340.07	1034.17
340.45	1002.01
340.82	979.65
341.19	957.19
341.57	932.89
341.94	922.52
342.31	916.34
342.69	912.01
343.06	907.07
343.43	906.30
343.81	904.50
344.18	902.35
344.55	908.03
344.93	913.67
345.30	920.86
345.67	929.08
346.04	939.05
346.42	946.42
346.79	955.66
347.16	961.47
347.54	972.80
347.91	980.36
348.28	988.43
348.65	996.81
349.03	1005.52
349.40	1014.25
349.77	1025.97
350.14	1032.55
350.52	1040.74
350.89	1048.16
351.26	1051.70
351.63	1056.21
352.01	1061.76
352.38	1066.14
352.75	1070.70
353.12	1072.83
353.50	1072.85
353.87	1077.28
354.24	1078.78
354.61	1081.35
354.98	1085.00
355.36	1089.64
355.73	1089.38
356.10	1093.03
356.47	1093.17
356.84	1094.18
357.22	1093.87
357.59	1093.43
357.96	1091.20
358.33	1088.77
358.70	1088.61
359.08	1085.45
359.45	1086.10
359.82	1086.17
360.19	1087.48
360.56	1083.71
360.94	1083.29
361.31	1082.57
361.68	1081.80
362.05	1081.94
362.42	1084.72
362.79	1085.94
363.16	1085.75
363.54	1085.26
363.91	1083.76
364.28	1082.54
364.65	1080.39
365.02	1080.13
365.39	1079.97
365.76	1081.09
366.14	1081.23
366.51	1082.36
366.88	1082.85
367.25	1078.28
367.62	1076.62
367.99	1075.29
368.36	1072.62
368.73	1068.45
369.10	1072.06
369.48	1071.08
369.85	1072.39
370.22	1074.66
370.59	1078.61
370.96	1078.82
371.33	1077.96
371.70	1078.36
372.07	1077.93
372.44	1077.70
372.81	1077.25
373.18	1077.82
373.55	1076.32
373.93	1078.78
374.30	1077.35
374.67	1078.31
375.04	1080.95
375.41	1080.39
375.78	1077.28
376.15	1080.16
376.52	1079.10
376.89	1081.21
377.26	1083.29
377.63	1083.34
378.00	1082.43
378.37	1081.40
378.74	1078.24
379.11	1078.33
379.48	1080.79
379.85	1081.77
380.22	1083.53
380.59	1082.73
380.96	1084.39
381.33	1083.11
381.70	1081.19
382.07	1080.46
382.44	1080.81
382.81	1078.43
383.18	1079.83
383.55	1080.48
383.92	1084.74
384.29	1084.63
384.66	1087.04
385.03	1089.10
385.40	1090.88
385.77	1087.23
386.14	1090.17
386.51	1092.59
386.88	1089.24
387.25	1087.81
387.62	1088.09
387.99	1086.34
388.36	1082.29
388.73	1082.19
389.10	1082.59
389.46	1085.35
389.83	1084.30
390.20	1087.13
390.57	1088.98
390.94	1089.14
391.31	1088.75
391.68	1089.36
392.05	1085.80
392.42	1085.14
392.79	1084.58
393.16	1084.89
393.53	1087.60
393.89	1091.86
394.26	1095.25
394.63	1095.82
395.00	1095.98
395.37	1093.99
395.74	1092.12
396.11	1089.57
396.48	1090.74
396.84	1089.78
397.21	1091.25
397.58	1093.22
397.95	1094.93
398.32	1095.70
398.69	1094.97
399.06	1095.04
399.42	1092.98
399.79	1089.38
400.16	1088.12
400.53	1090.62
400.90	1093.78
401.27	1092.89
401.64	1094.81
402.00	1096.87
402.37	1096.05
402.74	1091.58
403.11	1092.68
403.48	1093.66
403.84	1090.78
404.21	1090.20
404.58	1090.95
404.95	1090.97
405.32	1091.34
405.68	1090.39
406.05	1089.31
406.42	1089.66
406.79	1088.33
407.16	1085.26
407.52	1085.63
407.89	1089.22
408.26	1086.52
408.63	1091.04
408.99	1093.43
409.36	1094.29
409.73	1092.05
410.10	1094.29
410.47	1093.33
410.83	1091.60
411.20	1096.28
411.57	1098.09
411.94	1101.22
412.30	1103.77
412.67	1109.84
413.04	1108.13
413.40	1108.17
413.77	1109.72
414.14	1107.33
414.51	1103.07
414.87	1102.98
415.24	1100.36
415.61	1102.37
415.97	1105.44
416.34	1103.80
416.71	1101.67
417.08	1104.73
417.44	1103.47
417.81	1100.50
418.18	1105.13
418.54	1106.11
418.91	1107.05
419.28	1103.59
419.64	1104.24
420.01	1104.83
420.38	1108.78
420.74	1109.20
421.11	1113.02
421.48	1115.55
421.84	1113.67
422.21	1113.42
422.58	1112.74
422.94	1111.71
423.31	1109.62
423.68	1108.90
424.04	1107.82
424.41	1107.31
424.77	1105.81
425.14	1107.47
425.51	1110.05
425.87	1108.78
426.24	1111.40
426.61	1111.61
426.97	1111.92
427.34	1109.48
427.70	1113.28
428.07	1108.76
428.44	1113.42
428.80	1112.06
429.17	1112.83
429.53	1111.57
429.90	1115.69
430.27	1113.21
430.63	1114.47
431.00	1115.41
431.36	1114.31
431.73	1111.80
432.09	1110.19
432.46	1108.20
432.83	1112.92
433.19	1114.70
433.56	1115.90
433.92	1116.90
434.29	1118.26
434.65	1114.54
435.02	1111.29
435.38	1110.89
435.75	1110.65
436.11	1113.23
436.48	1117.30
436.84	1119.67
437.21	1119.36
437.57	1119.24
437.94	1116.81
438.30	1110.63
438.67	1108.34
439.03	1107.87
439.40	1106.61
439.76	1106.02
440.13	1107.96
440.49	1111.19
440.86	1109.81
441.22	1111.33
441.59	1108.76
441.95	1108.50
442.32	1105.65
442.68	1106.68
443.05	1108.38
443.41	1112.57
443.78	1114.63
444.14	1113.21
444.51	1113.37
444.87	1112.36
445.24	1109.16
445.60	1108.10
445.96	1110.16
446.33	1111.24
446.69	1112.27
447.06	1113.37
447.42	1112.90
447.79	1113.09
448.15	1112.88
448.51	1110.23
448.88	1110.82
449.24	1106.11
449.61	1103.47
449.97	1103.80
450.33	1103.38
450.70	1102.46
451.06	1104.59
451.43	1106.04
451.79	1107.10
452.15	1108.81
452.52	1110.40
452.88	1115.92
453.24	1114.96
453.61	1115.20
453.97	1113.42
454.34	1109.79
454.70	1106.75
455.06	1107.78
455.43	1104.52
455.79	1106.70
456.15	1109.25
456.52	1112.43
456.88	1112.27
457.24	1111.92
457.61	1110.87
457.97	1109.65
458.33	1106.61
458.70	1104.73
459.06	1105.95
459.42	1103.19
459.79	1102.51
460.15	1103.40
460.51	1107.61
460.88	1108.48
461.24	1112.27
461.60	1112.57
461.96	1113.98
462.33	1114.05
462.69	1114.19
463.05	1115.27
463.42	1117.77
463.78	1117.11
464.14	1116.90
464.50	1120.32
464.87	1120.39
465.23	1120.06
465.59	1121.26
465.95	1121.65
466.32	1120.72
466.68	1121.80
467.04	1122.12
467.40	1122.36
467.77	1123.81
468.13	1125.66
468.49	1127.18
468.85	1130.24
469.22	1134.46
469.58	1135.65
469.94	1135.46
470.30	1136.66
470.66	1135.98
471.03	1133.52
471.39	1136.77
471.75	1140.73
472.11	1143.12
472.47	1146.89
472.84	1148.62
473.20	1149.48
473.56	1151.89
473.92	1158.64
474.28	1165.38
474.65	1169.71
475.01	1175.30
475.37	1175.98
475.73	1176.91
476.09	1177.71
476.45	1182.23
476.81	1182.04
477.18	1188.90
477.54	1192.90
477.90	1197.63
478.26	1203.43
478.62	1214.27
478.98	1222.67
479.34	1229.67
479.71	1239.10
480.07	1250.55
480.43	1262.98
480.79	1272.55
481.15	1282.47
481.51	1290.45
481.87	1296.05
482.23	1300.50
482.59	1310.35
482.96	1323.74
483.32	1339.70
483.68	1357.77
484.04	1376.56
484.40	1395.15
484.76	1413.54
485.12	1430.30
485.48	1446.43
485.84	1466.49
486.20	1487.27
486.56	1509.67
486.92	1535.18
487.28	1562.21
487.64	1587.12
488.00	1614.60
488.37	1644.25
488.73	1675.54
489.09	1706.93
489.45	1744.00
489.81	1779.67
490.17	1813.96
490.53	1856.28
490.89	1896.96
491.25	1938.27
491.61	1981.71
491.97	2032.87
492.33	2080.69
492.69	2135.04
493.05	2192.12
493.41	2254.38
493.77	2313.03
494.13	2377.21
494.49	2444.78
494.85	2518.72
495.21	2588.73
495.57	2666.36
495.93	2749.08
496.29	2830.08
496.64	2921.81
497.00	3010.09
497.36	3109.85
497.72	3212.13
498.08	3326.30
498.44	3439.77
498.80	3571.12
499.16	3704.06
499.52	3842.41
499.88	3995.27
500.24	4141.81
500.60	4297.15
500.96	4460.57
501.32	4637.33
501.68	4807.37
502.03	5000.88
502.39	5205.35
502.75	5417.24
503.11	5636.99
503.47	5865.48
503.83	6098.45
504.19	6348.66
504.55	6615.52
504.91	6886.02
505.26	7171.17
505.62	7486.60
505.98	7810.23
506.34	8141.32
506.70	8508.64
507.06	8901.20
507.42	9297.75
507.78	9703.81
508.13	10110.37
508.49	10531.52
508.85	10975.94
509.21	11453.48
509.57	11976.17
509.93	12551.90
510.28	13142.69
510.64	13761.60
511.00	14375.31
511.36	14937.98
511.72	15520.16
512.07	16168.14
512.43	16783.84
512.79	17438.61
513.15	18187.58
513.51	18928.19
513.86	19653.69
514.22	20478.99
514.58	21286.96
514.94	22114.06
515.30	22974.79
515.65	23785.74
516.01	24637.13
516.37	25479.31
516.73	26260.41
517.08	27112.41
517.44	27971.27
517.80	28746.58
518.16	29577.21
518.51	30389.45
518.87	31134.88
519.23	31979.28
519.59	32864.96
519.94	33706.43
520.30	34589.21
520.66	35356.27
521.01	36166.36
521.37	36833.31
521.73	37437.34
522.09	38021.93
522.44	38652.59
522.80	39055.77
523.16	39396.18
523.51	39668.05
523.87	39957.44
524.23	40241.30
524.58	40508.28
524.94	40912.77
525.30	41255.55
525.65	41436.19
526.01	41476.10
526.37	41476.19
526.72	41396.84
527.08	41268.30
527.44	41100.04
527.79	40928.08
528.15	40816.51
528.51	40574.43
528.86	40359.43
529.22	40121.67
529.58	39880.04
529.93	39474.70
530.29	39028.71
530.65	38647.30
531.00	38292.19
531.36	37850.16
531.71	37416.55
532.07	36955.40
532.43	36368.79
532.78	35719.43
533.14	35145.79
533.49	34560.33
533.85	33944.25
534.21	33335.52
534.56	32775.43
534.92	32165.28
535.27	31540.36
535.63	30940.36
535.98	30347.99
536.34	29718.65
536.69	29064.00
537.05	28471.77
537.41	27959.71
537.76	27453.41
538.12	26903.83
538.47	26440.47
538.83	25974.19
539.18	25500.35
539.54	25019.16
539.89	24543.91
540.25	24015.25
540.60	23533.81
540.96	23023.55
541.31	22537.28
541.67	22131.22
542.02	21744.49
542.38	21317.27
542.73	20874.51
543.09	20462.37
543.44	20105.93
543.80	19756.93
544.15	19362.57
544.51	19040.09
544.86	18746.75
545.22	18375.55
545.57	17995.70
545.93	17642.68
546.28	17330.73
546.64	17011.58
546.99	16671.50
547.35	16350.14
547.70	16059.84
548.05	15736.12
548.41	15410.32
548.76	15119.11
549.12	14836.19
549.47	14551.04
549.83	14293.07
550.18	13977.68
550.53	13650.80
550.89	13375.46
551.24	13103.16
551.60	12800.53
551.95	12557.98
552.30	12344.15
552.66	12103.21
553.01	11852.85
553.37	11588.83
553.72	11312.25
554.07	11044.85
554.43	10747.23
554.78	10467.23
555.13	10209.18
555.49	9986.06
555.84	9786.65
556.19	9607.92
556.55	9410.66
556.90	9219.98
557.26	9012.70
557.61	8789.04
557.96	8546.84
558.32	8352.88
558.67	8154.94
559.02	7939.78
559.37	7751.69
559.73	7609.15
560.08	7452.69
560.43	7296.03
560.79	7170.61
561.14	7024.79
561.49	6862.19
561.85	6700.16
562.20	6556.71
562.55	6419.04
562.90	6286.70
563.26	6165.02
563.61	6053.23
563.96	5943.77
564.32	5829.31
564.67	5704.94
565.02	5588.40
565.37	5464.71
565.73	5354.56
566.08	5252.40
566.43	5154.84
566.78	5043.74
567.14	4946.68
567.49	4838.64
567.84	4727.86
568.19	4618.93
568.54	4537.46
568.90	4449.36
569.25	4365.75
569.60	4298.58
569.95	4231.43
570.31	4146.87
570.66	4071.32
571.01	3990.61
571.36	3899.36
571.71	3821.67
572.06	3755.83
572.42	3692.12
572.77	3633.89
573.12	3578.56
573.47	3519.30
573.82	3455.68
574.18	3394.57
574.53	3334.73
574.88	3274.53
575.23	3222.89
575.58	3180.91
575.93	3128.48
576.28	3076.10
576.64	3025.54
576.99	2968.36
577.34	2900.51
577.69	2848.41
578.04	2796.66
578.39	2749.83
578.74	2711.74
579.09	2675.84
579.44	2637.01
579.80	2601.67
580.15	2560.66
580.50	2521.53
580.85	2485.93
581.20	2451.99
581.55	2418.41
581.90	2388.00
582.25	2358.91
582.60	2327.83
582.95	2292.09
583.30	2249.33
583.65	2217.21
584.00	2179.27
584.35	2146.81
584.71	2119.03
585.06	2095.93
585.41	2065.62
585.76	2040.48
586.11	2012.37
586.46	1987.75
586.81	1966.12
587.16	1944.68
587.51	1924.67
587.86	1907.07
588.21	1893.03
588.56	1872.43
588.91	1852.09
589.26	1832.38
589.61	1813.47
589.96	1788.80
590.31	1771.55
590.66	1758.82
591.01	1744.96
591.36	1731.79
591.71	1711.68
592.06	1694.50
592.41	1677.81
592.76	1661.22
593.10	1642.31
593.45	1630.67
593.80	1617.61
594.15	1598.16
594.50	1585.64
594.85	1575.51
595.20	1565.16
595.55	1555.94
595.90	1547.56
596.25	1536.12
596.60	1521.16
596.95	1508.15
597.30	1495.16
597.64	1535.09
597.99	1530.45
598.34	1525.42
598.69	1515.94
599.04	1506.35
599.39	1448.98
599.74	1437.11
600.09	1426.65
600.44	1419.93
600.78	1413.85
601.13	1407.46
601.48	1397.30
601.83	1390.02
602.18	1381.10
602.53	1376.28
602.88	1373.66
603.22	1366.57
603.57	1362.92
603.92	1355.08
604.27	1346.09
604.62	1336.66
604.97	1328.91
605.31	1320.79
605.66	1321.40
606.01	1315.22
606.36	1306.42
606.71	1302.23
607.05	1297.43
607.40	1289.56
607.75	1286.85
608.10	1285.42
608.44	1280.55
608.79	1275.80
609.14	1271.64
609.49	1265.55
609.84	1264.15
610.18	1266.02
610.53	1267.12
610.88	1265.20
611.23	1265.55
611.57	1259.04
611.92	1253.87
612.27	1247.74
612.62	1244.46
612.96	1238.49
613.31	1233.65
613.66	1227.73
614.00	1219.82
614.35	1213.94
614.70	1209.26
615.05	1206.85
615.39	1205.89
615.74	1201.58
616.09	1199.76
616.43	1199.36
616.78	1195.24
617.13	1191.99
617.47	1195.57
617.82	1192.43
618.17	1189.25
618.51	1190.28
618.86	1187.24
619.21	1181.06
619.55	1180.19
619.90	1177.92
620.25	1171.84
620.59	1167.20
620.94	1167.62
621.29	1165.07
621.63	1162.12
621.98	1163.32
622.32	1164.18
622.67	1160.86
623.02	1161.49
623.36	1161.19
623.71	1160.72
624.05	1158.78
624.40	1159.36
624.75	1153.21
625.09	1152.20
625.44	1149.95
625.78	1148.78
626.13	1145.08
626.48	1147.00
626.82	1143.87
627.17	1143.14
627.51	1140.87
627.86	1138.62
628.20	1138.65
628.55	1137.55
628.89	1136.73
629.24	1136.42
629.58	1138.04
629.93	1134.55
630.28	1133.85
630.62	1132.73
630.97	1130.85
631.31	1128.16
631.66	1127.04
632.00	1129.12
632.35	1124.39
632.69	1127.81
633.04	1126.57
633.38	1125.03
633.73	1125.40
634.07	1126.99
634.42	1121.30
634.76	1119.45
635.11	1123.22
635.45	1120.46
635.79	1120.84
636.14	1119.95
636.48	1122.47
636.83	1119.48
637.17	1118.12
637.52	1117.11
637.86	1118.03
638.21	1116.46
638.55	1116.88
638.89	1116.32
639.24	1113.63
639.58	1113.56
639.93	1113.44
640.27	1112.32
640.61	1110.72
640.96	1112.92
641.30	1112.13
641.65	1112.76
641.99	1112.55
642.33	1112.41
642.68	1113.16
643.02	1111.29
643.37	1110.54
643.71	1108.85
644.05	1106.54
644.40	1104.19
644.74	1102.58
645.08	1101.32
645.43	1100.33
645.77	1103.61
646.11	1104.03
646.46	1105.76
646.80	1105.72
647.14	1104.62
647.49	1104.52
647.83	1103.73
648.17	1104.29
648.52	1103.21
648.86	1102.30
649.20	1099.16
649.55	1096.31
649.89	1094.13
650.23	1093.50
650.57	1092.75
650.92	1093.26
651.26	1093.80
651.60	1093.22
651.95	1095.35
652.29	1094.43
652.63	1093.92
652.97	1096.14
653.32	1098.23
653.66	1098.06
654.00	1099.07
654.34	1098.48
654.69	1098.93
655.03	1100.75
655.37	1098.53
655.71	1099.23
656.05	1100.61
656.40	1098.41
656.74	1097.88
657.08	1100.15
657.42	1101.97
657.76	1101.06
658.11	1099.86
658.45	1094.69
658.79	1093.47
659.13	1090.48
659.47	1092.68
659.82	1093.05
660.16	1096.85
660.50	1093.78
660.84	1096.92
661.18	1093.73
661.52	1095.82
661.87	1094.81
662.21	1099.47
662.55	1096.73
662.89	1097.41
663.23	1095.91
663.57	1098.86
663.91	1095.72
664.25	1098.16
664.60	1095.44
664.94	1093.99
665.28	1091.44
665.62	1090.03
665.96	1089.75
666.30	1093.59
666.64	1095.11
666.98	1094.11
667.32	1096.56
667.66	1094.55
668.01	1094.13
668.35	1094.67
668.69	1095.44
669.03	1095.30
669.37	1096.80
669.71	1092.56
670.05	1091.84
670.39	1091.37
670.73	1091.53
671.07	1089.57
671.41	1092.59
671.75	1093.31
672.09	1095.51
672.43	1094.06
672.77	1095.93
673.11	1093.85
673.45	1092.89
673.79	1092.02
674.13	1091.79
674.47	1088.84
674.81	1093.83
675.15	1094.01
675.49	1091.86
675.83	1093.24
676.17	1096.03
676.51	1091.42
676.85	1093.36
677.19	1095.35
677.53	1093.59
677.87	1091.23
678.21	1092.87
678.55	1087.30
678.89	1084.37
679.23	1086.10
679.57	1085.26
679.90	1086.41
680.24	1088.37
680.58	1091.91
680.92	1090.20
681.26	1090.32
681.60	1090.62
681.94	1090.55
682.28	1086.97
682.62	1088.37
682.96	1088.77
683.29	1085.42
683.63	1087.83
683.97	1089.05
684.31	1088.47
684.65	1089.03
684.99	1089.33
685.33	1088.96
685.67	1092.19
686.00	1094.97
686.34	1097.69
686.68	1097.24
687.02	1096.42
687.36	1092.23
687.70	1090.83
688.03	1089.47
688.37	1091.23
688.71	1090.95
689.05	1091.37
689.39	1088.84
689.72	1088.91
690.06	1090.36
690.40	1092.05
690.74	1091.53
691.08	1091.58
691.41	1092.82
691.75	1093.45
692.09	1090.97
692.43	1093.26
692.76	1094.08
693.10	1092.21
693.44	1088.51
693.78	1087.60
694.11	1087.97
694.45	1085.52
694.79	1085.40
695.13	1086.01
695.46	1088.93
695.80	1088.04
696.14	1087.93
696.48	1084.84
696.81	1083.25
697.15	1081.87
697.49	1082.78
697.82	1087.88
698.16	1092.45
698.50	1094.65
698.83	1094.18
699.17	1093.55
699.51	1090.03
699.84	1088.79
700.18	1089.89
700.52	1093.73
700.85	1091.23
701.19	1089.82
701.53	1088.79
701.86	1088.12
702.20	1084.91
702.54	1087.39
702.87	1089.17
703.21	1089.36
703.55	1088.63
703.88	1087.13
704.22	1085.87
704.55	1087.37
704.89	1088.26
705.23	1088.49
705.56	1091.63
705.90	1093.85
706.23	1090.71
706.57	1088.51
706.91	1090.03
707.24	1087.04
707.58	1084.09
707.91	1088.75
708.25	1092.75
708.58	1092.33
708.92	1090.74
709.26	1093.31
709.59	1089.78
709.93	1089.12
710.26	1091.09
710.60	1092.80
710.93	1091.72
711.27	1094.72
711.60	1089.47
711.94	1087.48
712.27	1085.66
712.61	1085.05
712.94	1083.67
713.28	1086.13
713.61	1082.17
713.95	1084.02
714.28	1084.39
714.62	1086.38
714.95	1087.32
715.29	1093.15
715.62	1095.63
715.96	1097.71
716.29	1097.78
716.63	1097.29
716.96	1093.12
717.29	1093.97
717.63	1094.20
717.96	1090.88
718.30	1090.97
718.63	1093.52
718.97	1089.14
719.30	1086.20
719.63	1088.54
719.97	1090.41
720.30	1090.81
720.64	1091.13
720.97	1092.61
721.30	1093.50
721.64	1091.79
721.97	1089.22
722.31	1089.99
722.64	1091.02
722.97	1091.30
723.31	1094.04
723.64	1094.34
723.97	1092.63
724.31	1089.26
724.64	1087.48
724.98	1084.74
725.31	1085.45
725.64	1086.43
725.98	1085.80
726.31	1084.39
726.64	1086.20
726.97	1084.58
727.31	1085.87
727.64	1088.23
727.97	1088.33
728.31	1090.76
728.64	1094.65
728.97	1094.88
729.31	1092.54
729.64	1094.18
729.97	1089.80
730.30	1086.08
730.64	1086.17
730.97	1090.24
731.30	1089.05
731.63	1087.16
731.97	1088.79
732.30	1089.68
732.63	1088.19
732.96	1085.40
733.30	1089.40
733.63	1089.68
733.96	1090.08
734.29	1086.73
734.63	1089.12
734.96	1088.00
735.29	1088.44
735.62	1084.44
735.95	1085.99
736.29	1085.70
736.62	1085.10
736.95	1082.87
737.28	1084.28
737.61	1086.41
737.94	1086.94
738.28	1088.07
738.61	1087.58
738.94	1091.98
739.27	1090.95
739.60	1088.35
739.93	1087.53
740.27	1088.02
740.60	1084.09
740.93	1083.06
741.26	1084.16
741.59	1084.16
741.92	1082.94
742.25	1082.24
742.58	1085.21
742.91	1086.62
743.25	1085.73
743.58	1088.16
743.91	1088.63
744.24	1084.32
744.57	1084.44
744.90	1085.49
745.23	1087.27
745.56	1087.51
745.89	1092.00
746.22	1093.92
746.55	1094.86
746.88	1091.20
747.21	1092.21
747.54	1091.11
747.87	1089.92
748.20	1089.85
748.53	1091.56
748.87	1089.50
749.20	1085.99
749.53	1083.29
749.86	1081.82
750.19	1082.29
750.52	1083.20
750.85	1083.48
751.18	1083.06
751.51	1081.19
751.84	1082.31
752.16	1082.05
752.49	1082.45
752.82	1086.76
753.15	1088.21
753.48	1084.58
753.81	1088.65
754.14	1090.53
754.47	1091.46
754.80	1088.49
755.13	1089.78
755.46	1085.99
755.79	1086.06
756.12	1088.12
756.45	1091.77
756.78	1092.45
757.11	1090.48
757.43	1089.10
757.76	1082.57
758.09	1078.68
758.42	1078.73
758.75	1080.11
759.08	1082.01
759.41	1085.49
759.74	1089.99
760.07	1089.05
760.39	1087.23
760.72	1086.62
761.05	1087.16
761.38	1089.33
761.71	1092.61
762.04	1095.84
762.36	1095.37
762.69	1092.12
763.02	1090.74
763.35	1090.24
