SpectraSuite Data File
++++++++++++++++++++++++++++++++++++
Date: Mon Aug 26 10:26:25 PDT 2019
User: corrico
Dark Spectrum Present: No
Reference Spectrum Present: No
Number of Sampled Component Spectra: 1
Spectrometers: USB2+H06089
Integration Time (usec): 10000 (USB2+H06089)
Spectra Averaged: 20 (USB2+H06089)
Boxcar Smoothing: 2 (USB2+H06089)
Correct for Electrical Dark: No (USB2+H06089)
Strobe/Lamp Enabled: No (USB2+H06089)
Correct for Detector Non-linearity: No (USB2+H06089)
Correct for Stray Light: No (USB2+H06089)
Number of Pixels in Processed Spectrum: 2048
>>>>>Begin Processed Spectral Data<<<<<
339.70	1026.79
340.07	1026.79
340.45	994.40
340.82	974.20
341.19	952.36
341.57	929.38
341.94	920.77
342.31	911.83
342.69	909.09
343.06	905.97
343.43	903.31
343.81	903.33
344.18	907.22
344.55	906.14
344.93	908.64
345.30	914.21
345.67	921.21
346.04	927.32
346.42	940.43
346.79	950.80
347.16	958.99
347.54	967.79
347.91	980.61
348.28	986.49
348.65	996.44
349.03	1006.62
349.40	1010.36
349.77	1018.62
350.14	1028.13
350.52	1036.01
350.89	1042.92
351.26	1049.57
351.63	1051.65
352.01	1054.43
352.38	1053.83
352.75	1057.97
353.12	1059.79
353.50	1061.13
353.87	1064.03
354.24	1069.79
354.61	1069.98
354.98	1076.46
355.36	1080.44
355.73	1079.53
356.10	1081.49
356.47	1085.12
356.84	1083.13
357.22	1081.49
357.59	1082.15
357.96	1082.76
358.33	1080.04
358.70	1081.07
359.08	1084.39
359.45	1084.84
359.82	1080.51
360.19	1081.89
360.56	1083.57
360.94	1082.12
361.31	1082.59
361.68	1084.21
362.05	1080.48
362.42	1079.57
362.79	1077.86
363.16	1077.82
363.54	1076.93
363.91	1077.02
364.28	1074.89
364.65	1075.17
365.02	1075.36
365.39	1073.25
365.76	1074.40
366.14	1070.94
366.51	1069.88
366.88	1068.01
367.25	1068.20
367.62	1069.27
367.99	1072.67
368.36	1073.58
368.73	1075.69
369.10	1076.97
369.48	1077.11
369.85	1076.18
370.22	1074.84
370.59	1070.94
370.96	1071.38
371.33	1070.51
371.70	1069.06
372.07	1068.13
372.44	1069.91
372.81	1072.20
373.18	1070.47
373.55	1070.70
373.93	1069.67
374.30	1071.29
374.67	1069.16
375.04	1070.68
375.41	1073.84
375.78	1077.42
376.15	1078.38
376.52	1077.72
376.89	1077.44
377.26	1074.49
377.63	1077.04
378.00	1074.87
378.37	1073.67
378.74	1074.94
379.11	1076.15
379.48	1073.72
379.85	1069.91
380.22	1070.49
380.59	1070.72
380.96	1072.60
381.33	1073.67
381.70	1079.15
382.07	1079.13
382.44	1077.18
382.81	1076.37
383.18	1073.44
383.55	1071.29
383.92	1070.94
384.29	1069.86
384.66	1069.53
385.03	1071.22
385.40	1072.62
385.77	1074.21
386.14	1077.07
386.51	1076.30
386.88	1076.81
387.25	1075.94
387.62	1074.35
387.99	1071.19
388.36	1074.40
388.73	1075.03
389.10	1073.79
389.46	1076.08
389.83	1078.61
390.20	1077.44
390.57	1074.45
390.94	1073.32
391.31	1070.23
391.68	1067.31
392.05	1067.66
392.42	1067.40
392.79	1070.00
393.16	1074.28
393.53	1078.71
393.89	1075.41
394.26	1076.04
394.63	1074.56
395.00	1073.14
395.37	1073.11
395.74	1075.15
396.11	1078.26
396.48	1077.70
396.84	1079.22
397.21	1079.50
397.58	1080.98
397.95	1079.34
398.32	1080.63
398.69	1081.28
399.06	1078.07
399.42	1077.98
399.79	1075.45
400.16	1079.01
400.53	1076.53
400.90	1077.54
401.27	1079.85
401.64	1084.00
402.00	1084.09
402.37	1087.55
402.74	1087.18
403.11	1083.90
403.48	1081.70
403.84	1081.98
404.21	1079.53
404.58	1082.66
404.95	1082.31
405.32	1083.50
405.68	1081.58
406.05	1083.04
406.42	1081.54
406.79	1086.22
407.16	1086.52
407.52	1085.42
407.89	1084.96
408.26	1084.98
408.63	1081.09
408.99	1080.04
409.36	1082.57
409.73	1083.43
410.10	1086.76
410.47	1086.83
410.83	1090.17
411.20	1088.26
411.57	1086.45
411.94	1083.15
412.30	1085.42
412.67	1083.53
413.04	1083.55
413.40	1082.12
413.77	1082.57
414.14	1079.69
414.51	1078.59
414.87	1077.79
415.24	1078.12
415.61	1075.90
415.97	1076.25
416.34	1078.71
416.71	1080.16
417.08	1082.22
417.44	1084.42
417.81	1086.59
418.18	1085.89
418.54	1088.72
418.91	1086.38
419.28	1087.34
419.64	1084.18
420.01	1084.98
420.38	1081.70
420.74	1083.43
421.11	1080.98
421.48	1083.20
421.84	1084.23
422.21	1084.04
422.58	1086.06
422.94	1087.55
423.31	1087.20
423.68	1084.74
424.04	1085.54
424.41	1082.76
424.77	1082.15
425.14	1083.90
425.51	1085.77
425.87	1087.06
426.24	1090.15
426.61	1091.70
426.97	1094.36
427.34	1094.86
427.70	1096.05
428.07	1092.75
428.44	1093.33
428.80	1088.70
429.17	1087.16
429.53	1082.22
429.90	1082.54
430.27	1083.29
430.63	1085.21
431.00	1087.04
431.36	1089.73
431.73	1090.36
432.09	1089.92
432.46	1088.72
432.83	1087.88
433.19	1089.80
433.56	1088.98
433.92	1089.54
434.29	1089.54
434.65	1089.59
435.02	1086.66
435.38	1086.87
435.75	1083.22
436.11	1083.15
436.48	1083.15
436.84	1086.50
437.21	1089.61
437.57	1091.84
437.94	1090.22
438.30	1089.45
438.67	1085.68
439.03	1081.77
439.40	1084.86
439.76	1088.51
440.13	1087.13
440.49	1092.23
440.86	1095.46
441.22	1093.69
441.59	1090.69
441.95	1092.14
442.32	1090.88
442.68	1087.46
443.05	1085.54
443.41	1086.94
443.78	1088.40
444.14	1086.06
444.51	1086.80
444.87	1089.78
445.24	1090.32
445.60	1090.20
445.96	1090.81
446.33	1092.91
446.69	1092.49
447.06	1090.69
447.42	1088.75
447.79	1089.54
448.15	1088.96
448.51	1088.14
448.88	1089.26
449.24	1088.14
449.61	1088.40
449.97	1091.77
450.33	1090.99
450.70	1092.54
451.06	1094.46
451.43	1095.72
451.79	1094.79
452.15	1093.12
452.52	1092.19
452.88	1090.24
453.24	1085.40
453.61	1083.29
453.97	1083.93
454.34	1083.20
454.70	1085.45
455.06	1086.94
455.43	1087.06
455.79	1090.06
456.15	1089.80
456.52	1089.52
456.88	1089.38
457.24	1090.78
457.61	1092.40
457.97	1095.60
458.33	1093.15
458.70	1094.60
459.06	1093.57
459.42	1090.78
459.79	1090.92
460.15	1094.01
460.51	1095.49
460.88	1096.26
461.24	1096.38
461.60	1092.63
461.96	1092.40
462.33	1090.74
462.69	1092.42
463.05	1090.74
463.42	1092.54
463.78	1089.52
464.14	1089.19
464.50	1088.89
464.87	1090.64
465.23	1088.35
465.59	1095.21
465.95	1095.09
466.32	1092.23
466.68	1095.53
467.04	1098.25
467.40	1095.46
467.77	1097.24
468.13	1101.29
468.49	1098.48
468.85	1098.30
469.22	1096.05
469.58	1097.01
469.94	1096.56
470.30	1099.00
470.66	1099.07
471.03	1100.64
471.39	1102.32
471.75	1101.41
472.11	1099.07
472.47	1101.99
472.84	1102.39
473.20	1103.98
473.56	1105.62
473.92	1107.12
474.28	1105.79
474.65	1106.58
475.01	1108.57
475.37	1107.94
475.73	1110.14
476.09	1110.56
476.45	1112.74
476.81	1112.36
477.18	1117.37
477.54	1119.43
477.90	1123.50
478.26	1129.10
478.62	1130.50
478.98	1131.63
479.34	1133.45
479.71	1138.46
480.07	1141.36
480.43	1143.19
480.79	1149.37
481.15	1155.66
481.51	1157.14
481.87	1158.40
482.23	1165.28
482.59	1164.86
482.96	1164.44
483.32	1170.97
483.68	1174.74
484.04	1178.25
484.40	1185.50
484.76	1195.73
485.12	1198.47
485.48	1206.10
485.84	1212.07
486.20	1221.74
486.56	1226.32
486.92	1235.99
487.28	1245.59
487.64	1256.00
488.00	1262.60
488.37	1272.92
488.73	1284.06
489.09	1295.00
489.45	1306.28
489.81	1321.30
490.17	1336.28
490.53	1352.92
490.89	1367.43
491.25	1380.87
491.61	1391.99
491.97	1405.16
492.33	1420.78
492.69	1437.63
493.05	1457.43
493.41	1479.52
493.77	1502.02
494.13	1521.07
494.49	1541.87
494.85	1565.65
495.21	1591.70
495.57	1619.79
495.93	1647.67
496.29	1681.93
496.64	1718.28
497.00	1747.02
497.36	1781.08
497.72	1823.68
498.08	1858.48
498.44	1888.88
498.80	1929.56
499.16	1973.63
499.52	2013.94
499.88	2061.29
500.24	2117.86
500.60	2175.86
500.96	2230.23
501.32	2290.12
501.68	2350.01
502.03	2409.68
502.39	2472.68
502.75	2541.96
503.11	2614.54
503.47	2691.24
503.83	2779.25
504.19	2869.54
504.55	2960.10
504.91	3059.22
505.26	3157.36
505.62	3253.86
505.98	3354.67
506.34	3464.77
506.70	3577.95
507.06	3702.77
507.42	3835.06
507.78	3972.71
508.13	4118.13
508.49	4274.33
508.85	4434.80
509.21	4588.22
509.57	4748.99
509.93	4914.49
510.28	5074.54
510.64	5251.23
511.00	5454.97
511.36	5667.75
511.72	5886.49
512.07	6124.11
512.43	6348.84
512.79	6569.77
513.15	6788.72
513.51	7005.34
513.86	7225.73
514.22	7467.01
514.58	7705.11
514.94	7960.98
515.30	8222.00
515.65	8469.95
516.01	8753.16
516.37	9033.86
516.73	9305.24
517.08	9599.52
517.44	9875.91
517.80	10123.24
518.16	10376.16
518.51	10637.06
518.87	10886.46
519.23	11184.91
519.59	11470.15
519.94	11743.40
520.30	11993.84
520.66	12223.47
521.01	12433.53
521.37	12653.45
521.73	12866.21
522.09	13041.68
522.44	13222.06
522.80	13362.82
523.16	13484.79
523.51	13584.09
523.87	13728.83
524.23	13850.64
524.58	13934.64
524.94	14007.24
525.30	14072.07
525.65	14114.98
526.01	14126.44
526.37	14142.62
526.72	14146.34
527.08	14129.53
527.44	14071.82
527.79	14012.20
528.15	13966.98
528.51	13856.16
528.86	13755.42
529.22	13663.04
529.58	13535.04
529.93	13396.95
530.29	13295.32
530.65	13186.41
531.00	13069.27
531.36	12943.09
531.71	12799.87
532.07	12651.16
532.43	12493.66
532.78	12320.23
533.14	12168.96
533.49	12007.56
533.85	11805.62
534.21	11578.79
534.56	11357.12
534.92	11156.80
535.27	10971.07
535.63	10809.30
535.98	10633.36
536.34	10463.67
536.69	10274.95
537.05	10088.46
537.41	9904.49
537.76	9754.53
538.12	9591.70
538.47	9431.87
538.83	9271.42
539.18	9133.82
539.54	8983.09
539.89	8844.98
540.25	8681.87
540.60	8516.69
540.96	8331.77
541.31	8161.82
541.67	8004.07
542.02	7875.79
542.38	7748.83
542.73	7618.84
543.09	7513.31
543.44	7399.93
543.80	7265.96
544.15	7150.06
544.51	7051.78
544.86	6945.31
545.22	6822.59
545.57	6739.20
545.93	6633.69
546.28	6528.62
546.64	6406.00
546.99	6292.76
547.35	6174.52
547.70	6066.04
548.05	5972.23
548.41	5886.96
548.76	5808.39
549.12	5730.85
549.47	5635.05
549.83	5520.60
550.18	5411.08
550.53	5288.23
550.89	5168.61
551.24	5075.55
551.60	4992.88
551.95	4902.32
552.30	4825.67
552.66	4739.19
553.01	4648.26
553.37	4552.79
553.72	4470.91
554.07	4391.59
554.43	4322.52
554.78	4251.63
555.13	4185.11
555.49	4114.76
555.84	4054.84
556.19	3980.36
556.55	3911.74
556.90	3839.02
557.26	3772.94
557.61	3694.18
557.96	3627.13
558.32	3561.31
558.67	3500.32
559.02	3433.71
559.37	3375.17
559.73	3315.98
560.08	3259.87
560.43	3203.96
560.79	3156.63
561.14	3112.51
561.49	3068.16
561.85	3015.99
562.20	2967.99
562.55	2915.86
562.90	2863.13
563.26	2813.96
563.61	2764.06
563.96	2719.09
564.32	2679.82
564.67	2640.15
565.02	2595.16
565.37	2559.91
565.73	2525.13
566.08	2485.39
566.43	2449.02
566.78	2419.90
567.14	2389.43
567.49	2356.47
567.84	2332.67
568.19	2303.56
568.54	2269.95
568.90	2237.27
569.25	2210.89
569.60	2174.57
569.95	2149.43
570.31	2125.02
570.66	2103.79
571.01	2076.22
571.36	2055.18
571.71	2027.07
572.06	2004.46
572.42	1980.26
572.77	1953.97
573.12	1931.39
573.47	1912.78
573.82	1891.43
574.18	1873.44
574.53	1855.37
574.88	1838.42
575.23	1817.17
575.58	1798.40
575.93	1782.11
576.28	1768.65
576.64	1746.58
576.99	1731.62
577.34	1717.30
577.69	1695.55
578.04	1675.94
578.39	1661.78
578.74	1645.30
579.09	1628.76
579.44	1617.10
579.80	1600.34
580.15	1585.78
580.50	1576.28
580.85	1565.72
581.20	1551.35
581.55	1544.57
581.90	1532.89
582.25	1515.99
582.60	1502.51
582.95	1491.95
583.30	1478.21
583.65	1473.18
584.00	1462.98
584.35	1454.29
584.71	1443.64
585.06	1432.55
585.41	1421.15
585.76	1412.30
586.11	1399.55
586.46	1395.08
586.81	1391.03
587.16	1383.49
587.51	1376.75
587.86	1373.96
588.21	1362.99
588.56	1351.92
588.91	1341.27
589.26	1336.77
589.61	1332.30
589.96	1327.29
590.31	1321.14
590.66	1319.15
591.01	1313.56
591.36	1304.52
591.71	1300.87
592.06	1295.70
592.41	1286.78
592.76	1282.50
593.10	1277.25
593.45	1271.26
593.80	1266.02
594.15	1263.61
594.50	1257.55
594.85	1255.39
595.20	1250.31
595.55	1246.24
595.90	1244.21
596.25	1241.82
596.60	1236.72
596.95	1231.87
597.30	1228.78
597.64	1273.70
597.99	1271.07
598.34	1268.48
598.69	1267.47
599.04	1263.66
599.39	1209.59
599.74	1201.58
600.09	1199.08
600.44	1195.52
600.78	1192.62
601.13	1190.33
601.48	1195.03
601.83	1190.44
602.18	1193.04
602.53	1193.93
602.88	1195.71
603.22	1191.80
603.57	1189.44
603.92	1182.11
604.27	1178.48
604.62	1174.41
604.97	1166.52
605.31	1166.27
605.66	1164.60
606.01	1166.36
606.36	1163.25
606.71	1167.34
607.05	1163.50
607.40	1161.61
607.75	1157.02
608.10	1156.86
608.44	1152.74
608.79	1150.47
609.14	1148.29
609.49	1147.80
609.84	1145.95
610.18	1144.24
610.53	1142.04
610.88	1143.05
611.23	1144.08
611.57	1143.09
611.92	1144.71
612.27	1147.99
612.62	1146.16
612.96	1143.52
613.31	1143.00
613.66	1140.22
614.00	1137.29
614.35	1136.05
614.70	1135.89
615.05	1133.64
615.39	1132.56
615.74	1130.17
616.09	1127.18
616.43	1124.25
616.78	1121.65
617.13	1117.40
617.47	1118.38
617.82	1120.27
618.17	1119.90
618.51	1120.77
618.86	1120.72
619.21	1119.10
619.55	1117.82
619.90	1113.18
620.25	1109.09
620.59	1110.56
620.94	1111.08
621.29	1110.51
621.63	1113.98
621.98	1113.72
622.32	1112.55
622.67	1111.12
623.02	1110.47
623.36	1105.76
623.71	1106.98
624.05	1105.81
624.40	1104.94
624.75	1104.45
625.09	1105.55
625.44	1102.79
625.78	1100.96
626.13	1099.61
626.48	1097.52
626.82	1098.55
627.17	1100.36
627.51	1101.60
627.86	1102.74
628.20	1100.75
628.55	1100.82
628.89	1099.98
629.24	1101.29
629.58	1102.79
629.93	1105.15
630.28	1104.59
630.62	1103.02
630.97	1100.80
631.31	1097.36
631.66	1095.18
632.00	1093.03
632.35	1094.29
632.69	1093.57
633.04	1093.76
633.38	1092.05
633.73	1092.82
634.07	1093.71
634.42	1095.53
634.76	1097.64
635.11	1101.06
635.45	1101.34
635.79	1099.07
636.14	1098.44
636.48	1097.71
636.83	1095.82
637.17	1092.14
637.52	1091.44
637.86	1091.32
638.21	1088.77
638.55	1089.29
638.89	1091.63
639.24	1091.79
639.58	1088.51
639.93	1089.68
640.27	1090.55
640.61	1088.44
640.96	1090.20
641.30	1090.27
641.65	1088.56
641.99	1086.45
642.33	1089.71
642.68	1088.35
643.02	1088.47
643.37	1090.57
643.71	1092.54
644.05	1090.39
644.40	1086.73
644.74	1086.20
645.08	1087.76
645.43	1087.41
645.77	1089.66
646.11	1090.76
646.46	1094.13
646.80	1094.69
647.14	1094.97
647.49	1091.27
647.83	1091.25
648.17	1088.72
648.52	1086.27
648.86	1083.01
649.20	1086.43
649.55	1091.16
649.89	1090.76
650.23	1089.59
650.57	1091.74
650.92	1091.88
651.26	1089.47
651.60	1088.96
651.95	1087.23
652.29	1085.80
652.63	1084.67
652.97	1083.88
653.32	1084.42
653.66	1084.81
654.00	1086.24
654.34	1085.87
654.69	1084.07
655.03	1084.18
655.37	1084.96
655.71	1083.34
656.05	1082.76
656.40	1081.73
656.74	1079.83
657.08	1080.63
657.42	1081.30
657.76	1080.84
658.11	1082.85
658.45	1088.77
658.79	1090.10
659.13	1087.53
659.47	1089.66
659.82	1091.91
660.16	1086.69
660.50	1082.71
660.84	1083.50
661.18	1079.34
661.52	1079.24
661.87	1077.11
662.21	1078.64
662.55	1079.17
662.89	1078.80
663.23	1078.10
663.57	1078.78
663.91	1078.68
664.25	1078.40
664.60	1080.20
664.94	1077.18
665.28	1076.93
665.62	1076.79
665.96	1076.11
666.30	1076.72
666.64	1079.27
666.98	1081.87
667.32	1083.22
667.66	1086.03
668.01	1085.33
668.35	1085.66
668.69	1086.80
669.03	1086.90
669.37	1088.00
669.71	1086.41
670.05	1087.09
670.39	1085.10
670.73	1085.84
671.07	1083.20
671.41	1085.07
671.75	1083.13
672.09	1081.61
672.43	1081.02
672.77	1080.13
673.11	1080.67
673.45	1081.21
673.79	1084.14
674.13	1083.36
674.47	1087.25
674.81	1085.26
675.15	1085.00
675.49	1082.64
675.83	1082.78
676.17	1082.12
676.51	1085.61
676.85	1085.03
677.19	1087.30
677.53	1087.30
677.87	1084.67
678.21	1083.34
678.55	1085.91
678.89	1083.50
679.23	1082.57
679.57	1080.84
679.90	1081.12
680.24	1080.60
680.58	1083.13
680.92	1083.83
681.26	1085.61
681.60	1083.41
681.94	1083.67
682.28	1083.76
682.62	1082.36
682.96	1088.70
683.29	1090.39
683.63	1090.64
683.97	1091.63
684.31	1093.73
684.65	1090.29
684.99	1091.39
685.33	1093.78
685.67	1090.62
686.00	1086.41
686.34	1086.62
686.68	1085.17
687.02	1082.47
687.36	1082.03
687.70	1084.58
688.03	1084.21
688.37	1084.23
688.71	1082.40
689.05	1083.71
689.39	1083.90
689.72	1082.24
690.06	1080.95
690.40	1083.41
690.74	1083.90
691.08	1082.57
691.41	1084.77
691.75	1087.20
692.09	1085.89
692.43	1086.29
692.76	1088.30
693.10	1085.82
693.44	1084.51
693.78	1088.26
694.11	1087.83
694.45	1087.27
694.79	1087.25
695.13	1085.40
695.46	1082.26
695.80	1079.24
696.14	1079.69
696.48	1081.61
696.81	1082.54
697.15	1081.02
697.49	1086.99
697.82	1087.04
698.16	1085.91
698.50	1088.19
698.83	1088.12
699.17	1084.70
699.51	1084.49
699.84	1084.32
700.18	1087.79
700.52	1087.04
700.85	1090.46
701.19	1087.46
701.53	1085.05
701.86	1079.81
702.20	1078.75
702.54	1077.44
702.87	1080.53
703.21	1081.84
703.55	1082.19
703.88	1083.15
704.22	1079.53
704.55	1081.49
704.89	1084.46
705.23	1088.12
705.56	1089.24
705.90	1091.44
706.23	1089.17
706.57	1086.45
706.91	1084.63
707.24	1085.99
707.58	1084.74
707.91	1085.26
708.25	1084.35
708.58	1082.33
708.92	1080.20
709.26	1081.77
709.59	1079.41
709.93	1079.88
710.26	1081.96
710.60	1083.64
710.93	1085.45
711.27	1086.85
711.60	1085.68
711.94	1086.83
712.27	1085.77
712.61	1082.50
712.94	1083.41
713.28	1083.97
713.61	1081.56
713.95	1084.02
714.28	1086.48
714.62	1089.29
714.95	1089.50
715.29	1087.23
715.62	1086.22
715.96	1082.59
716.29	1080.30
716.63	1081.89
716.96	1084.21
717.29	1082.22
717.63	1084.42
717.96	1083.81
718.30	1085.26
718.63	1085.59
718.97	1085.77
719.30	1086.76
719.63	1085.42
719.97	1083.08
720.30	1083.25
720.64	1081.91
720.97	1081.12
721.30	1078.82
721.64	1078.31
721.97	1078.73
722.31	1079.74
722.64	1079.81
722.97	1084.70
723.31	1085.54
723.64	1086.08
723.97	1087.32
724.31	1086.20
724.64	1083.57
724.98	1081.89
725.31	1082.03
725.64	1082.10
725.98	1086.38
726.31	1085.54
726.64	1088.51
726.97	1087.90
727.31	1086.94
727.64	1084.21
727.97	1087.86
728.31	1085.68
728.64	1082.66
728.97	1083.22
729.31	1082.03
729.64	1081.96
729.97	1084.32
730.30	1086.22
730.64	1086.78
730.97	1087.86
731.30	1087.72
731.63	1085.45
731.97	1088.49
732.30	1089.66
732.63	1089.03
732.96	1086.97
733.30	1089.00
733.63	1085.61
733.96	1080.25
734.29	1079.24
734.63	1078.54
734.96	1077.54
735.29	1078.94
735.62	1081.00
735.95	1083.01
736.29	1083.71
736.62	1081.44
736.95	1079.38
737.28	1081.73
737.61	1080.44
737.94	1084.00
738.28	1084.74
738.61	1084.93
738.94	1084.30
739.27	1085.49
739.60	1083.76
739.93	1083.71
740.27	1085.31
740.60	1085.17
740.93	1087.44
741.26	1085.94
741.59	1088.58
741.92	1088.72
742.25	1089.61
742.58	1089.03
742.91	1088.16
743.25	1084.46
743.58	1084.14
743.91	1081.82
744.24	1078.57
744.57	1078.85
744.90	1080.25
745.23	1082.03
745.56	1083.69
745.89	1085.21
746.22	1083.64
746.55	1088.00
746.88	1085.31
747.21	1084.25
747.54	1082.54
747.87	1083.34
748.20	1079.20
748.53	1080.23
748.87	1081.09
749.20	1080.65
749.53	1079.99
749.86	1081.37
750.19	1082.76
750.52	1081.87
750.85	1082.24
751.18	1083.83
751.51	1082.80
751.84	1081.54
752.16	1082.59
752.49	1083.48
752.82	1084.51
753.15	1084.70
753.48	1085.96
753.81	1084.49
754.14	1084.56
754.47	1082.94
754.80	1082.76
755.13	1079.46
755.46	1080.63
755.79	1081.28
756.12	1083.76
756.45	1083.64
756.78	1085.05
757.11	1083.62
757.43	1083.95
757.76	1084.96
758.09	1087.20
758.42	1084.91
758.75	1085.75
759.08	1084.77
759.41	1079.90
759.74	1077.40
760.07	1077.30
760.39	1075.52
760.72	1075.48
761.05	1077.21
761.38	1078.47
761.71	1080.56
762.04	1081.58
762.36	1081.47
762.69	1083.90
763.02	1084.21
763.35	1084.14
763.68	1087.13
764.01	1086.08
764.33	1084.44
764.66	1084.23
764.99	1085.59
