SpectraSuite Data File
++++++++++++++++++++++++++++++++++++
Date: Mon Aug 26 10:26:38 PDT 2019
User: corrico
Dark Spectrum Present: No
Reference Spectrum Present: No
Number of Sampled Component Spectra: 1
Spectrometers: USB2+H06089
Integration Time (usec): 10000 (USB2+H06089)
Spectra Averaged: 20 (USB2+H06089)
Boxcar Smoothing: 2 (USB2+H06089)
Correct for Electrical Dark: No (USB2+H06089)
Strobe/Lamp Enabled: No (USB2+H06089)
Correct for Detector Non-linearity: No (USB2+H06089)
Correct for Stray Light: No (USB2+H06089)
Number of Pixels in Processed Spectrum: 2048
>>>>>Begin Processed Spectral Data<<<<<
339.70	1040.84
340.07	1040.84
340.45	1000.56
340.82	977.67
341.19	951.08
341.57	925.80
341.94	919.67
342.31	912.43
342.69	906.21
343.06	905.69
343.43	902.39
343.81	900.45
344.18	903.80
344.55	906.56
344.93	908.29
345.30	911.59
345.67	918.15
346.04	925.80
346.42	935.61
346.79	945.46
347.16	957.63
347.54	967.23
347.91	979.21
348.28	989.95
348.65	1001.35
349.03	1011.84
349.40	1019.40
349.77	1025.67
350.14	1031.08
350.52	1037.28
350.89	1042.64
351.26	1048.16
351.63	1052.61
352.01	1060.12
352.38	1063.26
352.75	1069.16
353.12	1071.40
353.50	1075.83
353.87	1077.75
354.24	1083.15
354.61	1084.21
354.98	1087.46
355.36	1089.78
355.73	1089.54
356.10	1093.15
356.47	1094.27
356.84	1092.59
357.22	1090.48
357.59	1090.17
357.96	1086.66
358.33	1083.71
358.70	1086.66
359.08	1088.07
359.45	1087.74
359.82	1085.91
360.19	1086.03
360.56	1084.23
360.94	1083.04
361.31	1085.54
361.68	1087.44
362.05	1086.50
362.42	1087.53
362.79	1087.86
363.16	1082.76
363.54	1080.51
363.91	1081.68
364.28	1083.32
364.65	1079.17
365.02	1084.09
365.39	1083.95
365.76	1080.98
366.14	1079.13
366.51	1081.54
366.88	1079.85
367.25	1079.24
367.62	1082.80
367.99	1079.81
368.36	1080.77
368.73	1077.40
369.10	1076.74
369.48	1074.52
369.85	1073.42
370.22	1074.35
370.59	1077.93
370.96	1077.75
371.33	1079.06
371.70	1080.25
372.07	1078.66
372.44	1075.76
372.81	1078.85
373.18	1076.08
373.55	1077.11
373.93	1074.07
374.30	1075.57
374.67	1073.72
375.04	1077.44
375.41	1081.05
375.78	1086.36
376.15	1084.67
376.52	1084.49
376.89	1082.83
377.26	1080.74
377.63	1077.18
378.00	1081.89
378.37	1082.97
378.74	1085.03
379.11	1084.02
379.48	1085.59
379.85	1081.51
380.22	1080.53
380.59	1079.62
380.96	1080.58
381.33	1080.23
381.70	1081.40
382.07	1083.11
382.44	1085.96
382.81	1081.82
383.18	1080.27
383.55	1084.23
383.92	1082.52
384.29	1078.33
384.66	1083.08
385.03	1085.63
385.40	1081.37
385.77	1083.90
386.14	1088.26
386.51	1088.12
386.88	1089.03
387.25	1091.37
387.62	1090.78
387.99	1089.43
388.36	1090.50
388.73	1087.30
389.10	1087.11
389.46	1084.07
389.83	1082.59
390.20	1082.71
390.57	1087.11
390.94	1085.91
391.31	1090.01
391.68	1087.88
392.05	1085.12
392.42	1080.91
392.79	1081.58
393.16	1081.02
393.53	1084.30
393.89	1087.11
394.26	1087.11
394.63	1089.43
395.00	1089.92
395.37	1087.09
395.74	1088.47
396.11	1091.86
396.48	1089.17
396.84	1085.63
397.21	1086.97
397.58	1084.77
397.95	1084.98
398.32	1081.66
398.69	1084.46
399.06	1085.28
399.42	1086.45
399.79	1088.12
400.16	1093.45
400.53	1093.24
400.90	1095.44
401.27	1094.29
401.64	1093.69
402.00	1095.21
402.37	1095.86
402.74	1092.19
403.11	1092.09
403.48	1092.00
403.84	1092.66
404.21	1093.47
404.58	1098.86
404.95	1101.95
405.32	1102.42
405.68	1099.21
406.05	1098.95
406.42	1097.15
406.79	1095.44
407.16	1095.65
407.52	1097.69
407.89	1097.62
408.26	1096.87
408.63	1097.73
408.99	1098.51
409.36	1097.41
409.73	1099.47
410.10	1100.61
410.47	1102.98
410.83	1102.16
411.20	1102.72
411.57	1099.51
411.94	1100.43
412.30	1099.00
412.67	1098.34
413.04	1096.70
413.40	1098.86
413.77	1098.27
414.14	1097.66
414.51	1098.44
414.87	1102.04
415.24	1104.85
415.61	1104.87
415.97	1106.86
416.34	1106.18
416.71	1107.03
417.08	1106.18
417.44	1106.93
417.81	1107.42
418.18	1113.67
418.54	1113.16
418.91	1111.75
419.28	1112.64
419.64	1111.87
420.01	1104.48
420.38	1103.16
420.74	1102.72
421.11	1101.50
421.48	1103.66
421.84	1109.16
422.21	1110.26
422.58	1108.34
422.94	1107.64
423.31	1106.35
423.68	1104.05
424.04	1105.32
424.41	1110.00
424.77	1114.35
425.14	1114.14
425.51	1115.38
425.87	1117.18
426.24	1119.41
426.61	1116.93
426.97	1118.54
427.34	1119.45
427.70	1115.20
428.07	1113.30
428.44	1113.39
428.80	1111.97
429.17	1110.54
429.53	1111.47
429.90	1110.49
430.27	1110.21
430.63	1110.96
431.00	1109.48
431.36	1114.31
431.73	1114.82
432.09	1115.64
432.46	1114.21
432.83	1115.22
433.19	1115.20
433.56	1113.70
433.92	1113.23
434.29	1117.44
434.65	1117.58
435.02	1114.70
435.38	1113.51
435.75	1117.09
436.11	1111.45
436.48	1113.56
436.84	1112.76
437.21	1115.64
437.57	1115.43
437.94	1120.18
438.30	1117.37
438.67	1117.02
439.03	1116.62
439.40	1114.00
439.76	1112.43
440.13	1112.29
440.49	1114.40
440.86	1114.89
441.22	1112.36
441.59	1111.73
441.95	1113.51
442.32	1111.36
442.68	1110.58
443.05	1113.74
443.41	1114.66
443.78	1112.25
444.14	1109.60
444.51	1110.47
444.87	1112.53
445.24	1113.14
445.60	1114.73
445.96	1116.95
446.33	1115.41
446.69	1112.95
447.06	1108.66
447.42	1109.39
447.79	1105.25
448.15	1104.55
448.51	1104.08
448.88	1108.64
449.24	1110.26
449.61	1114.17
449.97	1117.47
450.33	1115.38
450.70	1112.81
451.06	1110.33
451.43	1110.87
451.79	1107.14
452.15	1109.53
452.52	1109.20
452.88	1107.99
453.24	1108.03
453.61	1108.06
453.97	1107.45
454.34	1107.42
454.70	1107.71
455.06	1108.03
455.43	1106.89
455.79	1105.06
456.15	1106.07
456.52	1105.69
456.88	1104.24
457.24	1107.35
457.61	1109.02
457.97	1108.81
458.33	1111.85
458.70	1115.01
459.06	1114.17
459.42	1113.25
459.79	1115.71
460.15	1115.78
460.51	1116.58
460.88	1117.86
461.24	1121.37
461.60	1121.84
461.96	1120.72
462.33	1119.27
462.69	1120.65
463.05	1119.08
463.42	1118.26
463.78	1119.45
464.14	1122.19
464.50	1122.92
464.87	1124.60
465.23	1125.17
465.59	1125.03
465.95	1122.43
466.32	1121.70
466.68	1123.83
467.04	1124.16
467.40	1123.64
467.77	1124.32
468.13	1126.62
468.49	1125.45
468.85	1124.30
469.22	1129.26
469.58	1133.87
469.94	1133.85
470.30	1135.72
470.66	1141.27
471.03	1142.28
471.39	1141.08
471.75	1144.40
472.11	1145.53
472.47	1144.92
472.84	1146.61
473.20	1147.89
473.56	1151.87
473.92	1153.74
474.28	1156.13
474.65	1157.96
475.01	1165.10
475.37	1169.80
475.73	1175.23
476.09	1181.62
476.45	1186.44
476.81	1188.38
477.18	1190.49
477.54	1197.70
477.90	1200.65
478.26	1208.77
478.62	1217.17
478.98	1223.77
479.34	1234.38
479.71	1242.71
480.07	1251.09
480.43	1261.15
480.79	1270.72
481.15	1276.43
481.51	1288.42
481.87	1300.35
482.23	1312.22
482.59	1324.28
482.96	1339.35
483.32	1353.91
483.68	1368.58
484.04	1380.17
484.40	1398.66
484.76	1411.60
485.12	1428.94
485.48	1446.59
485.84	1469.04
486.20	1489.14
486.56	1516.32
486.92	1540.99
487.28	1563.22
487.64	1587.96
488.00	1615.88
488.37	1640.58
488.73	1671.35
489.09	1707.84
489.45	1744.31
489.81	1778.32
490.17	1819.56
490.53	1856.07
490.89	1891.60
491.25	1933.07
491.61	1979.65
491.97	2026.53
492.33	2081.04
492.69	2136.14
493.05	2195.66
493.41	2254.24
493.77	2312.87
494.13	2370.75
494.49	2442.96
494.85	2513.78
495.21	2588.23
495.57	2664.82
495.93	2751.21
496.29	2833.17
496.64	2923.77
497.00	3012.62
497.36	3112.82
497.72	3216.90
498.08	3322.95
498.44	3431.62
498.80	3563.82
499.16	3702.91
499.52	3838.92
499.88	3993.45
500.24	4154.17
500.60	4300.15
500.96	4459.70
501.32	4630.63
501.68	4792.69
502.03	4975.11
502.39	5190.28
502.75	5397.63
503.11	5632.38
503.47	5871.73
503.83	6111.16
504.19	6357.97
504.55	6628.44
504.91	6898.61
505.26	7180.76
505.62	7486.84
505.98	7808.80
506.34	8144.15
506.70	8508.06
507.06	8902.23
507.42	9300.75
507.78	9707.30
508.13	10122.68
508.49	10544.53
508.85	10998.74
509.21	11476.51
509.57	11990.92
509.93	12540.29
510.28	13137.54
510.64	13758.86
511.00	14380.30
511.36	14969.83
511.72	15562.55
512.07	16206.15
512.43	16808.23
512.79	17466.32
513.15	18191.02
513.51	18948.49
513.86	19665.06
514.22	20503.28
514.58	21310.30
514.94	22149.89
515.30	22992.23
515.65	23820.36
516.01	24654.34
516.37	25498.59
516.73	26287.07
517.08	27160.07
517.44	28007.51
517.80	28803.78
518.16	29668.86
518.51	30474.55
518.87	31203.91
519.23	32068.52
519.59	32945.10
519.94	33755.35
520.30	34649.24
520.66	35422.53
521.01	36201.28
521.37	36866.27
521.73	37489.30
522.09	38063.50
522.44	38734.77
522.80	39148.95
523.16	39502.60
523.51	39753.25
523.87	40056.44
524.23	40298.88
524.58	40556.71
524.94	40960.43
525.30	41329.58
525.65	41492.22
526.01	41523.33
526.37	41539.01
526.72	41453.32
527.08	41290.51
527.44	41129.20
527.79	40991.72
528.15	40870.62
528.51	40620.37
528.86	40405.51
529.22	40176.56
529.58	39891.25
529.93	39474.21
530.29	39044.33
530.65	38670.28
531.00	38310.66
531.36	37861.25
531.71	37437.38
532.07	36976.60
532.43	36388.07
532.78	35733.75
533.14	35180.85
533.49	34594.80
533.85	33967.94
534.21	33366.72
534.56	32784.54
534.92	32174.06
535.27	31564.21
535.63	30968.10
535.98	30327.51
536.34	29702.24
536.69	29054.22
537.05	28449.26
537.41	27906.42
537.76	27435.88
538.12	26899.05
538.47	26406.79
538.83	25947.74
539.18	25488.74
539.54	25010.57
539.89	24533.35
540.25	24022.98
540.60	23538.84
540.96	23030.12
541.31	22538.21
541.67	22140.39
542.02	21746.71
542.38	21317.88
542.73	20905.95
543.09	20515.45
543.44	20157.44
543.80	19824.41
544.15	19429.68
544.51	19084.33
544.86	18775.99
545.22	18402.70
545.57	18018.08
545.93	17663.16
546.28	17339.11
546.64	17007.78
546.99	16667.31
547.35	16339.77
547.70	16030.68
548.05	15712.62
548.41	15401.66
548.76	15105.54
549.12	14822.43
549.47	14549.19
549.83	14285.62
550.18	13961.97
550.53	13627.21
550.89	13364.95
551.24	13094.78
551.60	12795.87
551.95	12541.43
552.30	12323.18
552.66	12062.93
553.01	11816.05
553.37	11547.20
553.72	11276.98
554.07	11008.48
554.43	10719.09
554.78	10437.74
555.13	10187.65
555.49	9963.78
555.84	9764.53
556.19	9582.22
556.55	9384.71
556.90	9193.86
557.26	8993.88
557.61	8778.34
557.96	8547.50
558.32	8349.93
558.67	8152.46
559.02	7940.20
559.37	7758.27
559.73	7606.98
560.08	7450.37
560.43	7292.73
560.79	7163.09
561.14	7006.86
561.49	6840.26
561.85	6688.95
562.20	6540.00
562.55	6403.28
562.90	6272.43
563.26	6158.37
563.61	6046.40
563.96	5936.00
564.32	5815.88
564.67	5698.83
565.02	5574.22
565.37	5449.98
565.73	5343.84
566.08	5239.64
566.43	5138.13
566.78	5033.37
567.14	4927.20
567.49	4813.43
567.84	4713.42
568.19	4604.98
568.54	4519.55
568.90	4438.59
569.25	4367.60
569.60	4300.03
569.95	4231.24
570.31	4150.35
570.66	4072.42
571.01	3982.33
571.36	3884.70
571.71	3808.50
572.06	3738.12
572.42	3667.50
572.77	3609.83
573.12	3558.67
573.47	3499.36
573.82	3441.48
574.18	3380.55
574.53	3319.44
574.88	3259.15
575.23	3205.95
575.58	3152.98
575.93	3105.21
576.28	3059.48
576.64	3009.32
576.99	2951.20
577.34	2897.28
577.69	2847.57
578.04	2793.90
578.39	2745.50
578.74	2709.69
579.09	2671.96
579.44	2628.59
579.80	2592.63
580.15	2550.60
580.50	2506.69
580.85	2470.55
581.20	2439.80
581.55	2404.97
581.90	2376.16
582.25	2350.01
582.60	2315.26
582.95	2278.21
583.30	2241.93
583.65	2207.69
584.00	2172.16
584.35	2147.04
584.71	2121.34
585.06	2095.48
585.41	2065.22
585.76	2040.10
586.11	2007.45
586.46	1980.21
586.81	1958.79
587.16	1939.67
587.51	1918.79
587.86	1903.30
588.21	1882.91
588.56	1859.93
588.91	1841.07
589.26	1822.79
589.61	1802.61
589.96	1785.81
590.31	1769.09
590.66	1754.37
591.01	1739.37
591.36	1724.95
591.71	1708.57
592.06	1693.21
592.41	1675.85
592.76	1657.66
593.10	1641.35
593.45	1625.48
593.80	1607.99
594.15	1593.62
594.50	1582.11
594.85	1567.88
595.20	1555.96
595.55	1547.35
595.90	1533.66
596.25	1523.13
596.60	1515.24
596.95	1508.97
597.30	1501.29
597.64	1543.19
597.99	1534.97
598.34	1523.99
598.69	1514.82
599.04	1501.10
599.39	1441.96
599.74	1432.55
600.09	1422.20
600.44	1414.15
600.78	1411.81
601.13	1410.01
601.48	1403.03
601.83	1397.11
602.18	1390.61
602.53	1383.84
602.88	1369.26
603.22	1362.43
603.57	1352.81
603.92	1343.42
604.27	1334.88
604.62	1331.95
604.97	1322.47
605.31	1319.90
605.66	1314.19
606.01	1311.31
606.36	1306.70
606.71	1300.99
607.05	1298.65
607.40	1294.29
607.75	1286.87
608.10	1282.73
608.44	1278.70
608.79	1274.42
609.14	1272.10
609.49	1268.76
609.84	1267.24
610.18	1269.04
610.53	1264.69
610.88	1259.44
611.23	1255.39
611.57	1251.16
611.92	1244.70
612.27	1243.20
612.62	1239.24
612.96	1237.02
613.31	1228.15
613.66	1224.03
614.00	1217.48
614.35	1217.38
614.70	1213.71
615.05	1213.78
615.39	1210.69
615.74	1206.83
616.09	1200.74
616.43	1199.34
616.78	1196.36
617.13	1195.52
617.47	1196.83
617.82	1194.96
618.17	1190.51
618.51	1188.13
618.86	1187.35
619.21	1181.53
619.55	1181.53
619.90	1179.84
620.25	1176.49
620.59	1174.81
620.94	1174.01
621.29	1168.33
621.63	1167.97
621.98	1168.96
622.32	1163.93
622.67	1162.73
623.02	1161.37
623.36	1157.72
623.71	1151.33
624.05	1148.24
624.40	1145.97
624.75	1146.68
625.09	1145.81
625.44	1149.20
625.78	1149.41
626.13	1149.55
626.48	1147.94
626.82	1146.70
627.17	1144.12
627.51	1143.75
627.86	1142.04
628.20	1141.90
628.55	1140.80
628.89	1140.92
629.24	1136.28
629.58	1131.93
629.93	1129.24
630.28	1129.33
630.62	1131.25
630.97	1134.13
631.31	1136.05
631.66	1136.03
632.00	1134.48
632.35	1130.50
632.69	1127.48
633.04	1129.00
633.38	1128.82
633.73	1124.56
634.07	1122.61
634.42	1123.88
634.76	1123.39
635.11	1123.74
635.45	1126.10
635.79	1126.59
636.14	1126.85
636.48	1123.04
636.83	1117.84
637.17	1116.65
637.52	1114.61
637.86	1110.91
638.21	1108.64
638.55	1111.36
638.89	1111.85
639.24	1111.57
639.58	1110.00
639.93	1111.24
640.27	1108.92
640.61	1106.70
640.96	1107.10
641.30	1107.24
641.65	1106.61
641.99	1108.69
642.33	1109.06
642.68	1107.82
643.02	1108.92
643.37	1105.69
643.71	1102.77
644.05	1101.60
644.40	1100.17
644.74	1098.58
645.08	1102.32
645.43	1101.81
645.77	1102.63
646.11	1104.29
646.46	1104.12
646.80	1103.07
647.14	1104.38
647.49	1101.08
647.83	1100.00
648.17	1101.53
648.52	1100.61
648.86	1100.31
649.20	1104.73
649.55	1106.28
649.89	1103.68
650.23	1103.02
650.57	1103.89
650.92	1102.60
651.26	1098.46
651.60	1098.02
651.95	1095.82
652.29	1094.69
652.63	1095.91
652.97	1098.90
653.32	1100.66
653.66	1101.03
654.00	1099.72
654.34	1093.92
654.69	1092.94
655.03	1090.55
655.37	1093.78
655.71	1091.30
656.05	1096.47
656.40	1097.95
656.74	1098.58
657.08	1099.00
657.42	1102.60
657.76	1099.47
658.11	1094.86
658.45	1094.41
658.79	1091.51
659.13	1092.33
659.47	1094.60
659.82	1096.38
660.16	1094.95
660.50	1095.32
660.84	1095.75
661.18	1092.89
661.52	1094.18
661.87	1096.66
662.21	1096.19
662.55	1094.20
662.89	1094.25
663.23	1093.47
663.57	1093.55
663.91	1094.46
664.25	1093.80
664.60	1095.28
664.94	1093.24
665.28	1094.15
665.62	1092.89
665.96	1093.17
666.30	1094.97
666.64	1098.44
666.98	1097.38
667.32	1095.42
667.66	1095.56
668.01	1092.87
668.35	1088.70
668.69	1091.18
669.03	1093.47
669.37	1093.05
669.71	1093.31
670.05	1095.09
670.39	1092.66
670.73	1091.02
671.07	1090.83
671.41	1092.28
671.75	1092.47
672.09	1090.15
672.43	1090.01
672.77	1089.59
673.11	1088.28
673.45	1091.56
673.79	1093.69
674.13	1092.91
674.47	1093.59
674.81	1094.74
675.15	1091.04
675.49	1091.56
675.83	1096.07
676.17	1094.11
676.51	1093.92
676.85	1096.28
677.19	1093.57
677.53	1089.75
677.87	1090.74
678.21	1089.73
678.55	1088.23
678.89	1090.81
679.23	1091.74
679.57	1091.42
679.90	1090.99
680.24	1092.28
680.58	1090.67
680.92	1090.62
681.26	1092.23
681.60	1094.79
681.94	1093.22
682.28	1093.08
682.62	1096.14
682.96	1093.29
683.29	1088.82
683.63	1088.93
683.97	1089.52
684.31	1087.65
684.65	1090.22
684.99	1093.55
685.33	1092.59
685.67	1095.84
686.00	1095.14
686.34	1091.67
686.68	1090.20
687.02	1092.49
687.36	1088.54
687.70	1089.36
688.03	1092.94
688.37	1094.57
688.71	1092.75
689.05	1095.21
689.39	1095.09
689.72	1095.39
690.06	1091.56
690.40	1092.23
690.74	1088.37
691.08	1086.55
691.41	1086.62
691.75	1089.12
692.09	1088.30
692.43	1090.69
692.76	1090.01
693.10	1090.03
693.44	1093.71
693.78	1096.40
694.11	1096.38
694.45	1096.61
694.79	1094.41
695.13	1090.99
695.46	1088.07
695.80	1088.72
696.14	1090.78
696.48	1092.30
696.81	1089.66
697.15	1088.16
697.49	1084.65
697.82	1083.11
698.16	1081.66
698.50	1084.35
698.83	1086.10
699.17	1090.06
699.51	1087.30
699.84	1087.62
700.18	1084.09
700.52	1084.35
700.85	1079.95
701.19	1083.04
701.53	1085.61
701.86	1089.78
702.20	1088.68
702.54	1090.92
702.87	1090.36
703.21	1087.79
703.55	1087.04
703.88	1089.33
704.22	1089.68
704.55	1091.23
704.89	1089.68
705.23	1091.58
705.56	1090.64
705.90	1089.82
706.23	1088.75
706.57	1091.30
706.91	1086.29
707.24	1086.15
707.58	1085.45
707.91	1086.57
708.25	1089.07
708.58	1088.16
708.92	1089.87
709.26	1093.73
709.59	1092.82
709.93	1088.68
710.26	1092.96
710.60	1090.36
710.93	1088.12
711.27	1091.39
711.60	1090.62
711.94	1088.33
712.27	1089.40
712.61	1089.33
712.94	1087.48
713.28	1085.73
713.61	1087.23
713.95	1086.90
714.28	1083.11
714.62	1078.73
714.95	1083.06
715.29	1082.36
715.62	1083.41
715.96	1087.90
716.29	1092.33
716.63	1093.55
716.96	1091.32
717.29	1090.78
717.63	1091.44
717.96	1092.49
718.30	1091.42
718.63	1091.32
718.97	1088.96
719.30	1087.76
719.63	1084.49
719.97	1082.10
720.30	1086.76
720.64	1088.44
720.97	1087.18
721.30	1087.20
721.64	1086.71
721.97	1086.22
722.31	1086.62
722.64	1089.64
722.97	1093.76
723.31	1096.33
723.64	1093.40
723.97	1092.14
724.31	1092.42
724.64	1091.06
724.98	1089.38
725.31	1093.43
725.64	1094.04
725.98	1089.82
726.31	1087.88
726.64	1088.77
726.97	1084.70
727.31	1085.38
727.64	1085.73
727.97	1086.62
728.31	1088.54
728.64	1089.24
728.97	1087.51
729.31	1091.60
729.64	1092.56
729.97	1091.79
730.30	1091.84
730.64	1093.10
730.97	1092.14
731.30	1089.19
731.63	1087.11
731.97	1088.47
732.30	1090.74
732.63	1087.79
732.96	1088.33
733.30	1088.04
733.63	1085.80
733.96	1082.15
734.29	1082.87
734.63	1082.61
734.96	1083.39
735.29	1082.45
735.62	1083.22
735.95	1084.18
736.29	1083.39
736.62	1080.93
736.95	1081.75
737.28	1084.28
737.61	1085.19
737.94	1086.92
738.28	1088.56
738.61	1087.65
738.94	1084.98
739.27	1083.60
739.60	1083.86
739.93	1085.42
740.27	1086.73
740.60	1085.91
740.93	1084.86
741.26	1086.10
741.59	1085.12
741.92	1087.04
742.25	1089.10
742.58	1091.02
742.91	1092.14
743.25	1095.07
743.58	1092.80
743.91	1092.49
744.24	1092.56
744.57	1091.65
744.90	1087.34
745.23	1088.65
745.56	1089.50
745.89	1090.22
746.22	1089.19
746.55	1092.07
746.88	1091.42
747.21	1090.60
747.54	1088.51
747.87	1090.10
748.20	1086.94
748.53	1087.88
748.87	1089.40
749.20	1089.03
749.53	1087.97
749.86	1089.66
750.19	1090.10
750.52	1087.74
750.85	1087.72
751.18	1084.65
751.51	1083.83
751.84	1083.25
752.16	1082.31
752.49	1082.19
752.82	1084.93
753.15	1084.28
753.48	1083.25
753.81	1087.30
754.14	1089.66
754.47	1085.26
754.80	1092.09
755.13	1093.97
755.46	1090.83
755.79	1090.69
756.12	1094.72
756.45	1087.72
756.78	1088.91
757.11	1089.43
757.43	1084.98
757.76	1081.42
758.09	1082.19
758.42	1079.46
758.75	1077.28
759.08	1080.56
759.41	1081.70
759.74	1079.88
760.07	1078.85
760.39	1078.05
760.72	1078.38
761.05	1080.58
761.38	1081.73
761.71	1082.33
762.04	1086.80
762.36	1086.62
762.69	1085.10
763.02	1088.86
763.35	1091.13
