SpectraSuite Data File
++++++++++++++++++++++++++++++++++++
Date: Mon Aug 26 10:26:21 PDT 2019
User: corrico
Dark Spectrum Present: No
Reference Spectrum Present: No
Number of Sampled Component Spectra: 1
Spectrometers: USB2+H06089
Integration Time (usec): 10000 (USB2+H06089)
Spectra Averaged: 20 (USB2+H06089)
Boxcar Smoothing: 2 (USB2+H06089)
Correct for Electrical Dark: No (USB2+H06089)
Strobe/Lamp Enabled: No (USB2+H06089)
Correct for Detector Non-linearity: No (USB2+H06089)
Correct for Stray Light: No (USB2+H06089)
Number of Pixels in Processed Spectrum: 2048
>>>>>Begin Processed Spectral Data<<<<<
339.70	1039.90
340.07	1039.90
340.45	1006.17
340.82	984.29
341.19	956.81
341.57	930.53
341.94	918.59
342.31	908.60
342.69	902.49
343.06	902.74
343.43	899.26
343.81	903.31
344.18	905.30
344.55	908.41
344.93	913.28
345.30	921.35
345.67	924.63
346.04	932.02
346.42	942.16
346.79	948.46
347.16	957.56
347.54	969.24
347.91	982.18
348.28	990.14
348.65	1001.37
349.03	1012.14
349.40	1019.21
349.77	1025.25
350.14	1033.74
350.52	1040.39
350.89	1043.95
351.26	1047.95
351.63	1051.25
352.01	1057.43
352.38	1063.45
352.75	1067.59
353.12	1073.44
353.50	1076.01
353.87	1078.45
354.24	1082.22
354.61	1086.48
354.98	1086.73
355.36	1090.43
355.73	1091.11
356.10	1089.71
356.47	1092.21
356.84	1095.11
357.22	1094.76
357.59	1094.18
357.96	1092.59
358.33	1089.19
358.70	1088.26
359.08	1090.46
359.45	1088.30
359.82	1087.90
360.19	1087.88
360.56	1086.92
360.94	1085.73
361.31	1086.64
361.68	1086.57
362.05	1086.85
362.42	1087.06
362.79	1086.24
363.16	1086.50
363.54	1086.29
363.91	1082.71
364.28	1080.77
364.65	1077.02
365.02	1077.09
365.39	1079.60
365.76	1082.54
366.14	1085.82
366.51	1087.65
366.88	1082.71
367.25	1079.31
367.62	1078.24
367.99	1074.80
368.36	1072.71
368.73	1075.66
369.10	1074.91
369.48	1077.91
369.85	1074.96
370.22	1076.11
370.59	1078.38
370.96	1080.72
371.33	1077.25
371.70	1081.37
372.07	1081.40
372.44	1080.63
372.81	1078.99
373.18	1078.57
373.55	1075.03
373.93	1077.16
374.30	1076.32
374.67	1077.00
375.04	1077.61
375.41	1080.39
375.78	1080.86
376.15	1081.42
376.52	1081.54
376.89	1081.80
377.26	1083.90
377.63	1082.03
378.00	1083.48
378.37	1084.09
378.74	1083.15
379.11	1082.01
379.48	1081.26
379.85	1080.16
380.22	1081.16
380.59	1083.13
380.96	1082.80
381.33	1083.18
381.70	1081.26
382.07	1079.92
382.44	1080.46
382.81	1083.22
383.18	1086.78
383.55	1091.46
383.92	1094.69
384.29	1094.20
384.66	1091.23
385.03	1088.19
385.40	1088.21
385.77	1088.86
386.14	1088.49
386.51	1092.28
386.88	1094.83
387.25	1091.60
387.62	1088.70
387.99	1090.99
388.36	1085.96
388.73	1084.86
389.10	1084.00
389.46	1083.46
389.83	1081.14
390.20	1084.63
390.57	1086.10
390.94	1089.73
391.31	1092.35
391.68	1090.64
392.05	1087.13
392.42	1089.47
392.79	1083.95
393.16	1085.35
393.53	1089.54
393.89	1095.82
394.26	1092.91
394.63	1096.66
395.00	1093.87
395.37	1090.39
395.74	1084.81
396.11	1085.14
396.48	1085.59
396.84	1086.06
397.21	1086.64
397.58	1090.67
397.95	1091.39
398.32	1092.84
398.69	1093.90
399.06	1096.70
399.42	1096.49
399.79	1094.62
400.16	1093.92
400.53	1092.73
400.90	1093.29
401.27	1094.01
401.64	1095.51
402.00	1096.38
402.37	1096.96
402.74	1094.55
403.11	1095.89
403.48	1098.51
403.84	1097.57
404.21	1096.92
404.58	1098.13
404.95	1097.13
405.32	1094.57
405.68	1096.78
406.05	1097.59
406.42	1097.85
406.79	1096.47
407.16	1098.02
407.52	1095.42
407.89	1094.57
408.26	1093.85
408.63	1096.12
408.99	1096.42
409.36	1099.16
409.73	1102.63
410.10	1105.83
410.47	1102.56
410.83	1101.27
411.20	1099.68
411.57	1098.79
411.94	1098.25
412.30	1104.76
412.67	1107.42
413.04	1109.25
413.40	1110.61
413.77	1112.39
414.14	1108.22
414.51	1108.24
414.87	1107.92
415.24	1106.28
415.61	1101.62
415.97	1101.25
416.34	1102.16
416.71	1103.45
417.08	1103.63
417.44	1107.94
417.81	1108.10
418.18	1105.06
418.54	1103.21
418.91	1103.14
419.28	1099.70
419.64	1097.34
420.01	1096.78
420.38	1099.51
420.74	1100.82
421.11	1105.08
421.48	1108.43
421.84	1113.74
422.21	1112.85
422.58	1113.04
422.94	1113.14
423.31	1111.47
423.68	1110.96
424.04	1110.05
424.41	1110.61
424.77	1109.34
425.14	1112.25
425.51	1112.15
425.87	1113.07
426.24	1113.49
426.61	1114.75
426.97	1116.48
427.34	1116.79
427.70	1120.16
428.07	1120.98
428.44	1121.73
428.80	1122.83
429.17	1122.01
429.53	1120.91
429.90	1118.89
430.27	1118.57
430.63	1112.13
431.00	1112.67
431.36	1110.19
431.73	1112.64
432.09	1113.77
432.46	1120.58
432.83	1119.53
433.19	1122.31
433.56	1122.10
433.92	1122.73
434.29	1116.67
434.65	1116.76
435.02	1113.30
435.38	1113.21
435.75	1110.82
436.11	1114.73
436.48	1113.79
436.84	1117.93
437.21	1120.86
437.57	1124.65
437.94	1122.85
438.30	1124.49
438.67	1120.44
439.03	1116.06
439.40	1113.30
439.76	1115.03
440.13	1113.63
440.49	1112.15
440.86	1114.00
441.22	1114.89
441.59	1111.54
441.95	1110.02
442.32	1112.13
442.68	1111.45
443.05	1110.40
443.41	1110.37
443.78	1111.01
444.14	1111.01
444.51	1111.01
444.87	1109.34
445.24	1113.65
445.60	1115.12
445.96	1115.17
446.33	1115.59
446.69	1116.01
447.06	1115.01
447.42	1114.94
447.79	1118.00
448.15	1113.88
448.51	1114.05
448.88	1115.45
449.24	1113.23
449.61	1109.95
449.97	1110.91
450.33	1111.82
450.70	1109.62
451.06	1113.25
451.43	1111.54
451.79	1110.19
452.15	1109.32
452.52	1109.62
452.88	1106.79
453.24	1108.15
453.61	1112.15
453.97	1111.75
454.34	1112.90
454.70	1112.78
455.06	1113.93
455.43	1113.23
455.79	1116.01
456.15	1116.46
456.52	1121.51
456.88	1123.06
457.24	1123.83
457.61	1122.45
457.97	1123.32
458.33	1120.74
458.70	1119.76
459.06	1121.42
459.42	1119.85
459.79	1117.11
460.15	1118.21
460.51	1118.03
460.88	1114.61
461.24	1117.54
461.60	1115.83
461.96	1113.63
462.33	1117.89
462.69	1120.58
463.05	1120.79
463.42	1123.06
463.78	1126.20
464.14	1120.81
464.50	1121.47
464.87	1120.63
465.23	1121.61
465.59	1124.72
465.95	1128.09
466.32	1130.57
466.68	1130.67
467.04	1131.93
467.40	1130.10
467.77	1131.46
468.13	1133.78
468.49	1137.59
468.85	1138.34
469.22	1141.76
469.58	1143.47
469.94	1143.94
470.30	1143.75
470.66	1148.01
471.03	1151.80
471.39	1154.09
471.75	1157.56
472.11	1161.61
472.47	1164.37
472.84	1160.30
473.20	1164.67
473.56	1166.50
473.92	1170.15
474.28	1174.50
474.65	1180.45
475.01	1180.43
475.37	1183.05
475.73	1185.90
476.09	1189.69
476.45	1194.35
476.81	1204.14
477.18	1210.64
477.54	1223.54
477.90	1232.62
478.26	1241.28
478.62	1249.47
478.98	1257.76
479.34	1261.53
479.71	1268.01
480.07	1279.50
480.43	1288.09
480.79	1300.80
481.15	1310.91
481.51	1322.92
481.87	1333.47
482.23	1345.74
482.59	1358.82
482.96	1371.76
483.32	1386.91
483.68	1404.65
484.04	1421.52
484.40	1441.18
484.76	1465.74
485.12	1485.00
485.48	1507.91
485.84	1534.60
486.20	1556.62
486.56	1581.94
486.92	1612.70
487.28	1637.58
487.64	1663.49
488.00	1697.22
488.37	1734.27
488.73	1769.28
489.09	1808.53
489.45	1855.23
489.81	1900.94
490.17	1943.98
490.53	1990.67
490.89	2040.83
491.25	2090.00
491.61	2139.27
491.97	2190.98
492.33	2244.34
492.69	2301.17
493.05	2363.54
493.41	2433.55
493.77	2509.24
494.13	2596.50
494.49	2675.58
494.85	2755.07
495.21	2838.91
495.57	2931.78
495.93	3021.96
496.29	3124.03
496.64	3239.04
497.00	3354.06
497.36	3468.81
497.72	3589.40
498.08	3721.05
498.44	3857.79
498.80	3995.72
499.16	4147.36
499.52	4318.38
499.88	4496.92
500.24	4674.03
500.60	4868.31
500.96	5059.89
501.32	5235.80
501.68	5414.31
502.03	5615.46
502.39	5833.34
502.75	6068.19
503.11	6336.84
503.47	6622.85
503.83	6931.38
504.19	7232.47
504.55	7557.31
504.91	7878.99
505.26	8191.55
505.62	8545.48
505.98	8947.61
506.34	9336.96
506.70	9759.31
507.06	10244.62
507.42	10709.00
507.78	11143.83
508.13	11650.93
508.49	12158.61
508.85	12696.38
509.21	13241.93
509.57	13818.05
509.93	14405.30
510.28	15050.74
510.64	15723.04
511.00	16384.34
511.36	17103.49
511.72	17874.16
512.07	18684.99
512.43	19473.12
512.79	20384.92
513.15	21264.54
513.51	22023.41
513.86	22817.30
514.22	23714.66
514.58	24633.41
514.94	25507.74
515.30	26568.22
515.65	27649.99
516.01	28644.65
516.37	29539.64
516.73	30540.32
517.08	31409.19
517.44	32144.10
517.80	33002.63
518.16	33927.40
518.51	34875.55
518.87	35822.09
519.23	36886.68
519.59	37852.76
519.94	38851.11
520.30	39774.46
520.66	40621.33
521.01	41397.69
521.37	42172.15
521.73	42759.88
522.09	43323.36
522.44	44017.92
522.80	44573.82
523.16	44940.53
523.51	45293.37
523.87	45681.83
524.23	45947.01
524.58	46181.95
524.94	46599.53
525.30	46912.60
525.65	47024.15
526.01	47026.07
526.37	47208.30
526.72	47252.47
527.08	47233.44
527.44	47161.56
527.79	47118.61
528.15	46927.20
528.51	46654.79
528.86	46405.05
529.22	46117.26
529.58	45760.00
529.93	45323.40
530.29	44757.64
530.65	44296.74
531.00	43846.50
531.36	43230.14
531.71	42642.81
532.07	42250.63
532.43	41555.67
532.78	40816.04
533.14	40241.23
533.49	39605.59
533.85	38850.79
534.21	38281.78
534.56	37780.95
534.92	37148.07
535.27	36486.24
535.63	35715.97
535.98	34968.61
536.34	34190.45
536.69	33456.53
537.05	32764.15
537.41	32226.13
537.76	31610.39
538.12	30904.22
538.47	30349.87
538.83	29799.75
539.18	29183.04
539.54	28630.58
539.89	28196.22
540.25	27676.67
540.60	27168.03
540.96	26603.89
541.31	26100.55
541.67	25676.68
542.02	25211.99
542.38	24763.80
542.73	24325.47
543.09	23850.06
543.44	23343.96
543.80	22890.02
544.15	22405.83
544.51	22053.16
544.86	21654.10
545.22	21272.57
545.57	20901.17
545.93	20490.78
546.28	20075.85
546.64	19728.54
546.99	19347.36
547.35	18975.61
547.70	18642.69
548.05	18259.99
548.41	17827.51
548.76	17394.96
549.12	16979.65
549.47	16609.10
549.83	16263.28
550.18	15940.12
550.53	15605.29
550.89	15237.54
551.24	14857.00
551.60	14535.92
551.95	14259.11
552.30	13996.33
552.66	13791.93
553.01	13584.49
553.37	13335.60
553.72	13044.37
554.07	12761.54
554.43	12465.04
554.78	12149.63
555.13	11859.66
555.49	11553.68
555.84	11276.02
556.19	11001.88
556.55	10719.33
556.90	10435.37
557.26	10238.63
557.61	10048.50
557.96	9825.22
558.32	9638.26
558.67	9439.87
559.02	9207.88
559.37	8996.60
559.73	8818.27
560.08	8639.24
560.43	8441.38
560.79	8248.16
561.14	8037.68
561.49	7826.45
561.85	7618.40
562.20	7452.03
562.55	7311.65
562.90	7159.72
563.26	7029.14
563.61	6901.65
563.96	6749.61
564.32	6575.64
564.67	6433.50
565.02	6310.08
565.37	6189.97
565.73	6050.73
566.08	5928.60
566.43	5807.50
566.78	5661.85
567.14	5529.38
567.49	5426.72
567.84	5316.01
568.19	5206.08
568.54	5107.19
568.90	5009.66
569.25	4921.44
569.60	4830.70
569.95	4751.40
570.31	4672.60
570.66	4588.64
571.01	4491.72
571.36	4409.48
571.71	4312.95
572.06	4226.21
572.42	4138.42
572.77	4058.70
573.12	3976.03
573.47	3907.99
573.82	3843.74
574.18	3783.83
574.53	3718.41
574.88	3666.80
575.23	3595.65
575.58	3524.29
575.93	3463.62
576.28	3407.49
576.64	3344.39
576.99	3288.36
577.34	3227.32
577.69	3163.00
578.04	3099.10
578.39	3039.26
578.74	2981.77
579.09	2931.19
579.44	2878.48
579.80	2831.39
580.15	2788.87
580.50	2746.55
580.85	2704.79
581.20	2665.33
581.55	2622.57
581.90	2576.93
582.25	2534.59
582.60	2489.30
582.95	2451.10
583.30	2418.66
583.65	2387.65
584.00	2351.75
584.35	2324.83
584.71	2290.78
585.06	2264.30
585.41	2233.97
585.76	2209.44
586.11	2174.08
586.46	2143.58
586.81	2105.43
587.16	2073.48
587.51	2050.85
587.86	2029.06
588.21	2009.09
588.56	1993.29
588.91	1971.69
589.26	1947.04
589.61	1924.97
589.96	1903.79
590.31	1882.09
590.66	1865.03
591.01	1844.97
591.36	1826.25
591.71	1802.03
592.06	1780.28
592.41	1764.95
592.76	1744.78
593.10	1727.62
593.45	1717.37
593.80	1701.94
594.15	1684.16
594.50	1677.53
594.85	1665.10
595.20	1646.33
595.55	1634.61
595.90	1622.58
596.25	1606.73
596.60	1594.19
596.95	1586.27
597.30	1578.69
597.64	1620.47
597.99	1613.38
598.34	1603.55
598.69	1591.77
599.04	1580.21
599.39	1517.37
599.74	1505.03
600.09	1494.55
600.44	1480.76
600.78	1468.29
601.13	1459.46
601.48	1450.55
601.83	1439.83
602.18	1431.94
602.53	1422.27
602.88	1410.66
603.22	1397.91
603.57	1392.22
603.92	1387.68
604.27	1378.08
604.62	1372.51
604.97	1366.99
605.31	1363.27
605.66	1360.02
606.01	1356.06
606.36	1353.02
606.71	1350.00
607.05	1342.55
607.40	1333.12
607.75	1330.03
608.10	1324.74
608.44	1317.44
608.79	1312.78
609.14	1309.88
609.49	1302.39
609.84	1297.52
610.18	1291.88
610.53	1285.00
610.88	1279.85
611.23	1277.84
611.57	1272.60
611.92	1271.75
612.27	1269.23
612.62	1261.57
612.96	1253.73
613.31	1248.65
613.66	1241.33
614.00	1238.00
614.35	1235.62
614.70	1236.22
615.05	1235.57
615.39	1234.12
615.74	1229.62
616.09	1225.22
616.43	1218.62
616.78	1213.54
617.13	1209.33
617.47	1205.89
617.82	1203.13
618.17	1200.41
618.51	1195.38
618.86	1190.49
619.21	1189.53
619.55	1190.19
619.90	1188.50
620.25	1188.76
620.59	1189.93
620.94	1186.02
621.29	1184.17
621.63	1184.57
621.98	1184.73
622.32	1181.81
622.67	1179.72
623.02	1176.87
623.36	1173.10
623.71	1168.09
624.05	1166.20
624.40	1165.89
624.75	1164.44
625.09	1161.89
625.44	1162.36
625.78	1161.19
626.13	1160.81
626.48	1158.19
626.82	1157.30
627.17	1154.73
627.51	1149.69
627.86	1146.00
628.20	1145.39
628.55	1144.59
628.89	1145.04
629.24	1144.69
629.58	1144.85
629.93	1142.35
630.28	1141.43
630.62	1139.28
630.97	1137.69
631.31	1134.27
631.66	1133.19
632.00	1133.33
632.35	1131.84
632.69	1133.01
633.04	1131.34
633.38	1130.10
633.73	1127.67
634.07	1125.26
634.42	1122.54
634.76	1124.28
635.11	1127.81
635.45	1128.19
635.79	1127.72
636.14	1128.84
636.48	1125.00
636.83	1121.35
637.17	1120.37
637.52	1117.44
637.86	1114.59
638.21	1114.75
638.55	1116.58
638.89	1113.16
639.24	1113.72
639.58	1114.61
639.93	1115.34
640.27	1112.67
640.61	1115.03
640.96	1114.63
641.30	1113.70
641.65	1110.54
641.99	1109.79
642.33	1107.66
642.68	1109.58
643.02	1109.88
643.37	1112.11
643.71	1108.29
644.05	1108.03
644.40	1107.17
644.74	1105.44
645.08	1103.80
645.43	1109.84
645.77	1112.88
646.11	1110.47
646.46	1111.05
646.80	1111.66
647.14	1105.44
647.49	1101.85
647.83	1103.33
648.17	1099.79
648.52	1101.64
648.86	1102.98
649.20	1104.43
649.55	1102.32
649.89	1103.89
650.23	1102.63
650.57	1103.31
650.92	1101.03
651.26	1102.44
651.60	1104.36
651.95	1104.38
652.29	1107.35
652.63	1107.56
652.97	1105.79
653.32	1104.52
653.66	1102.35
654.00	1097.31
654.34	1097.52
654.69	1098.25
655.03	1101.71
655.37	1101.22
655.71	1101.25
656.05	1101.67
656.40	1097.76
656.74	1092.56
657.08	1090.81
657.42	1093.22
657.76	1092.66
658.11	1098.65
658.45	1099.21
658.79	1103.31
659.13	1101.18
659.47	1098.30
659.82	1096.96
660.16	1096.70
660.50	1096.78
660.84	1097.22
661.18	1096.63
661.52	1095.65
661.87	1096.10
662.21	1096.38
662.55	1096.12
662.89	1099.00
663.23	1096.42
663.57	1097.59
663.91	1097.06
664.25	1096.45
664.60	1096.73
664.94	1097.34
665.28	1097.55
665.62	1096.94
665.96	1097.57
666.30	1098.60
666.64	1100.08
666.98	1099.09
667.32	1098.98
667.66	1097.69
668.01	1094.32
668.35	1095.79
668.69	1092.84
669.03	1088.40
669.37	1090.01
669.71	1088.96
670.05	1087.39
670.39	1090.64
670.73	1093.97
671.07	1094.13
671.41	1094.65
671.75	1095.30
672.09	1092.61
672.43	1095.32
672.77	1094.43
673.11	1096.92
673.45	1096.92
673.79	1100.05
674.13	1098.67
674.47	1098.51
674.81	1098.93
675.15	1099.82
675.49	1101.06
675.83	1099.70
676.17	1099.09
676.51	1095.72
676.85	1095.00
677.19	1091.13
677.53	1091.06
677.87	1093.19
678.21	1094.22
678.55	1093.03
678.89	1093.69
679.23	1091.37
679.57	1088.19
679.90	1088.77
680.24	1089.94
680.58	1089.52
680.92	1094.18
681.26	1096.35
681.60	1095.44
681.94	1092.40
682.28	1096.03
682.62	1093.24
682.96	1093.38
683.29	1094.50
683.63	1094.08
683.97	1089.66
684.31	1088.77
684.65	1085.59
684.99	1085.05
685.33	1086.13
685.67	1088.51
686.00	1091.16
686.34	1096.07
686.68	1096.85
687.02	1097.73
687.36	1094.69
687.70	1094.08
688.03	1091.02
688.37	1090.83
688.71	1086.45
689.05	1087.37
689.39	1083.53
689.72	1081.58
690.06	1080.20
690.40	1084.37
690.74	1082.40
691.08	1083.79
691.41	1086.52
691.75	1089.19
692.09	1091.44
692.43	1093.17
692.76	1093.55
693.10	1096.10
693.44	1096.19
693.78	1090.27
694.11	1091.09
694.45	1092.49
694.79	1093.38
695.13	1090.99
695.46	1093.29
695.80	1093.38
696.14	1094.81
696.48	1090.48
696.81	1091.02
697.15	1094.08
697.49	1096.75
697.82	1095.25
698.16	1094.43
698.50	1093.05
698.83	1091.70
699.17	1089.05
699.51	1088.68
699.84	1089.75
700.18	1091.67
700.52	1090.48
700.85	1088.56
701.19	1089.92
701.53	1089.26
701.86	1087.88
702.20	1088.23
702.54	1090.99
702.87	1089.29
703.21	1091.67
703.55	1093.22
703.88	1094.20
704.22	1090.55
704.55	1088.79
704.89	1089.17
705.23	1087.79
705.56	1088.40
705.90	1093.47
706.23	1093.52
706.57	1092.21
706.91	1093.97
707.24	1092.87
707.58	1091.53
707.91	1092.94
708.25	1091.37
708.58	1091.81
708.92	1090.13
709.26	1092.09
709.59	1093.43
709.93	1094.69
710.26	1094.60
710.60	1093.29
710.93	1089.24
711.27	1087.97
711.60	1086.08
711.94	1087.60
712.27	1091.46
712.61	1094.60
712.94	1094.43
713.28	1095.75
713.61	1091.49
713.95	1091.91
714.28	1092.16
714.62	1094.36
714.95	1097.01
715.29	1099.77
715.62	1099.47
715.96	1098.32
716.29	1094.18
716.63	1093.08
716.96	1089.75
717.29	1091.37
717.63	1093.01
717.96	1092.91
718.30	1088.35
718.63	1089.64
718.97	1088.72
719.30	1087.67
719.63	1089.10
719.97	1092.59
720.30	1091.98
720.64	1091.37
720.97	1091.77
721.30	1092.82
721.64	1092.02
721.97	1091.42
722.31	1089.31
722.64	1089.26
722.97	1087.25
723.31	1088.12
723.64	1089.43
723.97	1089.94
724.31	1087.53
724.64	1087.53
724.98	1085.80
725.31	1083.64
725.64	1084.98
725.98	1085.17
726.31	1084.72
726.64	1084.02
726.97	1085.75
727.31	1084.51
727.64	1084.02
727.97	1086.83
728.31	1088.54
728.64	1087.79
728.97	1086.31
729.31	1088.77
729.64	1087.41
729.97	1087.62
730.30	1087.23
730.64	1088.19
730.97	1086.36
731.30	1086.36
731.63	1084.58
731.97	1085.82
732.30	1085.26
732.63	1084.98
732.96	1085.49
733.30	1088.02
733.63	1090.24
733.96	1091.27
734.29	1089.78
734.63	1091.91
734.96	1090.01
735.29	1089.80
735.62	1089.50
735.95	1090.46
736.29	1086.31
736.62	1086.10
736.95	1084.28
737.28	1085.31
737.61	1088.89
737.94	1089.59
738.28	1087.83
738.61	1087.97
738.94	1085.80
739.27	1083.27
739.60	1083.04
739.93	1085.59
740.27	1085.91
740.60	1085.84
740.93	1086.76
741.26	1089.10
741.59	1088.89
741.92	1086.97
742.25	1090.06
742.58	1087.76
742.91	1088.49
743.25	1089.78
743.58	1090.69
743.91	1091.11
744.24	1092.33
744.57	1090.03
744.90	1090.32
745.23	1088.51
745.56	1088.84
745.89	1089.52
746.22	1089.59
746.55	1085.80
746.88	1085.42
747.21	1082.36
747.54	1079.22
747.87	1078.05
748.20	1081.49
748.53	1085.12
748.87	1082.90
749.20	1085.77
749.53	1086.15
749.86	1083.90
750.19	1082.85
750.52	1085.00
750.85	1081.73
751.18	1079.31
751.51	1077.98
751.84	1079.31
752.16	1077.79
752.49	1078.10
752.82	1080.91
753.15	1082.36
753.48	1079.46
753.81	1082.57
754.14	1084.21
754.47	1086.45
754.80	1086.97
755.13	1091.84
755.46	1088.21
755.79	1089.38
756.12	1090.64
756.45	1093.55
756.78	1091.39
757.11	1091.44
757.43	1090.36
757.76	1088.33
758.09	1084.18
758.42	1082.61
758.75	1083.62
759.08	1083.57
759.41	1080.39
759.74	1082.33
760.07	1084.28
760.39	1085.40
760.72	1085.84
761.05	1088.35
761.38	1089.54
761.71	1088.07
762.04	1090.76
762.36	1092.56
762.69	1096.45
763.02	1094.74
763.35	1093.24
