SpectraSuite Data File
++++++++++++++++++++++++++++++++++++
Date: Mon Aug 26 10:26:22 PDT 2019
User: corrico
Dark Spectrum Present: No
Reference Spectrum Present: No
Number of Sampled Component Spectra: 1
Spectrometers: USB2+H06089
Integration Time (usec): 10000 (USB2+H06089)
Spectra Averaged: 20 (USB2+H06089)
Boxcar Smoothing: 2 (USB2+H06089)
Correct for Electrical Dark: No (USB2+H06089)
Strobe/Lamp Enabled: No (USB2+H06089)
Correct for Detector Non-linearity: No (USB2+H06089)
Correct for Stray Light: No (USB2+H06089)
Number of Pixels in Processed Spectrum: 2048
>>>>>Begin Processed Spectral Data<<<<<
339.70	1038.61
340.07	1038.61
340.45	1000.27
340.82	978.51
341.19	955.43
341.57	931.35
341.94	921.45
342.31	915.38
342.69	906.93
343.06	902.25
343.43	900.31
343.81	902.89
344.18	908.24
344.55	913.39
344.93	921.47
345.30	925.45
345.67	929.71
346.04	933.73
346.42	945.11
346.79	951.10
347.16	964.32
347.54	971.81
347.91	979.77
348.28	986.18
348.65	995.73
349.03	1001.75
349.40	1014.46
349.77	1025.01
350.14	1033.81
350.52	1041.61
350.89	1049.80
351.26	1056.75
351.63	1060.57
352.01	1066.04
352.38	1066.68
352.75	1068.01
353.12	1067.71
353.50	1071.15
353.87	1072.36
354.24	1077.91
354.61	1079.08
354.98	1083.04
355.36	1087.34
355.73	1089.17
356.10	1089.29
356.47	1090.92
356.84	1090.60
357.22	1087.53
357.59	1086.06
357.96	1085.84
358.33	1089.12
358.70	1089.47
359.08	1089.66
359.45	1089.71
359.82	1090.74
360.19	1087.18
360.56	1083.95
360.94	1082.78
361.31	1086.22
361.68	1083.90
362.05	1083.83
362.42	1082.50
362.79	1084.14
363.16	1080.34
363.54	1082.01
363.91	1083.01
364.28	1083.34
364.65	1082.29
365.02	1083.79
365.39	1082.54
365.76	1079.15
366.14	1078.43
366.51	1079.01
366.88	1076.06
367.25	1075.22
367.62	1075.50
367.99	1077.25
368.36	1077.37
368.73	1077.96
369.10	1081.14
369.48	1081.07
369.85	1082.47
370.22	1081.40
370.59	1081.82
370.96	1077.28
371.33	1078.75
371.70	1079.55
372.07	1078.99
372.44	1084.23
372.81	1087.90
373.18	1088.33
373.55	1087.34
373.93	1087.25
374.30	1080.70
374.67	1080.23
375.04	1078.38
375.41	1079.76
375.78	1082.36
376.15	1086.08
376.52	1083.74
376.89	1084.72
377.26	1083.60
377.63	1081.51
378.00	1078.40
378.37	1082.12
378.74	1086.08
379.11	1087.55
379.48	1088.93
379.85	1092.82
380.22	1088.09
380.59	1085.26
380.96	1084.89
381.33	1083.55
381.70	1082.38
382.07	1084.84
382.44	1086.57
382.81	1087.86
383.18	1088.63
383.55	1089.03
383.92	1087.11
384.29	1083.88
384.66	1083.97
385.03	1084.84
385.40	1088.35
385.77	1089.87
386.14	1091.13
386.51	1089.80
386.88	1089.96
387.25	1085.68
387.62	1087.25
387.99	1089.50
388.36	1089.38
388.73	1087.30
389.10	1087.79
389.46	1084.63
389.83	1083.60
390.20	1085.17
390.57	1085.03
390.94	1085.35
391.31	1091.53
391.68	1092.75
392.05	1091.04
392.42	1094.25
392.79	1092.35
393.16	1085.77
393.53	1084.18
393.89	1084.42
394.26	1084.44
394.63	1085.82
395.00	1092.77
395.37	1093.83
395.74	1095.49
396.11	1096.38
396.48	1097.48
396.84	1096.40
397.21	1095.89
397.58	1095.11
397.95	1096.63
398.32	1091.88
398.69	1089.43
399.06	1091.53
399.42	1091.77
399.79	1087.90
400.16	1090.95
400.53	1094.41
400.90	1093.19
401.27	1090.24
401.64	1092.19
402.00	1096.17
402.37	1093.52
402.74	1096.12
403.11	1096.54
403.48	1095.72
403.84	1093.92
404.21	1092.59
404.58	1090.22
404.95	1094.67
405.32	1097.50
405.68	1097.73
406.05	1101.99
406.42	1101.27
406.79	1099.96
407.16	1097.73
407.52	1099.42
407.89	1100.05
408.26	1102.79
408.63	1105.53
408.99	1107.47
409.36	1106.91
409.73	1105.86
410.10	1102.21
410.47	1101.06
410.83	1100.73
411.20	1100.38
411.57	1097.08
411.94	1098.16
412.30	1095.58
412.67	1095.35
413.04	1095.98
413.40	1100.61
413.77	1103.23
414.14	1103.87
414.51	1105.32
414.87	1106.51
415.24	1102.98
415.61	1103.38
415.97	1105.79
416.34	1104.43
416.71	1103.54
417.08	1104.69
417.44	1108.24
417.81	1105.67
418.18	1105.55
418.54	1106.54
418.91	1111.19
419.28	1107.68
419.64	1111.17
420.01	1114.47
420.38	1115.62
420.74	1112.53
421.11	1116.44
421.48	1118.12
421.84	1115.94
422.21	1111.50
422.58	1108.85
422.94	1109.32
423.31	1106.23
423.68	1108.29
424.04	1109.32
424.41	1113.67
424.77	1110.16
425.14	1112.15
425.51	1110.75
425.87	1113.11
426.24	1115.05
426.61	1116.01
426.97	1116.74
427.34	1116.01
427.70	1116.27
428.07	1113.79
428.44	1112.04
428.80	1111.71
429.17	1112.57
429.53	1112.50
429.90	1110.19
430.27	1107.99
430.63	1106.09
431.00	1107.35
431.36	1111.22
431.73	1113.16
432.09	1114.89
432.46	1116.95
432.83	1118.31
433.19	1116.65
433.56	1120.13
433.92	1122.12
434.29	1122.78
434.65	1121.09
435.02	1121.87
435.38	1119.69
435.75	1118.12
436.11	1115.38
436.48	1118.57
436.84	1118.89
437.21	1118.24
437.57	1119.88
437.94	1121.14
438.30	1116.25
438.67	1114.59
439.03	1114.12
439.40	1112.92
439.76	1113.07
440.13	1117.68
440.49	1117.65
440.86	1120.51
441.22	1120.74
441.59	1119.71
441.95	1115.41
442.32	1113.72
442.68	1113.70
443.05	1114.33
443.41	1113.46
443.78	1115.48
444.14	1117.30
444.51	1115.36
444.87	1111.75
445.24	1112.27
445.60	1113.88
445.96	1113.49
446.33	1114.80
446.69	1114.82
447.06	1115.87
447.42	1112.97
447.79	1111.71
448.15	1110.35
448.51	1115.52
448.88	1116.34
449.24	1118.35
449.61	1116.34
449.97	1114.75
450.33	1113.91
450.70	1112.34
451.06	1112.78
451.43	1117.16
451.79	1119.81
452.15	1121.07
452.52	1120.60
452.88	1118.66
453.24	1118.80
453.61	1119.95
453.97	1116.62
454.34	1116.76
454.70	1116.62
455.06	1114.40
455.43	1112.53
455.79	1111.89
456.15	1113.91
456.52	1114.77
456.88	1117.77
457.24	1116.81
457.61	1120.39
457.97	1121.47
458.33	1121.51
458.70	1118.42
459.06	1118.03
459.42	1115.99
459.79	1114.68
460.15	1114.66
460.51	1116.55
460.88	1121.09
461.24	1123.57
461.60	1121.21
461.96	1119.48
462.33	1118.00
462.69	1114.00
463.05	1111.43
463.42	1115.59
463.78	1118.96
464.14	1121.23
464.50	1123.32
464.87	1127.41
465.23	1130.46
465.59	1129.99
465.95	1131.67
466.32	1131.02
466.68	1129.85
467.04	1129.21
467.40	1130.85
467.77	1131.09
468.13	1133.97
468.49	1135.30
468.85	1136.77
469.22	1136.66
469.58	1137.80
469.94	1140.66
470.30	1145.72
470.66	1147.54
471.03	1150.28
471.39	1153.63
471.75	1152.39
472.11	1150.26
472.47	1149.91
472.84	1154.45
473.20	1155.76
473.56	1167.20
473.92	1173.76
474.28	1177.62
474.65	1178.37
475.01	1183.47
475.37	1183.94
475.73	1188.08
476.09	1195.08
476.45	1203.60
476.81	1209.47
477.18	1215.58
477.54	1223.21
477.90	1229.30
478.26	1237.02
478.62	1242.05
478.98	1246.41
479.34	1253.64
479.71	1262.16
480.07	1269.27
480.43	1282.52
480.79	1297.92
481.15	1312.17
481.51	1323.03
481.87	1339.93
482.23	1351.31
482.59	1363.20
482.96	1374.03
483.32	1392.55
483.68	1407.18
484.04	1425.92
484.40	1443.67
484.76	1465.39
485.12	1488.02
485.48	1510.32
485.84	1532.14
486.20	1556.48
486.56	1581.57
486.92	1607.04
487.28	1630.02
487.64	1658.97
488.00	1691.79
488.37	1722.59
488.73	1755.14
489.09	1794.23
489.45	1839.01
489.81	1879.59
490.17	1927.34
490.53	1975.93
490.89	2026.37
491.25	2075.28
491.61	2132.42
491.97	2188.45
492.33	2241.23
492.69	2295.64
493.05	2354.74
493.41	2418.71
493.77	2484.43
494.13	2563.85
494.49	2645.16
494.85	2728.32
495.21	2811.69
495.57	2905.59
495.93	3000.85
496.29	3096.86
496.64	3205.32
497.00	3313.73
497.36	3428.49
497.72	3549.54
498.08	3688.12
498.44	3825.09
498.80	3970.93
499.16	4126.08
499.52	4290.60
499.88	4458.95
500.24	4633.32
500.60	4816.54
500.96	5002.90
501.32	5181.78
501.68	5360.88
502.03	5561.89
502.39	5772.39
502.75	5996.87
503.11	6257.63
503.47	6540.25
503.83	6826.27
504.19	7129.32
504.55	7457.11
504.91	7774.14
505.26	8087.53
505.62	8452.35
505.98	8842.45
506.34	9216.61
506.70	9633.67
507.06	10098.19
507.42	10542.99
507.78	10983.67
508.13	11475.25
508.49	11979.73
508.85	12506.96
509.21	13053.99
509.57	13611.50
509.93	14181.52
510.28	14831.83
510.64	15496.94
511.00	16164.93
511.36	16877.98
511.72	17646.45
512.07	18428.16
512.43	19204.61
512.79	20075.87
513.15	20945.59
513.51	21725.86
513.86	22501.28
514.22	23387.12
514.58	24277.37
514.94	25121.02
515.30	26113.10
515.65	27150.78
516.01	28100.66
516.37	28992.99
516.73	29970.51
517.08	30832.58
517.44	31540.90
517.80	32378.64
518.16	33300.93
518.51	34218.44
518.87	35153.70
519.23	36230.25
519.59	37198.27
519.94	38150.33
520.30	39061.62
520.66	39858.83
521.01	40624.21
521.37	41378.78
521.73	41982.17
522.09	42530.53
522.44	43247.60
522.80	43799.12
523.16	44167.20
523.51	44486.73
523.87	44867.39
524.23	45149.94
524.58	45368.73
524.94	45788.02
525.30	46112.30
525.65	46223.08
526.01	46181.20
526.37	46339.40
526.72	46396.42
527.08	46329.45
527.44	46242.57
527.79	46164.00
528.15	45972.01
528.51	45652.92
528.86	45426.66
529.22	45158.11
529.58	44844.06
529.93	44409.89
530.29	43872.41
530.65	43425.93
531.00	42978.27
531.36	42368.45
531.71	41794.50
532.07	41376.27
532.43	40682.26
532.78	39974.48
533.14	39416.10
533.49	38792.25
533.85	38072.46
534.21	37518.74
534.56	36992.78
534.92	36363.66
535.27	35697.78
535.63	34915.90
535.98	34183.15
536.34	33447.03
536.69	32730.75
537.05	32075.82
537.41	31558.03
537.76	30946.59
538.12	30218.45
538.47	29670.90
538.83	29125.21
539.18	28543.16
539.54	28017.92
539.89	27607.60
540.25	27111.97
540.60	26605.15
540.96	26031.46
541.31	25524.34
541.67	25112.57
542.02	24645.35
542.38	24198.07
542.73	23755.69
543.09	23293.46
543.44	22786.24
543.80	22333.51
544.15	21867.48
544.51	21527.48
544.86	21131.39
545.22	20758.73
545.57	20392.85
545.93	19990.94
546.28	19597.05
546.64	19249.20
546.99	18875.18
547.35	18520.47
547.70	18195.09
548.05	17814.59
548.41	17419.98
548.76	16994.33
549.12	16583.98
549.47	16204.68
549.83	15870.59
550.18	15529.83
550.53	15197.24
550.89	14816.78
551.24	14460.25
551.60	14144.26
551.95	13871.14
552.30	13629.76
552.66	13442.38
553.01	13252.91
553.37	13013.59
553.72	12733.31
554.07	12454.20
554.43	12164.40
554.78	11859.47
555.13	11578.82
555.49	11295.40
555.84	11035.93
556.19	10771.33
556.55	10502.66
556.90	10227.88
557.26	10014.80
557.61	9818.90
557.96	9621.64
558.32	9410.40
558.67	9219.58
559.02	9005.94
559.37	8801.30
559.73	8623.42
560.08	8456.05
560.43	8254.16
560.79	8062.35
561.14	7853.34
561.49	7648.40
561.85	7444.92
562.20	7280.35
562.55	7152.05
562.90	7007.87
563.26	6869.50
563.61	6748.40
563.96	6609.98
564.32	6437.06
564.67	6302.15
565.02	6178.85
565.37	6060.49
565.73	5923.62
566.08	5804.46
566.43	5686.33
566.78	5549.46
567.14	5418.48
567.49	5315.80
567.84	5202.31
568.19	5087.97
568.54	4991.17
568.90	4898.27
569.25	4812.45
569.60	4737.17
569.95	4664.43
570.31	4587.75
570.66	4506.23
571.01	4407.58
571.36	4313.77
571.71	4224.18
572.06	4142.63
572.42	4061.06
572.77	3989.89
573.12	3920.96
573.47	3853.55
573.82	3779.24
574.18	3716.12
574.53	3649.13
574.88	3584.95
575.23	3514.99
575.58	3458.26
575.93	3398.22
576.28	3341.35
576.64	3286.21
576.99	3230.24
577.34	3169.41
577.69	3113.24
578.04	3057.42
578.39	3001.48
578.74	2952.40
579.09	2894.94
579.44	2835.54
579.80	2785.59
580.15	2736.13
580.50	2687.54
580.85	2651.52
581.20	2615.03
581.55	2574.10
581.90	2534.73
582.25	2499.69
582.60	2456.49
582.95	2416.88
583.30	2383.25
583.65	2353.39
584.00	2315.37
584.35	2282.30
584.71	2251.45
585.06	2224.94
585.41	2198.61
585.76	2169.09
586.11	2142.43
586.46	2113.78
586.81	2080.88
587.16	2050.36
587.51	2028.12
587.86	2010.47
588.21	1989.55
588.56	1967.74
588.91	1946.97
589.26	1927.45
589.61	1903.86
589.96	1884.20
590.31	1864.85
590.66	1843.43
591.01	1822.74
591.36	1804.62
591.71	1784.40
592.06	1765.70
592.41	1749.08
592.76	1734.15
593.10	1713.97
593.45	1700.17
593.80	1681.65
594.15	1667.05
594.50	1655.79
594.85	1647.85
595.20	1631.96
595.55	1627.19
595.90	1615.98
596.25	1604.34
596.60	1585.95
596.95	1575.60
597.30	1560.15
597.64	1596.22
597.99	1587.12
598.34	1578.32
598.69	1566.01
599.04	1557.46
599.39	1497.78
599.74	1480.76
600.09	1471.52
600.44	1468.36
600.78	1456.80
601.13	1450.57
601.48	1445.89
601.83	1439.78
602.18	1428.38
602.53	1424.05
602.88	1417.76
603.22	1409.52
603.57	1399.78
603.92	1390.61
604.27	1383.02
604.62	1374.67
604.97	1365.42
605.31	1361.42
605.66	1358.00
606.01	1350.51
606.36	1343.68
606.71	1337.36
607.05	1329.05
607.40	1321.07
607.75	1315.38
608.10	1310.56
608.44	1307.14
608.79	1302.81
609.14	1300.47
609.49	1295.25
609.84	1289.03
610.18	1284.09
610.53	1280.34
610.88	1272.08
611.23	1264.54
611.57	1262.86
611.92	1258.27
612.27	1254.13
612.62	1251.88
612.96	1252.19
613.31	1248.00
613.66	1244.49
614.00	1239.71
614.35	1236.39
614.70	1232.50
615.05	1226.28
615.39	1222.46
615.74	1222.49
616.09	1219.68
616.43	1213.38
616.78	1212.16
617.13	1207.90
617.47	1203.04
617.82	1200.51
618.17	1199.27
618.51	1197.42
618.86	1199.29
619.21	1198.24
619.55	1195.29
619.90	1193.39
620.25	1188.34
620.59	1183.75
620.94	1180.19
621.29	1178.23
621.63	1178.30
621.98	1178.02
622.32	1174.39
622.67	1171.46
623.02	1169.80
623.36	1165.42
623.71	1162.99
624.05	1163.74
624.40	1164.21
624.75	1158.94
625.09	1161.58
625.44	1159.13
625.78	1155.43
626.13	1151.54
626.48	1151.10
626.82	1144.52
627.17	1143.40
627.51	1142.60
627.86	1142.70
628.20	1143.84
628.55	1142.81
628.89	1141.53
629.24	1143.02
629.58	1141.55
629.93	1140.64
630.28	1139.89
630.62	1142.86
630.97	1139.56
631.31	1137.43
631.66	1138.04
632.00	1137.99
632.35	1135.70
632.69	1133.99
633.04	1135.00
633.38	1131.13
633.73	1129.78
634.07	1129.94
634.42	1130.67
634.76	1130.88
635.11	1129.64
635.45	1130.83
635.79	1126.87
636.14	1125.82
636.48	1121.30
636.83	1122.85
637.17	1119.83
637.52	1117.42
637.86	1116.44
638.21	1115.24
638.55	1112.64
638.89	1111.10
639.24	1112.04
639.58	1109.37
639.93	1112.32
640.27	1114.26
640.61	1118.64
640.96	1119.67
641.30	1118.12
641.65	1115.57
641.99	1114.94
642.33	1110.72
642.68	1111.24
643.02	1111.26
643.37	1109.74
643.71	1105.60
644.05	1106.35
644.40	1106.37
644.74	1106.70
645.08	1111.43
645.43	1114.12
645.77	1116.06
646.11	1113.58
646.46	1116.18
646.80	1112.64
647.14	1112.25
647.49	1108.20
647.83	1106.07
648.17	1106.35
648.52	1106.51
648.86	1103.26
649.20	1104.50
649.55	1103.77
649.89	1103.56
650.23	1105.69
650.57	1110.56
650.92	1108.78
651.26	1108.90
651.60	1107.14
651.95	1102.79
652.29	1099.28
652.63	1099.09
652.97	1101.88
653.32	1100.99
653.66	1101.57
654.00	1103.42
654.34	1106.25
654.69	1102.91
655.03	1103.49
655.37	1101.06
655.71	1101.53
656.05	1097.13
656.40	1102.79
656.74	1101.48
657.08	1102.81
657.42	1097.69
657.76	1098.69
658.11	1093.52
658.45	1094.29
658.79	1094.95
659.13	1098.79
659.47	1099.63
659.82	1101.36
660.16	1102.88
660.50	1103.91
660.84	1101.13
661.18	1101.71
661.52	1100.19
661.87	1099.19
662.21	1099.21
662.55	1099.30
662.89	1098.79
663.23	1097.48
663.57	1096.75
663.91	1097.55
664.25	1099.56
664.60	1098.90
664.94	1100.75
665.28	1102.35
665.62	1100.38
665.96	1098.04
666.30	1098.23
666.64	1096.40
666.98	1094.11
667.32	1093.57
667.66	1094.55
668.01	1094.32
668.35	1096.96
668.69	1097.95
669.03	1098.51
669.37	1098.18
669.71	1099.70
670.05	1097.22
670.39	1095.39
670.73	1095.49
671.07	1095.84
671.41	1093.80
671.75	1093.92
672.09	1096.00
672.43	1097.80
672.77	1095.98
673.11	1096.66
673.45	1098.18
673.79	1096.14
674.13	1092.73
674.47	1095.51
674.81	1096.56
675.15	1095.91
675.49	1095.42
675.83	1096.12
676.17	1094.41
676.51	1093.78
676.85	1096.19
677.19	1098.72
677.53	1098.93
677.87	1101.34
678.21	1100.29
678.55	1096.89
678.89	1093.36
679.23	1091.37
679.57	1087.58
679.90	1089.75
680.24	1089.14
680.58	1091.91
680.92	1093.80
681.26	1094.11
681.60	1090.13
681.94	1091.60
682.28	1088.07
682.62	1087.37
682.96	1088.82
683.29	1089.14
683.63	1087.95
683.97	1089.52
684.31	1089.47
684.65	1087.62
684.99	1089.10
685.33	1089.66
685.67	1091.53
686.00	1093.12
686.34	1094.43
686.68	1096.68
687.02	1097.92
687.36	1097.48
687.70	1096.24
688.03	1094.88
688.37	1090.95
688.71	1090.97
689.05	1089.66
689.39	1089.43
689.72	1091.25
690.06	1093.71
690.40	1091.93
690.74	1088.79
691.08	1091.81
691.41	1091.20
691.75	1089.26
692.09	1087.93
692.43	1089.92
692.76	1089.50
693.10	1089.89
693.44	1090.36
693.78	1094.08
694.11	1097.38
694.45	1092.73
694.79	1094.01
695.13	1093.83
695.46	1093.05
695.80	1090.74
696.14	1092.82
696.48	1091.13
696.81	1093.31
697.15	1090.90
697.49	1093.43
697.82	1094.93
698.16	1095.96
698.50	1093.12
698.83	1091.91
699.17	1091.81
699.51	1087.72
699.84	1087.16
700.18	1090.62
700.52	1093.62
700.85	1091.16
701.19	1093.31
701.53	1088.77
701.86	1086.01
702.20	1083.79
702.54	1084.53
702.87	1083.90
703.21	1085.75
703.55	1085.61
703.88	1085.99
704.22	1087.41
704.55	1091.20
704.89	1092.21
705.23	1092.00
705.56	1091.53
705.90	1093.17
706.23	1092.33
706.57	1093.92
706.91	1093.52
707.24	1095.51
707.58	1093.05
707.91	1090.01
708.25	1091.58
708.58	1091.70
708.92	1088.86
709.26	1088.91
709.59	1091.79
709.93	1090.03
710.26	1089.22
710.60	1091.39
710.93	1090.88
711.27	1089.22
711.60	1089.80
711.94	1092.16
712.27	1091.77
712.61	1091.77
712.94	1092.07
713.28	1090.78
713.61	1091.46
713.95	1092.98
714.28	1094.43
714.62	1092.68
714.95	1094.25
715.29	1093.80
715.62	1092.59
715.96	1093.50
716.29	1095.04
716.63	1094.60
716.96	1093.05
717.29	1094.93
717.63	1087.60
717.96	1086.50
718.30	1085.54
718.63	1086.38
718.97	1085.19
719.30	1089.47
719.63	1088.47
719.97	1087.02
720.30	1084.63
720.64	1088.47
720.97	1090.03
721.30	1094.81
721.64	1096.19
721.97	1096.68
722.31	1088.96
722.64	1088.35
722.97	1082.94
723.31	1084.39
723.64	1086.13
723.97	1087.83
724.31	1087.09
724.64	1087.37
724.98	1087.25
725.31	1088.54
725.64	1089.87
725.98	1089.45
726.31	1089.82
726.64	1089.80
726.97	1090.83
727.31	1092.61
727.64	1093.66
727.97	1093.85
728.31	1091.84
728.64	1089.59
728.97	1085.80
729.31	1089.47
729.64	1091.37
729.97	1092.73
730.30	1090.83
730.64	1091.84
730.97	1089.26
731.30	1091.60
731.63	1090.99
731.97	1093.24
732.30	1094.25
732.63	1094.81
732.96	1093.64
733.30	1093.36
733.63	1091.09
733.96	1094.15
734.29	1093.73
734.63	1090.76
734.96	1087.25
735.29	1087.74
735.62	1084.35
735.95	1086.31
736.29	1086.78
736.62	1093.47
736.95	1096.24
737.28	1098.53
737.61	1096.49
737.94	1097.50
738.28	1092.59
738.61	1086.83
738.94	1083.15
739.27	1080.44
739.60	1082.80
739.93	1084.60
740.27	1092.00
740.60	1093.55
740.93	1095.30
741.26	1096.31
741.59	1094.15
741.92	1090.97
742.25	1090.97
742.58	1088.37
742.91	1086.41
743.25	1089.92
743.58	1089.78
743.91	1089.10
744.24	1091.74
744.57	1088.89
744.90	1086.15
745.23	1085.45
745.56	1085.89
745.89	1088.54
746.22	1089.78
746.55	1090.83
746.88	1093.12
747.21	1095.23
747.54	1094.04
747.87	1094.32
748.20	1094.06
748.53	1092.07
748.87	1090.90
749.20	1088.68
749.53	1086.50
749.86	1088.23
750.19	1089.59
750.52	1088.93
750.85	1089.36
751.18	1092.84
751.51	1088.47
751.84	1087.34
752.16	1088.40
752.49	1086.06
752.82	1084.18
753.15	1086.15
753.48	1085.31
753.81	1081.33
754.14	1081.63
754.47	1079.60
754.80	1079.27
755.13	1077.09
755.46	1078.26
755.79	1080.18
756.12	1086.55
756.45	1089.75
756.78	1092.84
757.11	1095.07
757.43	1093.69
757.76	1089.57
758.09	1087.16
758.42	1087.30
758.75	1087.86
759.08	1090.88
759.41	1090.88
759.74	1094.18
760.07	1095.63
760.39	1094.48
760.72	1092.77
761.05	1094.01
761.38	1093.08
761.71	1094.67
762.04	1094.76
762.36	1093.31
762.69	1089.26
763.02	1085.42
763.35	1078.12
