SpectraSuite Data File
++++++++++++++++++++++++++++++++++++
Date: Mon Aug 26 10:26:28 PDT 2019
User: corrico
Dark Spectrum Present: No
Reference Spectrum Present: No
Number of Sampled Component Spectra: 1
Spectrometers: USB2+H06089
Integration Time (usec): 10000 (USB2+H06089)
Spectra Averaged: 20 (USB2+H06089)
Boxcar Smoothing: 2 (USB2+H06089)
Correct for Electrical Dark: No (USB2+H06089)
Strobe/Lamp Enabled: No (USB2+H06089)
Correct for Detector Non-linearity: No (USB2+H06089)
Correct for Stray Light: No (USB2+H06089)
Number of Pixels in Processed Spectrum: 2048
>>>>>Begin Processed Spectral Data<<<<<
339.70	1023.63
340.07	1023.63
340.45	996.25
340.82	976.38
341.19	954.33
341.57	926.95
341.94	912.46
342.31	904.03
342.69	902.63
343.06	898.70
343.43	899.19
343.81	900.24
344.18	901.39
344.55	900.94
344.93	908.85
345.30	917.56
345.67	923.15
346.04	932.33
346.42	938.93
346.79	944.48
347.16	954.99
347.54	968.21
347.91	978.55
348.28	990.26
348.65	998.94
349.03	1004.91
349.40	1011.63
349.77	1016.14
350.14	1023.31
350.52	1033.44
350.89	1040.25
351.26	1044.07
351.63	1049.75
352.01	1052.70
352.38	1056.52
352.75	1062.95
353.12	1067.85
353.50	1073.25
353.87	1081.19
354.24	1084.00
354.61	1085.21
354.98	1087.90
355.36	1090.50
355.73	1090.76
356.10	1091.30
356.47	1092.94
356.84	1093.99
357.22	1094.48
357.59	1090.90
357.96	1087.27
358.33	1085.77
358.70	1087.62
359.08	1084.86
359.45	1086.69
359.82	1089.85
360.19	1090.57
360.56	1088.07
360.94	1091.77
361.31	1089.45
361.68	1087.11
362.05	1086.20
362.42	1084.25
362.79	1081.56
363.16	1084.84
363.54	1081.80
363.91	1079.36
364.28	1078.87
364.65	1077.25
365.02	1074.82
365.39	1078.85
365.76	1082.22
366.14	1082.80
366.51	1078.85
366.88	1080.23
367.25	1078.33
367.62	1075.24
367.99	1076.13
368.36	1080.46
368.73	1076.86
369.10	1076.46
369.48	1079.20
369.85	1079.48
370.22	1078.50
370.59	1083.13
370.96	1085.54
371.33	1082.85
371.70	1079.67
372.07	1080.11
372.44	1075.01
372.81	1074.10
373.18	1075.29
373.55	1078.40
373.93	1077.84
374.30	1080.37
374.67	1082.76
375.04	1083.41
375.41	1085.05
375.78	1086.50
376.15	1088.30
376.52	1085.28
376.89	1086.69
377.26	1084.81
377.63	1085.75
378.00	1083.22
378.37	1084.93
378.74	1083.48
379.11	1082.08
379.48	1079.99
379.85	1083.27
380.22	1083.18
380.59	1081.56
380.96	1079.31
381.33	1079.76
381.70	1075.85
382.07	1073.72
382.44	1075.62
382.81	1080.44
383.18	1081.09
383.55	1084.18
383.92	1082.97
384.29	1080.46
384.66	1079.92
385.03	1079.53
385.40	1080.65
385.77	1085.12
386.14	1087.97
386.51	1088.19
386.88	1085.31
387.25	1083.36
387.62	1081.23
387.99	1081.77
388.36	1077.40
388.73	1081.05
389.10	1079.95
389.46	1080.46
389.83	1078.52
390.20	1079.20
390.57	1081.23
390.94	1082.85
391.31	1081.33
391.68	1080.32
392.05	1082.71
392.42	1082.19
392.79	1082.29
393.16	1085.42
393.53	1088.63
393.89	1087.81
394.26	1084.65
394.63	1085.82
395.00	1085.56
395.37	1083.76
395.74	1086.62
396.11	1086.38
396.48	1085.12
396.84	1086.43
397.21	1087.32
397.58	1088.79
397.95	1092.77
398.32	1094.86
398.69	1093.73
399.06	1096.03
399.42	1093.01
399.79	1091.11
400.16	1091.06
400.53	1089.82
400.90	1087.67
401.27	1089.31
401.64	1092.66
402.00	1090.55
402.37	1093.29
402.74	1093.05
403.11	1094.11
403.48	1092.66
403.84	1091.27
404.21	1092.91
404.58	1094.36
404.95	1095.00
405.32	1096.42
405.68	1099.84
406.05	1096.96
406.42	1095.96
406.79	1093.62
407.16	1093.12
407.52	1094.53
407.89	1095.60
408.26	1098.60
408.63	1102.18
408.99	1102.56
409.36	1098.48
409.73	1097.34
410.10	1096.42
410.47	1094.88
410.83	1095.79
411.20	1099.42
411.57	1099.68
411.94	1101.29
412.30	1104.64
412.67	1101.67
413.04	1101.20
413.40	1101.53
413.77	1101.85
414.14	1098.62
414.51	1100.80
414.87	1100.82
415.24	1100.33
415.61	1097.10
415.97	1097.31
416.34	1097.10
416.71	1099.82
417.08	1104.45
417.44	1104.62
417.81	1107.35
418.18	1108.57
418.54	1106.89
418.91	1105.13
419.28	1104.76
419.64	1103.02
420.01	1102.51
420.38	1103.49
420.74	1102.09
421.11	1104.57
421.48	1103.80
421.84	1105.01
422.21	1101.69
422.58	1103.38
422.94	1104.45
423.31	1104.66
423.68	1105.25
424.04	1108.29
424.41	1112.43
424.77	1113.25
425.14	1116.60
425.51	1118.14
425.87	1119.31
426.24	1114.40
426.61	1113.95
426.97	1110.84
427.34	1109.23
427.70	1110.00
428.07	1110.26
428.44	1111.17
428.80	1114.21
429.17	1115.17
429.53	1114.66
429.90	1119.24
430.27	1121.61
430.63	1120.86
431.00	1121.44
431.36	1120.70
431.73	1116.72
432.09	1113.28
432.46	1113.84
432.83	1110.00
433.19	1109.74
433.56	1111.99
433.92	1111.71
434.29	1109.30
434.65	1111.40
435.02	1113.04
435.38	1113.28
435.75	1112.88
436.11	1113.81
436.48	1114.66
436.84	1114.05
437.21	1113.09
437.57	1112.48
437.94	1110.98
438.30	1109.30
438.67	1108.03
439.03	1108.59
439.40	1110.58
439.76	1109.16
440.13	1109.20
440.49	1110.87
440.86	1107.87
441.22	1106.86
441.59	1110.58
441.95	1110.30
442.32	1105.86
442.68	1108.92
443.05	1108.22
443.41	1105.93
443.78	1106.68
444.14	1109.02
444.51	1107.45
444.87	1109.77
445.24	1111.68
445.60	1111.99
445.96	1111.29
446.33	1109.86
446.69	1108.62
447.06	1105.29
447.42	1104.71
447.79	1106.42
448.15	1109.25
448.51	1107.19
448.88	1109.09
449.24	1109.81
449.61	1111.61
449.97	1111.78
450.33	1113.07
450.70	1112.71
451.06	1113.81
451.43	1111.64
451.79	1113.09
452.15	1114.63
452.52	1114.68
452.88	1113.18
453.24	1111.85
453.61	1107.21
453.97	1102.09
454.34	1105.83
454.70	1107.19
455.06	1110.51
455.43	1113.49
455.79	1120.13
456.15	1119.60
456.52	1121.30
456.88	1118.71
457.24	1118.66
457.61	1119.22
457.97	1118.71
458.33	1115.87
458.70	1115.45
459.06	1116.44
459.42	1114.10
459.79	1112.71
460.15	1114.84
460.51	1116.27
460.88	1114.49
461.24	1115.12
461.60	1115.73
461.96	1113.07
462.33	1114.12
462.69	1116.20
463.05	1118.26
463.42	1122.45
463.78	1121.91
464.14	1118.31
464.50	1117.49
464.87	1115.64
465.23	1114.00
465.59	1119.06
465.95	1123.83
466.32	1127.23
466.68	1129.03
467.04	1130.69
467.40	1127.69
467.77	1127.79
468.13	1128.23
468.49	1130.08
468.85	1131.56
469.22	1133.22
469.58	1133.90
469.94	1135.89
470.30	1137.13
470.66	1137.73
471.03	1143.09
471.39	1145.65
471.75	1147.40
472.11	1148.92
472.47	1150.23
472.84	1153.49
473.20	1158.47
473.56	1158.96
473.92	1162.87
474.28	1167.04
474.65	1166.17
475.01	1169.85
475.37	1174.36
475.73	1175.00
476.09	1178.39
476.45	1186.28
476.81	1188.99
477.18	1192.97
477.54	1201.44
477.90	1207.76
478.26	1210.76
478.62	1218.60
478.98	1227.12
479.34	1234.42
479.71	1243.36
480.07	1250.48
480.43	1258.58
480.79	1265.48
481.15	1273.42
481.51	1283.46
481.87	1297.29
482.23	1309.09
482.59	1322.82
482.96	1340.61
483.32	1354.28
483.68	1369.73
484.04	1384.85
484.40	1401.77
484.76	1414.83
485.12	1436.20
485.48	1454.22
485.84	1477.56
486.20	1497.76
486.56	1519.43
486.92	1539.56
487.28	1567.69
487.64	1593.98
488.00	1624.94
488.37	1655.34
488.73	1685.68
489.09	1717.63
489.45	1747.37
489.81	1780.84
490.17	1818.67
490.53	1864.24
490.89	1903.49
491.25	1948.10
491.61	1993.06
491.97	2040.83
492.33	2090.75
492.69	2145.99
493.05	2204.43
493.41	2270.30
493.77	2339.51
494.13	2405.53
494.49	2481.67
494.85	2559.17
495.21	2632.47
495.57	2709.66
495.93	2792.63
496.29	2871.56
496.64	2963.12
497.00	3057.07
497.36	3158.01
497.72	3254.23
498.08	3366.14
498.44	3481.48
498.80	3608.90
499.16	3742.63
499.52	3893.13
499.88	4039.62
500.24	4198.43
500.60	4356.23
500.96	4511.85
501.32	4679.90
501.68	4861.08
502.03	5042.64
502.39	5254.03
502.75	5474.56
503.11	5702.93
503.47	5937.24
503.83	6195.42
504.19	6445.67
504.55	6720.75
504.91	7005.62
505.26	7296.99
505.62	7595.67
505.98	7927.58
506.34	8265.84
506.70	8643.13
507.06	9033.11
507.42	9432.24
507.78	9833.11
508.13	10260.14
508.49	10686.28
508.85	11165.48
509.21	11673.35
509.57	12200.74
509.93	12768.16
510.28	13373.61
510.64	14001.25
511.00	14620.27
511.36	15222.91
511.72	15823.61
512.07	16493.99
512.43	17122.54
512.79	17793.15
513.15	18509.35
513.51	19232.84
513.86	19944.99
514.22	20759.12
514.58	21540.68
514.94	22356.28
515.30	23207.16
515.65	24026.72
516.01	24858.41
516.37	25733.86
516.73	26600.56
517.08	27514.61
517.44	28379.49
517.80	29240.80
518.16	30113.36
518.51	30919.06
518.87	31659.07
519.23	32527.76
519.59	33429.80
519.94	34284.52
520.30	35145.23
520.66	35946.09
521.01	36727.03
521.37	37387.53
521.73	38046.34
522.09	38728.33
522.44	39413.12
522.80	39826.23
523.16	40166.10
523.51	40382.83
523.87	40637.11
524.23	40848.93
524.58	41154.32
524.94	41598.76
525.30	41958.74
525.65	42157.52
526.01	42245.94
526.37	42249.38
526.72	42124.35
527.08	42009.46
527.44	41837.40
527.79	41680.47
528.15	41584.91
528.51	41371.92
528.86	41125.81
529.22	40899.22
529.58	40654.61
529.93	40258.17
530.29	39812.96
530.65	39414.90
531.00	39005.12
531.36	38524.21
531.71	38102.38
532.07	37592.80
532.43	37009.23
532.78	36310.16
533.14	35682.82
533.49	35035.27
533.85	34443.93
534.21	33851.64
534.56	33346.92
534.92	32781.38
535.27	32195.31
535.63	31570.04
535.98	30893.83
536.34	30228.79
536.69	29588.54
537.05	28930.26
537.41	28414.81
537.76	27927.60
538.12	27367.14
538.47	26851.84
538.83	26410.79
539.18	25911.42
539.54	25432.75
539.89	24974.10
540.25	24450.03
540.60	23938.11
540.96	23403.37
541.31	22926.41
541.67	22505.47
542.02	22108.12
542.38	21653.23
542.73	21212.58
543.09	20806.29
543.44	20446.15
543.80	20101.18
544.15	19734.55
544.51	19421.79
544.86	19104.72
545.22	18720.92
545.57	18317.97
545.93	17930.80
546.28	17591.07
546.64	17262.64
546.99	16919.31
547.35	16585.15
547.70	16304.08
548.05	15972.07
548.41	15639.06
548.76	15339.66
549.12	15075.30
549.47	14810.04
549.83	14568.97
550.18	14261.24
550.53	13960.66
550.89	13694.78
551.24	13398.72
551.60	13087.64
551.95	12827.33
552.30	12581.29
552.66	12314.56
553.01	12049.48
553.37	11776.76
553.72	11505.70
554.07	11230.50
554.43	10919.37
554.78	10623.27
555.13	10350.81
555.49	10116.75
555.84	9917.18
556.19	9735.76
556.55	9566.03
556.90	9379.46
557.26	9174.55
557.61	8957.42
557.96	8720.79
558.32	8512.93
558.67	8307.87
559.02	8080.72
559.37	7887.28
559.73	7742.70
560.08	7581.42
560.43	7427.69
560.79	7301.30
561.14	7144.49
561.49	6973.72
561.85	6812.13
562.20	6663.13
562.55	6527.96
562.90	6395.65
563.26	6277.22
563.61	6160.34
563.96	6037.97
564.32	5914.11
564.67	5794.23
565.02	5664.35
565.37	5550.00
565.73	5440.60
566.08	5339.11
566.43	5225.18
566.78	5122.40
567.14	5013.57
567.49	4902.25
567.84	4793.44
568.19	4695.35
568.54	4599.50
568.90	4516.63
569.25	4435.78
569.60	4364.77
569.95	4289.01
570.31	4208.70
570.66	4124.66
571.01	4046.20
571.36	3955.65
571.71	3877.17
572.06	3810.58
572.42	3747.62
572.77	3681.03
573.12	3622.73
573.47	3560.63
573.82	3501.04
574.18	3436.68
574.53	3388.60
574.88	3340.86
575.23	3291.78
575.58	3238.34
575.93	3191.04
576.28	3130.63
576.64	3064.39
576.99	3010.77
577.34	2956.19
577.69	2899.53
578.04	2846.09
578.39	2795.16
578.74	2745.24
579.09	2705.99
579.44	2662.78
579.80	2629.31
580.15	2590.97
580.50	2555.30
580.85	2514.95
581.20	2484.90
581.55	2452.53
581.90	2426.78
582.25	2394.13
582.60	2358.35
582.95	2321.13
583.30	2281.41
583.65	2241.84
584.00	2208.32
584.35	2180.77
584.71	2149.13
585.06	2123.05
585.41	2098.81
585.76	2070.65
586.11	2040.20
586.46	2013.63
586.81	1995.94
587.16	1971.48
587.51	1952.19
587.86	1929.02
588.21	1906.83
588.56	1879.08
588.91	1856.44
589.26	1829.90
589.61	1813.14
589.96	1802.07
590.31	1784.99
590.66	1771.48
591.01	1758.66
591.36	1742.29
591.71	1721.30
592.06	1703.84
592.41	1687.36
592.76	1671.26
593.10	1658.08
593.45	1643.52
593.80	1627.75
594.15	1611.01
594.50	1598.23
594.85	1582.06
595.20	1574.55
595.55	1564.27
595.90	1552.81
596.25	1542.16
596.60	1534.13
596.95	1520.72
597.30	1508.57
597.64	1551.35
597.99	1544.82
598.34	1536.44
598.69	1529.77
599.04	1522.14
599.39	1463.14
599.74	1454.69
600.09	1445.26
600.44	1434.09
600.78	1424.80
601.13	1418.51
601.48	1406.97
601.83	1399.92
602.18	1390.30
602.53	1385.67
602.88	1374.48
603.22	1371.09
603.57	1363.53
603.92	1360.27
604.27	1353.70
604.62	1347.42
604.97	1339.56
605.31	1333.24
605.66	1327.93
606.01	1322.43
606.36	1315.24
606.71	1305.74
607.05	1298.55
607.40	1294.71
607.75	1288.35
608.10	1285.61
608.44	1286.43
608.79	1280.51
609.14	1273.70
609.49	1270.42
609.84	1269.20
610.18	1261.13
610.53	1261.67
610.88	1258.46
611.23	1254.78
611.57	1251.84
611.92	1253.22
612.27	1251.34
612.62	1249.92
612.96	1248.44
613.31	1243.06
613.66	1235.03
614.00	1229.23
614.35	1222.70
614.70	1219.11
615.05	1216.07
615.39	1214.15
615.74	1213.24
616.09	1212.89
616.43	1206.12
616.78	1201.79
617.13	1197.42
617.47	1193.56
617.82	1188.29
618.17	1189.65
618.51	1188.48
618.86	1186.93
619.21	1184.71
619.55	1185.29
619.90	1180.07
620.25	1178.86
620.59	1179.84
620.94	1178.88
621.29	1176.87
621.63	1176.42
621.98	1175.21
622.32	1171.56
622.67	1169.85
623.02	1166.43
623.36	1163.20
623.71	1159.38
624.05	1158.17
624.40	1158.03
624.75	1157.14
625.09	1158.61
625.44	1156.74
625.78	1156.44
626.13	1150.75
626.48	1147.73
626.82	1145.97
627.17	1143.75
627.51	1141.10
627.86	1140.36
628.20	1141.29
628.55	1138.23
628.89	1139.84
629.24	1135.93
629.58	1136.96
629.93	1135.72
630.28	1137.45
630.62	1136.12
630.97	1139.12
631.31	1135.63
631.66	1132.35
632.00	1129.17
632.35	1126.92
632.69	1125.54
633.04	1126.83
633.38	1127.60
633.73	1127.53
634.07	1130.03
634.42	1130.74
634.76	1129.03
635.11	1128.37
635.45	1128.72
635.79	1126.20
636.14	1120.93
636.48	1119.41
636.83	1117.37
637.17	1115.62
637.52	1113.91
637.86	1116.22
638.21	1118.73
638.55	1119.01
638.89	1116.32
639.24	1117.30
639.58	1114.63
639.93	1109.67
640.27	1109.79
640.61	1110.72
640.96	1108.43
641.30	1111.05
641.65	1111.64
641.99	1107.40
642.33	1107.24
642.68	1106.37
643.02	1105.18
643.37	1104.36
643.71	1103.70
644.05	1104.19
644.40	1103.12
644.74	1099.65
645.08	1099.21
645.43	1103.19
645.77	1103.63
646.11	1103.68
646.46	1104.69
646.80	1106.75
647.14	1105.11
647.49	1103.61
647.83	1104.15
648.17	1105.86
648.52	1102.06
648.86	1101.69
649.20	1101.25
649.55	1100.05
649.89	1098.67
650.23	1104.48
650.57	1107.45
650.92	1106.32
651.26	1108.03
651.60	1108.64
651.95	1105.65
652.29	1102.88
652.63	1103.82
652.97	1102.53
653.32	1100.75
653.66	1098.51
654.00	1097.55
654.34	1096.35
654.69	1094.81
655.03	1094.90
655.37	1094.53
655.71	1093.64
656.05	1092.73
656.40	1092.94
656.74	1094.11
657.08	1093.52
657.42	1096.70
657.76	1099.16
658.11	1099.56
658.45	1099.21
658.79	1100.40
659.13	1097.92
659.47	1097.48
659.82	1100.12
660.16	1098.65
660.50	1097.64
660.84	1098.53
661.18	1098.23
661.52	1093.94
661.87	1095.28
662.21	1096.49
662.55	1093.94
662.89	1093.94
663.23	1095.37
663.57	1094.13
663.91	1097.34
664.25	1100.05
664.60	1101.34
664.94	1103.40
665.28	1105.32
665.62	1100.05
665.96	1096.03
666.30	1092.14
666.64	1090.10
666.98	1087.76
667.32	1087.18
667.66	1087.37
668.01	1091.11
668.35	1090.64
668.69	1091.42
669.03	1091.84
669.37	1093.80
669.71	1091.16
670.05	1089.73
670.39	1088.89
670.73	1090.74
671.07	1088.12
671.41	1090.39
671.75	1093.90
672.09	1094.39
672.43	1093.76
672.77	1095.00
673.11	1092.63
673.45	1089.96
673.79	1086.76
674.13	1085.21
674.47	1082.45
674.81	1081.26
675.15	1082.15
675.49	1084.77
675.83	1088.70
676.17	1092.56
676.51	1094.86
676.85	1094.11
677.19	1092.26
677.53	1087.93
677.87	1087.27
678.21	1086.43
678.55	1086.55
678.89	1089.52
679.23	1090.69
679.57	1091.04
679.90	1088.98
680.24	1088.61
680.58	1085.24
680.92	1085.33
681.26	1085.28
681.60	1087.23
681.94	1086.64
682.28	1088.26
682.62	1090.62
682.96	1088.44
683.29	1086.59
683.63	1088.70
683.97	1085.89
684.31	1084.89
684.65	1084.51
684.99	1086.01
685.33	1084.98
685.67	1085.77
686.00	1084.74
686.34	1086.87
686.68	1086.92
687.02	1086.24
687.36	1088.72
687.70	1086.03
688.03	1089.89
688.37	1089.87
688.71	1091.72
689.05	1090.03
689.39	1091.23
689.72	1087.76
690.06	1089.29
690.40	1088.26
690.74	1089.31
691.08	1090.29
691.41	1093.97
691.75	1094.41
692.09	1094.55
692.43	1096.28
692.76	1097.10
693.10	1093.03
693.44	1091.23
693.78	1089.66
694.11	1090.74
694.45	1089.47
694.79	1092.61
695.13	1089.96
695.46	1092.40
695.80	1087.83
696.14	1088.00
696.48	1088.70
696.81	1088.72
697.15	1088.70
697.49	1088.40
697.82	1088.00
698.16	1082.08
698.50	1085.38
698.83	1082.19
699.17	1084.16
699.51	1087.83
699.84	1088.96
700.18	1088.19
700.52	1086.73
700.85	1087.39
701.19	1086.52
701.53	1087.25
701.86	1087.81
702.20	1089.54
702.54	1089.19
702.87	1087.60
703.21	1085.91
703.55	1084.86
703.88	1088.58
704.22	1088.21
704.55	1085.73
704.89	1085.52
705.23	1084.14
705.56	1083.67
705.90	1080.79
706.23	1086.22
706.57	1085.21
706.91	1084.32
707.24	1080.11
707.58	1084.93
707.91	1082.87
708.25	1085.75
708.58	1087.16
708.92	1089.54
709.26	1091.88
709.59	1092.02
709.93	1092.52
710.26	1091.98
710.60	1092.07
710.93	1087.55
711.27	1087.25
711.60	1087.41
711.94	1090.39
712.27	1090.24
712.61	1090.69
712.94	1092.49
713.28	1090.39
713.61	1089.05
713.95	1088.98
714.28	1089.99
714.62	1086.66
714.95	1089.61
715.29	1089.00
715.62	1089.24
715.96	1088.79
716.29	1092.47
716.63	1091.63
716.96	1093.83
717.29	1091.86
717.63	1088.75
717.96	1083.76
718.30	1083.18
718.63	1081.56
718.97	1081.73
719.30	1082.12
719.63	1082.31
719.97	1083.15
720.30	1084.07
720.64	1086.34
720.97	1088.33
721.30	1089.19
721.64	1088.89
721.97	1085.42
722.31	1082.43
722.64	1084.11
722.97	1085.96
723.31	1083.81
723.64	1084.89
723.97	1086.15
724.31	1086.43
724.64	1085.84
724.98	1087.90
725.31	1088.70
725.64	1087.60
725.98	1084.16
726.31	1083.29
726.64	1083.27
726.97	1083.11
727.31	1084.37
727.64	1087.44
727.97	1088.58
728.31	1089.38
728.64	1092.40
728.97	1095.18
729.31	1093.38
729.64	1093.47
729.97	1091.56
730.30	1089.64
730.64	1088.07
730.97	1088.47
731.30	1089.22
731.63	1088.79
731.97	1088.70
732.30	1089.89
732.63	1089.68
732.96	1088.44
733.30	1090.62
733.63	1090.78
733.96	1088.79
734.29	1089.73
734.63	1087.65
734.96	1088.04
735.29	1088.51
735.62	1089.64
735.95	1087.67
736.29	1087.32
736.62	1084.32
736.95	1083.79
737.28	1080.67
737.61	1081.82
737.94	1081.16
738.28	1084.67
738.61	1086.10
738.94	1087.95
739.27	1088.96
739.60	1092.00
739.93	1093.52
740.27	1094.95
740.60	1096.99
740.93	1095.58
741.26	1095.58
741.59	1091.42
741.92	1089.57
742.25	1088.33
742.58	1088.07
742.91	1087.18
743.25	1086.97
743.58	1083.62
743.91	1086.01
744.24	1088.28
744.57	1089.00
744.90	1091.84
745.23	1094.29
745.56	1088.63
745.89	1088.09
746.22	1088.61
746.55	1085.56
746.88	1084.86
747.21	1088.75
747.54	1088.49
747.87	1087.23
748.20	1091.86
748.53	1093.15
748.87	1093.43
749.20	1091.93
749.53	1090.81
749.86	1086.66
750.19	1083.04
750.52	1081.89
750.85	1081.51
751.18	1080.39
751.51	1080.56
751.84	1085.70
752.16	1086.66
752.49	1087.27
752.82	1088.89
753.15	1088.70
753.48	1084.53
753.81	1083.32
754.14	1086.06
754.47	1087.18
754.80	1088.77
755.13	1090.97
755.46	1093.24
755.79	1093.71
756.12	1097.59
756.45	1098.02
756.78	1095.67
757.11	1093.22
757.43	1092.52
757.76	1090.03
758.09	1087.88
758.42	1088.54
758.75	1088.16
759.08	1086.36
759.41	1086.57
759.74	1087.18
760.07	1084.93
760.39	1085.68
760.72	1086.01
761.05	1084.37
761.38	1085.96
761.71	1087.13
762.04	1086.59
762.36	1084.37
762.69	1083.64
763.02	1081.84
763.35	1085.56
