SpectraSuite Data File
++++++++++++++++++++++++++++++++++++
Date: Mon Aug 26 10:26:36 PDT 2019
User: corrico
Dark Spectrum Present: No
Reference Spectrum Present: No
Number of Sampled Component Spectra: 1
Spectrometers: USB2+H06089
Integration Time (usec): 10000 (USB2+H06089)
Spectra Averaged: 20 (USB2+H06089)
Boxcar Smoothing: 2 (USB2+H06089)
Correct for Electrical Dark: No (USB2+H06089)
Strobe/Lamp Enabled: No (USB2+H06089)
Correct for Detector Non-linearity: No (USB2+H06089)
Correct for Stray Light: No (USB2+H06089)
Number of Pixels in Processed Spectrum: 2048
>>>>>Begin Processed Spectral Data<<<<<
339.70	1030.30
340.07	1030.30
340.45	1001.30
340.82	981.69
341.19	958.05
341.57	931.46
341.94	918.22
342.31	906.33
342.69	903.40
343.06	899.19
343.43	899.98
343.81	902.63
344.18	908.22
344.55	907.85
344.93	913.23
345.30	918.73
345.67	924.14
346.04	932.02
346.42	936.64
346.79	945.83
347.16	953.37
347.54	963.15
347.91	968.77
348.28	983.14
348.65	995.85
349.03	1007.39
349.40	1017.76
349.77	1027.80
350.14	1034.91
350.52	1041.02
350.89	1047.93
351.26	1050.85
351.63	1056.68
352.01	1059.09
352.38	1063.16
352.75	1064.05
353.12	1069.93
353.50	1072.11
353.87	1077.16
354.24	1077.84
354.61	1082.33
354.98	1083.48
355.36	1087.13
355.73	1086.50
356.10	1088.84
356.47	1089.66
356.84	1092.77
357.22	1091.91
357.59	1093.33
357.96	1092.00
358.33	1096.78
358.70	1096.14
359.08	1096.63
359.45	1098.39
359.82	1095.18
360.19	1090.88
360.56	1087.11
360.94	1088.65
361.31	1085.31
361.68	1088.23
362.05	1087.69
362.42	1086.71
362.79	1086.17
363.16	1086.50
363.54	1086.15
363.91	1085.12
364.28	1084.96
364.65	1080.09
365.02	1080.56
365.39	1078.87
365.76	1080.46
366.14	1079.53
366.51	1081.77
366.88	1080.77
367.25	1080.79
367.62	1077.28
367.99	1078.14
368.36	1076.60
368.73	1076.48
369.10	1076.72
369.48	1075.76
369.85	1076.41
370.22	1076.79
370.59	1074.54
370.96	1072.95
371.33	1076.62
371.70	1074.80
372.07	1071.94
372.44	1075.50
372.81	1076.55
373.18	1074.80
373.55	1073.86
373.93	1076.06
374.30	1076.95
374.67	1080.18
375.04	1082.80
375.41	1084.58
375.78	1083.67
376.15	1081.26
376.52	1079.71
376.89	1080.11
377.26	1080.16
377.63	1084.14
378.00	1087.30
378.37	1089.00
378.74	1086.24
379.11	1083.36
379.48	1080.88
379.85	1077.96
380.22	1076.88
380.59	1076.60
380.96	1079.74
381.33	1082.19
381.70	1085.49
382.07	1086.22
382.44	1085.24
382.81	1086.85
383.18	1086.20
383.55	1081.30
383.92	1080.63
384.29	1081.40
384.66	1079.71
385.03	1078.33
385.40	1080.67
385.77	1082.69
386.14	1084.46
386.51	1089.50
386.88	1090.74
387.25	1090.81
387.62	1088.68
387.99	1087.55
388.36	1085.94
388.73	1085.75
389.10	1087.90
389.46	1088.23
389.83	1090.69
390.20	1086.97
390.57	1087.79
390.94	1089.87
391.31	1088.63
391.68	1088.98
392.05	1091.37
392.42	1088.63
392.79	1084.51
393.16	1085.19
393.53	1083.43
393.89	1080.77
394.26	1084.63
394.63	1085.68
395.00	1085.47
395.37	1086.83
395.74	1089.89
396.11	1088.12
396.48	1087.39
396.84	1085.05
397.21	1081.35
397.58	1080.56
397.95	1080.37
398.32	1080.16
398.69	1082.90
399.06	1085.31
399.42	1084.14
399.79	1085.33
400.16	1090.20
400.53	1093.38
400.90	1094.74
401.27	1097.80
401.64	1095.02
402.00	1089.22
402.37	1086.41
402.74	1086.92
403.11	1087.02
403.48	1088.21
403.84	1092.49
404.21	1096.85
404.58	1094.72
404.95	1095.23
405.32	1097.95
405.68	1095.65
406.05	1093.05
406.42	1093.52
406.79	1091.58
407.16	1092.87
407.52	1091.30
407.89	1091.93
408.26	1093.12
408.63	1094.48
408.99	1092.33
409.36	1099.28
409.73	1100.50
410.10	1098.16
410.47	1098.95
410.83	1098.39
411.20	1096.73
411.57	1096.87
411.94	1102.06
412.30	1102.23
412.67	1107.35
413.04	1106.00
413.40	1104.55
413.77	1104.57
414.14	1107.31
414.51	1101.76
414.87	1100.45
415.24	1102.60
415.61	1100.33
415.97	1097.92
416.34	1103.61
416.71	1104.94
417.08	1105.11
417.44	1107.26
417.81	1108.31
418.18	1106.18
418.54	1108.22
418.91	1107.52
419.28	1105.76
419.64	1105.62
420.01	1108.10
420.38	1106.56
420.74	1107.87
421.11	1107.28
421.48	1108.76
421.84	1106.00
422.21	1109.53
422.58	1109.06
422.94	1111.87
423.31	1112.04
423.68	1114.07
424.04	1112.22
424.41	1111.40
424.77	1112.27
425.14	1112.04
425.51	1113.88
425.87	1112.69
426.24	1114.80
426.61	1111.54
426.97	1114.42
427.34	1112.06
427.70	1112.39
428.07	1109.67
428.44	1112.46
428.80	1108.74
429.17	1110.54
429.53	1112.53
429.90	1113.79
430.27	1110.70
430.63	1108.88
431.00	1104.97
431.36	1105.93
431.73	1106.14
432.09	1107.07
432.46	1111.29
432.83	1115.55
433.19	1111.73
433.56	1113.02
433.92	1117.23
434.29	1115.34
434.65	1111.89
435.02	1110.49
435.38	1106.86
435.75	1108.13
436.11	1106.75
436.48	1109.06
436.84	1111.29
437.21	1112.88
437.57	1109.74
437.94	1110.37
438.30	1110.28
438.67	1111.54
439.03	1112.74
439.40	1112.15
439.76	1113.32
440.13	1113.30
440.49	1113.46
440.86	1112.76
441.22	1114.66
441.59	1117.86
441.95	1116.88
442.32	1114.80
442.68	1112.57
443.05	1110.42
443.41	1107.75
443.78	1109.18
444.14	1109.39
444.51	1112.83
444.87	1112.76
445.24	1111.52
445.60	1110.14
445.96	1109.62
446.33	1107.12
446.69	1105.01
447.06	1105.18
447.42	1108.13
447.79	1108.81
448.15	1110.79
448.51	1115.92
448.88	1114.84
449.24	1112.64
449.61	1113.46
449.97	1109.98
450.33	1106.77
450.70	1106.75
451.06	1104.76
451.43	1105.67
451.79	1110.77
452.15	1111.71
452.52	1111.92
452.88	1112.95
453.24	1115.29
453.61	1113.86
453.97	1113.30
454.34	1117.00
454.70	1117.58
455.06	1115.08
455.43	1113.21
455.79	1115.15
456.15	1114.45
456.52	1113.65
456.88	1112.13
457.24	1115.29
457.61	1112.81
457.97	1110.51
458.33	1111.73
458.70	1113.86
459.06	1114.49
459.42	1115.03
459.79	1113.18
460.15	1116.62
460.51	1117.82
460.88	1117.54
461.24	1116.60
461.60	1116.20
461.96	1113.63
462.33	1111.12
462.69	1113.93
463.05	1116.48
463.42	1119.48
463.78	1116.48
464.14	1119.36
464.50	1116.06
464.87	1117.30
465.23	1117.28
465.59	1122.05
465.95	1123.08
466.32	1126.57
466.68	1128.72
467.04	1129.71
467.40	1131.77
467.77	1131.88
468.13	1131.44
468.49	1130.69
468.85	1132.30
469.22	1130.29
469.58	1131.32
469.94	1133.69
470.30	1135.42
470.66	1139.07
471.03	1145.55
471.39	1147.54
471.75	1146.89
472.11	1146.28
472.47	1148.27
472.84	1151.26
473.20	1154.40
473.56	1157.02
473.92	1164.46
474.28	1166.24
474.65	1165.89
475.01	1171.06
475.37	1176.84
475.73	1176.56
476.09	1180.99
476.45	1186.07
476.81	1187.14
477.18	1189.55
477.54	1198.28
477.90	1205.24
478.26	1207.58
478.62	1214.90
478.98	1223.94
479.34	1232.06
479.71	1241.35
480.07	1252.65
480.43	1260.21
480.79	1269.34
481.15	1279.27
481.51	1287.55
481.87	1298.04
482.23	1310.63
482.59	1323.03
482.96	1337.05
483.32	1351.00
483.68	1367.81
484.04	1387.17
484.40	1399.41
484.76	1418.06
485.12	1436.53
485.48	1454.29
485.84	1469.11
486.20	1494.55
486.56	1514.28
486.92	1541.01
487.28	1567.62
487.64	1594.70
488.00	1622.86
488.37	1650.66
488.73	1680.95
489.09	1711.42
489.45	1746.55
489.81	1782.22
490.17	1820.21
490.53	1856.84
490.89	1895.30
491.25	1941.29
491.61	1986.79
491.97	2035.73
492.33	2088.62
492.69	2144.84
493.05	2192.29
493.41	2249.18
493.77	2311.96
494.13	2374.57
494.49	2444.06
494.85	2524.85
495.21	2600.52
495.57	2677.83
495.93	2759.35
496.29	2839.47
496.64	2931.85
497.00	3020.70
497.36	3119.04
497.72	3222.52
498.08	3337.91
498.44	3445.67
498.80	3578.09
499.16	3714.90
499.52	3854.84
499.88	4005.12
500.24	4170.09
500.60	4323.18
500.96	4484.02
501.32	4658.60
501.68	4827.94
502.03	5010.71
502.39	5221.17
502.75	5430.02
503.11	5655.79
503.47	5892.37
503.83	6128.60
504.19	6381.28
504.55	6654.03
504.91	6932.46
505.26	7219.57
505.62	7528.31
505.98	7850.04
506.34	8182.79
506.70	8547.45
507.06	8934.92
507.42	9343.68
507.78	9754.04
508.13	10168.50
508.49	10604.85
508.85	11059.59
509.21	11535.66
509.57	12058.98
509.93	12624.22
510.28	13223.68
510.64	13841.20
511.00	14463.95
511.36	15037.71
511.72	15626.98
512.07	16263.21
512.43	16871.80
512.79	17542.50
513.15	18289.20
513.51	19031.97
513.86	19752.95
514.22	20601.93
514.58	21409.16
514.94	22227.58
515.30	23087.07
515.65	23923.29
516.01	24757.74
516.37	25596.05
516.73	26389.59
517.08	27273.51
517.44	28119.41
517.80	28919.43
518.16	29772.27
518.51	30607.09
518.87	31344.88
519.23	32207.81
519.59	33093.16
519.94	33931.61
520.30	34817.86
520.66	35593.39
521.01	36396.90
521.37	37078.81
521.73	37720.49
522.09	38327.07
522.44	38995.06
522.80	39407.44
523.16	39770.48
523.51	40008.53
523.87	40285.46
524.23	40537.40
524.58	40788.35
524.94	41181.47
525.30	41544.58
525.65	41739.59
526.01	41784.58
526.37	41794.31
526.72	41724.89
527.08	41576.25
527.44	41394.74
527.79	41236.52
528.15	41127.71
528.51	40874.23
528.86	40658.45
529.22	40426.79
529.58	40145.83
529.93	39741.66
530.29	39288.79
530.65	38922.57
531.00	38563.98
531.36	38132.76
531.71	37681.67
532.07	37221.89
532.43	36624.56
532.78	35949.15
533.14	35361.21
533.49	34784.53
533.85	34175.52
534.21	33560.01
534.56	32994.11
534.92	32394.28
535.27	31773.24
535.63	31140.90
535.98	30510.76
536.34	29889.25
536.69	29239.99
537.05	28623.72
537.41	28105.62
537.76	27614.69
538.12	27062.82
538.47	26569.08
538.83	26131.22
539.18	25653.30
539.54	25164.95
539.89	24681.02
540.25	24168.30
540.60	23661.06
540.96	23159.74
541.31	22664.86
541.67	22266.29
542.02	21863.01
542.38	21436.66
542.73	20998.21
543.09	20616.56
543.44	20239.15
543.80	19910.61
544.15	19512.58
544.51	19183.45
544.86	18875.18
545.22	18512.37
545.57	18117.43
545.93	17752.07
546.28	17415.83
546.64	17080.15
546.99	16731.11
547.35	16408.33
547.70	16127.81
548.05	15815.40
548.41	15491.70
548.76	15201.80
549.12	14917.94
549.47	14627.46
549.83	14366.54
550.18	14060.65
550.53	13736.21
550.89	13464.17
551.24	13195.99
551.60	12893.87
551.95	12649.71
552.30	12418.37
552.66	12166.67
553.01	11909.89
553.37	11645.92
553.72	11359.09
554.07	11089.74
554.43	10800.61
554.78	10518.98
555.13	10261.70
555.49	10039.05
555.84	9842.91
556.19	9659.11
556.55	9462.62
556.90	9274.47
557.26	9069.97
557.61	8853.57
557.96	8620.50
558.32	8430.52
558.67	8222.40
559.02	8006.50
559.37	7822.44
559.73	7664.20
560.08	7501.74
560.43	7355.13
560.79	7236.16
561.14	7080.64
561.49	6921.92
561.85	6762.21
562.20	6606.37
562.55	6462.17
562.90	6330.99
563.26	6204.43
563.61	6088.18
563.96	5974.69
564.32	5846.68
564.67	5726.12
565.02	5604.41
565.37	5489.75
565.73	5381.03
566.08	5283.06
566.43	5173.26
566.78	5072.62
567.14	4965.84
567.49	4854.97
567.84	4746.75
568.19	4644.91
568.54	4552.74
568.90	4468.88
569.25	4392.60
569.60	4321.42
569.95	4254.98
570.31	4173.13
570.66	4091.07
571.01	4003.04
571.36	3915.44
571.71	3834.92
572.06	3765.03
572.42	3695.40
572.77	3637.15
573.12	3576.22
573.47	3521.36
573.82	3465.44
574.18	3406.02
574.53	3348.51
574.88	3297.30
575.23	3242.23
575.58	3185.87
575.93	3137.89
576.28	3084.90
576.64	3026.15
576.99	2972.85
577.34	2921.74
577.69	2867.72
578.04	2815.85
578.39	2766.14
578.74	2720.64
579.09	2675.19
579.44	2636.78
579.80	2599.94
580.15	2562.18
580.50	2523.61
580.85	2491.10
581.20	2458.41
581.55	2427.35
581.90	2398.49
582.25	2364.34
582.60	2327.94
582.95	2291.52
583.30	2252.67
583.65	2222.41
584.00	2189.78
584.35	2164.04
584.71	2131.32
585.06	2102.34
585.41	2066.72
585.76	2041.09
586.11	2013.87
586.46	1993.27
586.81	1976.40
587.16	1957.95
587.51	1934.94
587.86	1909.85
588.21	1888.79
588.56	1865.52
588.91	1846.78
589.26	1829.36
589.61	1815.39
589.96	1796.52
590.31	1776.02
590.66	1760.41
591.01	1745.43
591.36	1726.33
591.71	1707.80
592.06	1691.65
592.41	1672.43
592.76	1655.25
593.10	1643.64
593.45	1629.43
593.80	1617.31
594.15	1601.30
594.50	1586.86
594.85	1572.96
595.20	1563.48
595.55	1551.56
595.90	1544.94
596.25	1536.98
596.60	1524.25
596.95	1511.05
597.30	1500.77
597.64	1538.18
597.99	1528.74
598.34	1524.51
598.69	1515.75
599.04	1508.38
599.39	1449.73
599.74	1437.72
600.09	1427.59
600.44	1419.09
600.78	1413.00
601.13	1409.21
601.48	1405.30
601.83	1398.26
602.18	1392.62
602.53	1381.99
602.88	1370.71
603.22	1361.07
603.57	1353.63
603.92	1351.24
604.27	1345.78
604.62	1340.14
604.97	1338.88
605.31	1335.42
605.66	1327.95
606.01	1322.99
606.36	1317.98
606.71	1307.56
607.05	1300.75
607.40	1290.57
607.75	1283.22
608.10	1275.08
608.44	1272.27
608.79	1266.02
609.14	1264.59
609.49	1261.20
609.84	1260.17
610.18	1254.95
610.53	1256.12
610.88	1252.35
611.23	1251.27
611.57	1252.07
611.92	1250.20
612.27	1241.16
612.62	1237.28
612.96	1237.91
613.31	1231.52
613.66	1228.20
614.00	1223.63
614.35	1220.54
614.70	1211.95
615.05	1208.51
615.39	1203.69
615.74	1204.25
616.09	1199.62
616.43	1197.86
616.78	1198.17
617.13	1196.69
617.47	1193.56
617.82	1196.62
618.17	1192.13
618.51	1188.15
618.86	1183.82
619.21	1183.87
619.55	1180.78
619.90	1181.99
620.25	1179.75
620.59	1179.04
620.94	1172.05
621.29	1168.93
621.63	1165.10
621.98	1161.05
622.32	1158.89
622.67	1161.58
623.02	1158.80
623.36	1158.42
623.71	1158.17
624.05	1155.90
624.40	1152.90
624.75	1153.25
625.09	1148.45
625.44	1147.59
625.78	1147.10
626.13	1144.24
626.48	1142.72
626.82	1144.87
627.17	1143.05
627.51	1139.91
627.86	1141.57
628.20	1139.75
628.55	1135.77
628.89	1133.78
629.24	1135.96
629.58	1136.68
629.93	1135.23
630.28	1138.46
630.62	1139.70
630.97	1141.57
631.31	1136.12
631.66	1131.84
632.00	1127.16
632.35	1125.94
632.69	1121.65
633.04	1121.73
633.38	1123.41
633.73	1124.07
634.07	1120.79
634.42	1118.89
634.76	1116.62
635.11	1114.63
635.45	1115.57
635.79	1113.88
636.14	1114.96
636.48	1115.45
636.83	1115.22
637.17	1112.20
637.52	1114.94
637.86	1112.41
638.21	1112.36
638.55	1112.99
638.89	1113.18
639.24	1111.85
639.58	1111.12
639.93	1113.30
640.27	1112.74
640.61	1113.09
640.96	1110.37
641.30	1110.30
641.65	1105.83
641.99	1105.32
642.33	1102.91
642.68	1104.08
643.02	1104.50
643.37	1102.98
643.71	1102.93
644.05	1103.45
644.40	1101.57
644.74	1103.54
645.08	1108.13
645.43	1111.73
645.77	1111.36
646.11	1111.73
646.46	1109.55
646.80	1105.06
647.14	1099.70
647.49	1100.78
647.83	1102.58
648.17	1101.81
648.52	1104.41
648.86	1107.28
649.20	1105.22
649.55	1104.19
649.89	1107.28
650.23	1106.14
650.57	1101.53
650.92	1103.70
651.26	1103.89
651.60	1099.21
651.95	1098.39
652.29	1100.68
652.63	1097.73
652.97	1095.32
653.32	1096.40
653.66	1096.03
654.00	1097.99
654.34	1099.86
654.69	1099.70
655.03	1102.58
655.37	1102.93
655.71	1103.47
656.05	1104.43
656.40	1106.96
656.74	1105.18
657.08	1105.62
657.42	1100.99
657.76	1099.61
658.11	1097.92
658.45	1094.72
658.79	1092.73
659.13	1095.60
659.47	1096.59
659.82	1097.24
660.16	1099.70
660.50	1098.93
660.84	1099.58
661.18	1097.10
661.52	1097.08
661.87	1097.97
662.21	1099.58
662.55	1099.98
662.89	1099.02
663.23	1097.31
663.57	1095.35
663.91	1094.41
664.25	1089.71
664.60	1090.39
664.94	1092.49
665.28	1091.65
665.62	1092.84
665.96	1095.04
666.30	1093.55
666.64	1090.22
666.98	1089.26
667.32	1088.58
667.66	1087.97
668.01	1091.04
668.35	1091.32
668.69	1094.79
669.03	1097.36
669.37	1096.80
669.71	1093.69
670.05	1095.07
670.39	1096.47
670.73	1094.36
671.07	1093.45
671.41	1094.69
671.75	1095.51
672.09	1090.64
672.43	1090.78
672.77	1093.29
673.11	1094.41
673.45	1093.12
673.79	1095.32
674.13	1093.76
674.47	1091.58
674.81	1092.42
675.15	1089.82
675.49	1087.72
675.83	1089.71
676.17	1091.02
676.51	1091.58
676.85	1092.47
677.19	1092.21
677.53	1095.98
677.87	1100.85
678.21	1100.03
678.55	1101.92
678.89	1105.44
679.23	1098.79
679.57	1094.32
679.90	1092.68
680.24	1091.42
680.58	1089.85
680.92	1090.01
681.26	1086.52
681.60	1087.20
681.94	1089.52
682.28	1089.14
682.62	1087.90
682.96	1088.84
683.29	1088.23
683.63	1088.58
683.97	1088.56
684.31	1087.72
684.65	1086.62
684.99	1088.89
685.33	1087.09
685.67	1089.17
686.00	1093.36
686.34	1095.67
686.68	1091.13
687.02	1089.96
687.36	1085.68
687.70	1082.10
688.03	1083.83
688.37	1083.95
688.71	1083.50
689.05	1084.28
689.39	1083.13
689.72	1081.12
690.06	1082.90
690.40	1083.69
690.74	1083.22
691.08	1085.49
691.41	1086.06
691.75	1086.03
692.09	1087.79
692.43	1088.61
692.76	1091.44
693.10	1091.67
693.44	1090.83
693.78	1091.70
694.11	1092.33
694.45	1086.85
694.79	1087.06
695.13	1087.53
695.46	1086.52
695.80	1085.68
696.14	1087.06
696.48	1086.87
696.81	1086.99
697.15	1084.42
697.49	1084.09
697.82	1088.07
698.16	1086.06
698.50	1089.07
698.83	1091.49
699.17	1091.72
699.51	1088.61
699.84	1090.57
700.18	1086.97
700.52	1087.32
700.85	1089.29
701.19	1095.07
701.53	1093.24
701.86	1096.17
702.20	1095.58
702.54	1093.10
702.87	1087.69
703.21	1090.55
703.55	1087.74
703.88	1086.97
704.22	1088.07
704.55	1090.39
704.89	1087.72
705.23	1089.26
705.56	1088.65
705.90	1088.79
706.23	1085.99
706.57	1086.83
706.91	1083.04
707.24	1085.19
707.58	1087.76
707.91	1087.76
708.25	1087.88
708.58	1088.30
708.92	1084.46
709.26	1078.99
709.59	1082.90
709.93	1081.58
710.26	1085.66
710.60	1087.06
710.93	1091.27
711.27	1087.67
711.60	1089.99
711.94	1087.39
712.27	1085.47
712.61	1082.10
712.94	1083.81
713.28	1082.03
713.61	1083.55
713.95	1085.05
714.28	1085.52
714.62	1085.70
714.95	1087.16
715.29	1087.04
715.62	1088.42
715.96	1092.82
716.29	1093.76
716.63	1093.57
716.96	1092.07
717.29	1091.02
717.63	1089.31
717.96	1086.03
718.30	1083.13
718.63	1083.25
718.97	1084.67
719.30	1082.54
719.63	1083.01
719.97	1084.16
720.30	1085.47
720.64	1085.84
720.97	1087.79
721.30	1090.85
721.64	1089.96
721.97	1087.72
722.31	1087.48
722.64	1083.76
722.97	1081.94
723.31	1085.56
723.64	1089.54
723.97	1085.89
724.31	1087.44
724.64	1086.03
724.98	1082.61
725.31	1082.85
725.64	1085.26
725.98	1087.16
726.31	1088.68
726.64	1090.34
726.97	1086.29
727.31	1088.28
727.64	1087.81
727.97	1084.77
728.31	1084.39
728.64	1083.55
728.97	1082.43
729.31	1083.11
729.64	1085.99
729.97	1086.80
730.30	1086.76
730.64	1087.93
730.97	1088.26
731.30	1089.50
731.63	1088.47
731.97	1089.29
732.30	1087.62
732.63	1086.99
732.96	1087.90
733.30	1086.22
733.63	1085.03
733.96	1085.45
734.29	1084.11
734.63	1081.91
734.96	1083.86
735.29	1087.06
735.62	1084.74
735.95	1085.12
736.29	1082.47
736.62	1083.55
736.95	1082.01
737.28	1083.76
737.61	1082.92
737.94	1086.06
738.28	1085.66
738.61	1083.39
738.94	1085.40
739.27	1088.47
739.60	1087.37
739.93	1091.09
740.27	1095.42
740.60	1093.62
740.93	1091.51
741.26	1091.86
741.59	1088.63
741.92	1087.25
742.25	1090.76
742.58	1091.06
742.91	1090.78
743.25	1091.34
743.58	1089.57
743.91	1085.56
744.24	1085.80
744.57	1087.58
744.90	1087.48
745.23	1089.38
745.56	1090.01
745.89	1089.99
746.22	1088.65
746.55	1091.09
746.88	1089.54
747.21	1091.93
747.54	1089.85
747.87	1088.63
748.20	1084.07
748.53	1084.42
748.87	1080.88
749.20	1081.00
749.53	1079.81
749.86	1082.40
750.19	1084.04
750.52	1082.57
750.85	1084.91
751.18	1088.16
751.51	1085.75
751.84	1084.25
752.16	1087.93
752.49	1084.44
752.82	1084.49
753.15	1087.72
753.48	1088.70
753.81	1087.97
754.14	1090.08
754.47	1086.64
754.80	1085.28
755.13	1087.30
755.46	1085.84
755.79	1086.55
756.12	1092.40
756.45	1089.73
756.78	1086.55
757.11	1087.04
757.43	1088.58
757.76	1086.10
758.09	1087.18
758.42	1089.78
758.75	1092.47
759.08	1090.60
759.41	1089.31
759.74	1087.18
760.07	1085.61
760.39	1084.07
760.72	1084.30
761.05	1085.07
761.38	1088.35
761.71	1089.99
762.04	1089.50
762.36	1090.48
762.69	1090.50
763.02	1087.95
763.35	1086.01
