SpectraSuite Data File
++++++++++++++++++++++++++++++++++++
Date: Mon Aug 26 10:26:20 PDT 2019
User: corrico
Dark Spectrum Present: No
Reference Spectrum Present: No
Number of Sampled Component Spectra: 1
Spectrometers: USB2+H06089
Integration Time (usec): 10000 (USB2+H06089)
Spectra Averaged: 20 (USB2+H06089)
Boxcar Smoothing: 2 (USB2+H06089)
Correct for Electrical Dark: No (USB2+H06089)
Strobe/Lamp Enabled: No (USB2+H06089)
Correct for Detector Non-linearity: No (USB2+H06089)
Correct for Stray Light: No (USB2+H06089)
Number of Pixels in Processed Spectrum: 2048
>>>>>Begin Processed Spectral Data<<<<<
339.70	1016.73
340.07	1016.73
340.45	991.80
340.82	973.48
341.19	956.44
341.57	934.22
341.94	920.53
342.31	914.92
342.69	906.28
343.06	895.93
343.43	895.18
343.81	899.30
344.18	901.41
344.55	907.54
344.93	917.35
345.30	922.31
345.67	926.41
346.04	933.87
346.42	940.92
346.79	949.13
347.16	956.58
347.54	962.50
347.91	970.29
348.28	984.27
348.65	997.21
349.03	1009.38
349.40	1022.63
349.77	1029.37
350.14	1036.81
350.52	1039.29
350.89	1046.43
351.26	1053.52
351.63	1062.23
352.01	1067.31
352.38	1073.56
352.75	1076.95
353.12	1078.78
353.50	1080.91
353.87	1083.13
354.24	1084.93
354.61	1088.51
354.98	1089.52
355.36	1089.45
355.73	1086.80
356.10	1090.46
356.47	1091.04
356.84	1093.19
357.22	1094.65
357.59	1099.12
357.96	1097.69
358.33	1095.72
358.70	1095.30
359.08	1095.49
359.45	1096.03
359.82	1093.76
360.19	1093.69
360.56	1089.22
360.94	1089.52
361.31	1085.89
361.68	1087.37
362.05	1087.25
362.42	1086.59
362.79	1082.64
363.16	1081.37
363.54	1081.14
363.91	1082.78
364.28	1086.78
364.65	1086.15
365.02	1085.56
365.39	1082.38
365.76	1077.70
366.14	1075.03
366.51	1075.55
366.88	1076.39
367.25	1079.01
367.62	1080.06
367.99	1082.85
368.36	1081.94
368.73	1081.75
369.10	1081.28
369.48	1082.19
369.85	1083.34
370.22	1087.95
370.59	1088.09
370.96	1084.72
371.33	1084.53
371.70	1081.89
372.07	1078.07
372.44	1077.75
372.81	1079.13
373.18	1081.33
373.55	1082.92
373.93	1084.32
374.30	1086.69
374.67	1087.72
375.04	1087.55
375.41	1084.46
375.78	1083.95
376.15	1082.26
376.52	1082.33
376.89	1078.54
377.26	1074.68
377.63	1077.84
378.00	1078.75
378.37	1077.86
378.74	1080.04
379.11	1086.06
379.48	1083.81
379.85	1081.00
380.22	1083.22
380.59	1083.20
380.96	1083.95
381.33	1085.70
381.70	1088.49
382.07	1085.63
382.44	1086.36
382.81	1084.37
383.18	1083.69
383.55	1081.42
383.92	1083.46
384.29	1083.90
384.66	1083.60
385.03	1083.18
385.40	1084.81
385.77	1084.84
386.14	1081.80
386.51	1081.96
386.88	1082.92
387.25	1085.73
387.62	1085.70
387.99	1090.06
388.36	1088.72
388.73	1088.19
389.10	1087.44
389.46	1093.19
389.83	1094.18
390.20	1095.75
390.57	1096.40
390.94	1093.73
391.31	1088.30
391.68	1088.23
392.05	1087.51
392.42	1087.23
392.79	1087.69
393.16	1091.34
393.53	1091.95
393.89	1096.61
394.26	1095.86
394.63	1096.49
395.00	1097.24
395.37	1095.30
395.74	1090.62
396.11	1090.36
396.48	1091.46
396.84	1089.59
397.21	1088.12
397.58	1090.90
397.95	1093.08
398.32	1094.88
398.69	1093.01
399.06	1093.73
399.42	1091.65
399.79	1090.99
400.16	1089.47
400.53	1090.01
400.90	1090.67
401.27	1094.43
401.64	1092.75
402.00	1095.00
402.37	1097.13
402.74	1097.27
403.11	1097.15
403.48	1100.87
403.84	1099.96
404.21	1098.62
404.58	1098.39
404.95	1096.10
405.32	1096.28
405.68	1093.55
406.05	1093.64
406.42	1096.24
406.79	1095.72
407.16	1095.91
407.52	1097.85
407.89	1099.42
408.26	1098.88
408.63	1100.24
408.99	1098.13
409.36	1098.04
409.73	1096.24
410.10	1097.90
410.47	1097.78
410.83	1097.24
411.20	1097.88
411.57	1099.51
411.94	1096.45
412.30	1097.76
412.67	1102.98
413.04	1109.39
413.40	1109.30
413.77	1108.99
414.14	1110.26
414.51	1111.17
414.87	1106.46
415.24	1108.34
415.61	1113.88
415.97	1115.41
416.34	1114.19
416.71	1113.30
417.08	1111.80
417.44	1107.24
417.81	1105.27
418.18	1104.26
418.54	1107.00
418.91	1109.13
419.28	1113.09
419.64	1115.41
420.01	1117.30
420.38	1115.24
420.74	1114.00
421.11	1111.12
421.48	1111.12
421.84	1109.86
422.21	1111.82
422.58	1111.71
422.94	1113.84
423.31	1113.81
423.68	1114.98
424.04	1113.91
424.41	1115.38
424.77	1117.02
425.14	1115.41
425.51	1112.92
425.87	1113.09
426.24	1112.18
426.61	1111.33
426.97	1115.34
427.34	1120.09
427.70	1119.22
428.07	1117.56
428.44	1114.80
428.80	1113.09
429.17	1108.92
429.53	1113.95
429.90	1118.00
430.27	1118.92
430.63	1119.60
431.00	1119.76
431.36	1116.88
431.73	1115.10
432.09	1116.48
432.46	1115.57
432.83	1114.38
433.19	1116.76
433.56	1117.21
433.92	1117.23
434.29	1117.89
434.65	1119.34
435.02	1118.64
435.38	1117.65
435.75	1118.94
436.11	1121.09
436.48	1125.03
436.84	1121.63
437.21	1121.37
437.57	1119.88
437.94	1117.07
438.30	1115.87
438.67	1118.19
439.03	1115.05
439.40	1116.48
439.76	1116.25
440.13	1115.38
440.49	1115.36
440.86	1119.10
441.22	1116.93
441.59	1118.96
441.95	1120.44
442.32	1119.81
442.68	1119.90
443.05	1120.44
443.41	1119.08
443.78	1116.11
444.14	1115.17
444.51	1117.30
444.87	1115.66
445.24	1116.62
445.60	1117.61
445.96	1118.52
446.33	1117.25
446.69	1114.68
447.06	1111.33
447.42	1110.12
447.79	1111.87
448.15	1112.29
448.51	1115.83
448.88	1116.32
449.24	1115.69
449.61	1112.48
449.97	1112.34
450.33	1111.17
450.70	1113.95
451.06	1115.97
451.43	1118.00
451.79	1117.37
452.15	1122.73
452.52	1119.78
452.88	1119.20
453.24	1117.28
453.61	1117.63
453.97	1115.80
454.34	1118.24
454.70	1116.55
455.06	1116.72
455.43	1114.68
455.79	1110.63
456.15	1109.34
456.52	1111.29
456.88	1111.87
457.24	1114.33
457.61	1119.22
457.97	1119.69
458.33	1122.24
458.70	1122.61
459.06	1120.34
459.42	1121.28
459.79	1120.46
460.15	1119.29
460.51	1121.58
460.88	1124.70
461.24	1123.46
461.60	1126.73
461.96	1125.68
462.33	1123.74
462.69	1122.59
463.05	1121.84
463.42	1120.93
463.78	1125.40
464.14	1125.63
464.50	1126.50
464.87	1127.13
465.23	1129.89
465.59	1126.94
465.95	1131.41
466.32	1130.74
466.68	1131.60
467.04	1129.36
467.40	1132.14
467.77	1132.82
468.13	1135.86
468.49	1140.43
468.85	1143.73
469.22	1146.65
469.58	1146.44
469.94	1149.37
470.30	1148.24
470.66	1148.50
471.03	1150.75
471.39	1151.82
471.75	1151.89
472.11	1154.52
472.47	1157.68
472.84	1158.24
473.20	1161.89
473.56	1164.58
473.92	1167.97
474.28	1174.27
474.65	1176.99
475.01	1182.49
475.37	1189.04
475.73	1193.28
476.09	1198.42
476.45	1204.58
476.81	1206.38
477.18	1214.13
477.54	1218.74
477.90	1221.69
478.26	1230.63
478.62	1239.55
478.98	1244.21
479.34	1256.49
479.71	1270.68
480.07	1280.67
480.43	1295.86
480.79	1305.50
481.15	1317.56
481.51	1327.04
481.87	1336.91
482.23	1348.29
482.59	1366.10
482.96	1382.02
483.32	1401.23
483.68	1421.06
484.04	1436.81
484.40	1454.57
484.76	1475.38
485.12	1492.61
485.48	1515.10
485.84	1542.23
486.20	1567.76
486.56	1590.67
486.92	1621.27
487.28	1650.78
487.64	1683.20
488.00	1720.06
488.37	1759.10
488.73	1792.05
489.09	1828.29
489.45	1868.89
489.81	1908.68
490.17	1955.59
490.53	2006.63
490.89	2055.13
491.25	2108.75
491.61	2162.68
491.97	2218.15
492.33	2276.08
492.69	2337.68
493.05	2397.18
493.41	2470.04
493.77	2544.51
494.13	2629.45
494.49	2712.59
494.85	2796.38
495.21	2883.28
495.57	2981.02
495.93	3078.62
496.29	3188.51
496.64	3314.50
497.00	3431.46
497.36	3545.77
497.72	3673.10
498.08	3810.70
498.44	3955.60
498.80	4105.25
499.16	4269.98
499.52	4440.63
499.88	4616.47
500.24	4788.03
500.60	4973.31
500.96	5165.42
501.32	5355.40
501.68	5543.56
502.03	5757.60
502.39	5993.39
502.75	6237.34
503.11	6508.21
503.47	6791.91
503.83	7090.28
504.19	7398.97
504.55	7726.81
504.91	8059.56
505.26	8387.50
505.62	8775.07
505.98	9182.04
506.34	9588.40
506.70	10017.75
507.06	10517.81
507.42	10976.36
507.78	11442.83
508.13	11961.94
508.49	12496.87
508.85	13040.83
509.21	13617.73
509.57	14218.59
509.93	14815.38
510.28	15472.25
510.64	16173.66
511.00	16866.65
511.36	17601.37
511.72	18403.56
512.07	19243.04
512.43	20059.02
512.79	20990.02
513.15	21895.71
513.51	22702.35
513.86	23511.03
514.22	24452.77
514.58	25368.36
514.94	26277.31
515.30	27331.54
515.65	28446.01
516.01	29454.87
516.37	30408.26
516.73	31421.11
517.08	32342.39
517.44	33108.42
517.80	33970.86
518.16	34908.74
518.51	35856.26
518.87	36811.36
519.23	37873.54
519.59	38847.06
519.94	39827.37
520.30	40797.97
520.66	41641.90
521.01	42443.65
521.37	43276.95
521.73	43924.11
522.09	44487.83
522.44	45220.98
522.80	45805.57
523.16	46149.82
523.51	46480.98
523.87	46872.29
524.23	47164.84
524.58	47406.01
524.94	47808.84
525.30	48125.42
525.65	48238.09
526.01	48198.28
526.37	48361.01
526.72	48464.49
527.08	48459.65
527.44	48372.04
527.79	48288.55
528.15	48094.19
528.51	47777.14
528.86	47555.24
529.22	47228.76
529.58	46867.59
529.93	46427.19
530.29	45861.88
530.65	45364.85
531.00	44949.01
531.36	44374.38
531.71	43753.23
532.07	43345.08
532.43	42609.90
532.78	41850.16
533.14	41229.50
533.49	40594.79
533.85	39796.43
534.21	39239.95
534.56	38704.34
534.92	38051.68
535.27	37361.48
535.63	36586.74
535.98	35812.26
536.34	35024.67
536.69	34285.48
537.05	33565.65
537.41	32996.94
537.76	32362.19
538.12	31657.24
538.47	31050.37
538.83	30513.38
539.18	29902.97
539.54	29329.53
539.89	28847.62
540.25	28351.75
540.60	27806.27
540.96	27219.70
541.31	26709.05
541.67	26293.63
542.02	25840.43
542.38	25394.16
542.73	24951.98
543.09	24464.75
543.44	23942.39
543.80	23430.33
544.15	22946.26
544.51	22581.84
544.86	22157.73
545.22	21797.03
545.57	21449.09
545.93	21002.75
546.28	20573.59
546.64	20225.97
546.99	19820.71
547.35	19428.20
547.70	19090.28
548.05	18690.54
548.41	18268.47
548.76	17801.48
549.12	17375.83
549.47	16999.54
549.83	16666.51
550.18	16314.17
550.53	15974.16
550.89	15599.79
551.24	15197.43
551.60	14847.38
551.95	14545.17
552.30	14282.04
552.66	14050.91
553.01	13836.24
553.37	13588.17
553.72	13303.49
554.07	13027.82
554.43	12741.62
554.78	12432.11
555.13	12136.10
555.49	11828.90
555.84	11536.95
556.19	11249.39
556.55	10957.80
556.90	10668.58
557.26	10452.08
557.61	10242.54
557.96	10023.86
558.32	9823.28
558.67	9607.22
559.02	9372.16
559.37	9160.55
559.73	8978.55
560.08	8806.97
560.43	8615.63
560.79	8423.38
561.14	8207.32
561.49	7985.70
561.85	7772.43
562.20	7599.79
562.55	7457.11
562.90	7307.97
563.26	7167.70
563.61	7036.75
563.96	6881.62
564.32	6697.23
564.67	6535.99
565.02	6408.01
565.37	6273.13
565.73	6126.38
566.08	5999.47
566.43	5882.98
566.78	5739.51
567.14	5606.78
567.49	5505.22
567.84	5393.06
568.19	5281.79
568.54	5178.32
568.90	5083.53
569.25	4984.71
569.60	4899.63
569.95	4818.79
570.31	4742.93
570.66	4650.83
571.01	4555.74
571.36	4461.81
571.71	4370.32
572.06	4276.65
572.42	4190.87
572.77	4114.85
573.12	4038.97
573.47	3966.58
573.82	3905.56
574.18	3842.83
574.53	3781.56
574.88	3729.64
575.23	3656.76
575.58	3582.45
575.93	3517.85
576.28	3445.17
576.64	3377.14
576.99	3323.86
577.34	3265.02
577.69	3205.04
578.04	3150.15
578.39	3093.04
578.74	3031.56
579.09	2975.55
579.44	2921.78
579.80	2874.04
580.15	2828.65
580.50	2782.59
580.85	2737.96
581.20	2694.78
581.55	2652.20
581.90	2611.99
582.25	2568.81
582.60	2526.91
582.95	2489.65
583.30	2456.09
583.65	2415.06
584.00	2378.76
584.35	2343.18
584.71	2308.73
585.06	2275.07
585.41	2246.28
585.76	2222.74
586.11	2197.74
586.46	2162.09
586.81	2130.19
587.16	2102.11
587.51	2075.28
587.86	2054.05
588.21	2039.17
588.56	2017.78
588.91	1995.03
589.26	1976.23
589.61	1947.49
589.96	1928.11
590.31	1904.12
590.66	1880.50
591.01	1859.86
591.36	1842.40
591.71	1813.45
592.06	1797.74
592.41	1782.11
592.76	1761.74
593.10	1744.94
593.45	1734.20
593.80	1719.05
594.15	1702.18
594.50	1689.49
594.85	1677.86
595.20	1661.29
595.55	1645.40
595.90	1634.75
596.25	1618.36
596.60	1604.74
596.95	1595.10
597.30	1581.43
597.64	1624.03
597.99	1615.06
598.34	1604.04
598.69	1590.49
599.04	1583.49
599.39	1520.76
599.74	1508.69
600.09	1495.60
600.44	1483.48
600.78	1473.27
601.13	1461.66
601.48	1451.46
601.83	1442.80
602.18	1434.89
602.53	1422.98
602.88	1412.37
603.22	1405.12
603.57	1401.16
603.92	1393.93
604.27	1389.27
604.62	1385.18
604.97	1380.56
605.31	1373.10
605.66	1370.90
606.01	1367.55
606.36	1358.68
606.71	1349.62
607.05	1340.00
607.40	1333.80
607.75	1325.07
608.10	1322.17
608.44	1319.92
608.79	1318.17
609.14	1312.39
609.49	1308.76
609.84	1302.86
610.18	1295.04
610.53	1291.95
610.88	1288.98
611.23	1284.53
611.57	1281.65
611.92	1280.02
612.27	1270.56
612.62	1261.48
612.96	1254.93
613.31	1250.60
613.66	1244.72
614.00	1242.43
614.35	1241.86
614.70	1239.45
615.05	1232.53
615.39	1226.67
615.74	1222.77
616.09	1221.55
616.43	1219.61
616.78	1219.86
617.13	1219.44
617.47	1219.44
617.82	1213.05
618.17	1207.81
618.51	1201.61
618.86	1198.52
619.21	1194.96
619.55	1194.91
619.90	1196.01
620.25	1194.49
620.59	1191.68
620.94	1187.59
621.29	1182.79
621.63	1180.05
621.98	1176.99
622.32	1174.97
622.67	1172.87
623.02	1167.15
623.36	1163.18
623.71	1163.04
624.05	1161.07
624.40	1159.48
624.75	1165.54
625.09	1164.39
625.44	1164.44
625.78	1163.53
626.13	1162.47
626.48	1157.61
626.82	1155.41
627.17	1153.91
627.51	1153.32
627.86	1155.41
628.20	1155.29
628.55	1155.92
628.89	1153.02
629.24	1152.85
629.58	1148.73
629.93	1147.78
630.28	1144.69
630.62	1143.84
630.97	1140.94
631.31	1140.61
631.66	1140.47
632.00	1140.50
632.35	1136.05
632.69	1133.83
633.04	1133.94
633.38	1132.00
633.73	1131.09
634.07	1134.67
634.42	1136.66
634.76	1132.28
635.11	1131.79
635.45	1128.91
635.79	1123.32
636.14	1120.25
636.48	1119.13
636.83	1118.19
637.17	1119.55
637.52	1121.51
637.86	1122.97
638.21	1125.68
638.55	1121.56
638.89	1121.40
639.24	1122.43
639.58	1120.34
639.93	1117.54
640.27	1119.53
640.61	1122.90
640.96	1123.39
641.30	1120.79
641.65	1123.74
641.99	1120.06
642.33	1114.96
642.68	1114.19
643.02	1116.37
643.37	1112.39
643.71	1112.27
644.05	1110.14
644.40	1107.73
644.74	1105.74
645.08	1104.76
645.43	1105.15
645.77	1106.72
646.11	1106.63
646.46	1108.50
646.80	1108.36
647.14	1112.53
647.49	1109.62
647.83	1112.20
648.17	1108.97
648.52	1110.00
648.86	1108.48
649.20	1109.44
649.55	1105.44
649.89	1104.03
650.23	1105.55
650.57	1102.79
650.92	1101.32
651.26	1101.99
651.60	1101.57
651.95	1096.70
652.29	1098.20
652.63	1101.03
652.97	1100.80
653.32	1103.33
653.66	1107.17
654.00	1107.66
654.34	1106.09
654.69	1107.14
655.03	1106.14
655.37	1108.85
655.71	1108.45
656.05	1108.52
656.40	1109.04
656.74	1107.17
657.08	1102.44
657.42	1100.64
657.76	1098.69
658.11	1093.59
658.45	1093.97
658.79	1095.82
659.13	1096.54
659.47	1097.97
659.82	1099.96
660.16	1103.09
660.50	1101.74
660.84	1100.71
661.18	1100.24
661.52	1102.28
661.87	1098.53
662.21	1094.88
662.55	1095.00
662.89	1095.84
663.23	1095.11
663.57	1096.92
663.91	1100.64
664.25	1102.09
664.60	1103.66
664.94	1101.60
665.28	1099.84
665.62	1097.57
665.96	1096.59
666.30	1092.91
666.64	1093.22
666.98	1092.05
667.32	1091.84
667.66	1092.77
668.01	1096.35
668.35	1095.82
668.69	1100.57
669.03	1102.11
669.37	1101.18
669.71	1094.43
670.05	1096.24
670.39	1090.62
670.73	1088.19
671.07	1085.28
671.41	1089.85
671.75	1089.10
672.09	1092.61
672.43	1093.59
672.77	1096.21
673.11	1097.20
673.45	1097.50
673.79	1097.27
674.13	1094.81
674.47	1093.80
674.81	1092.73
675.15	1091.79
675.49	1089.96
675.83	1093.10
676.17	1093.15
676.51	1089.07
676.85	1092.00
677.19	1092.30
677.53	1091.09
677.87	1088.58
678.21	1092.66
678.55	1090.06
678.89	1089.57
679.23	1090.69
679.57	1091.77
679.90	1091.98
680.24	1090.76
680.58	1090.43
680.92	1087.95
681.26	1086.29
681.60	1083.90
681.94	1085.82
682.28	1088.72
682.62	1091.70
682.96	1094.95
683.29	1095.30
683.63	1095.98
683.97	1096.54
684.31	1094.43
684.65	1094.20
684.99	1094.06
685.33	1093.33
685.67	1094.93
686.00	1096.92
686.34	1097.59
686.68	1096.87
687.02	1098.44
687.36	1093.64
687.70	1090.55
688.03	1085.45
688.37	1083.76
688.71	1078.71
689.05	1084.09
689.39	1088.14
689.72	1093.08
690.06	1097.59
690.40	1100.85
690.74	1096.82
691.08	1092.02
691.41	1089.75
691.75	1085.99
692.09	1087.04
692.43	1085.96
692.76	1090.62
693.10	1093.08
693.44	1097.17
693.78	1093.57
694.11	1095.77
694.45	1093.90
694.79	1089.92
695.13	1085.80
695.46	1089.52
695.80	1090.39
696.14	1090.01
696.48	1093.52
696.81	1093.78
697.15	1091.88
697.49	1092.30
697.82	1091.74
698.16	1091.84
698.50	1092.12
698.83	1092.77
699.17	1091.93
699.51	1093.29
699.84	1090.43
700.18	1091.23
700.52	1091.58
700.85	1090.24
701.19	1088.09
701.53	1090.95
701.86	1091.04
702.20	1087.79
702.54	1085.80
702.87	1087.58
703.21	1085.33
703.55	1084.46
703.88	1089.10
704.22	1088.79
704.55	1085.80
704.89	1086.06
705.23	1087.34
705.56	1085.94
705.90	1087.39
706.23	1091.95
706.57	1089.68
706.91	1090.64
707.24	1087.02
707.58	1084.89
707.91	1083.55
708.25	1085.96
708.58	1086.38
708.92	1091.04
709.26	1090.43
709.59	1091.91
709.93	1092.68
710.26	1091.60
710.60	1086.69
710.93	1090.74
711.27	1086.15
711.60	1084.04
711.94	1082.59
712.27	1080.63
712.61	1080.44
712.94	1084.21
713.28	1086.94
713.61	1088.16
713.95	1091.46
714.28	1091.34
714.62	1088.84
714.95	1087.93
715.29	1089.10
715.62	1088.98
715.96	1088.61
716.29	1088.33
716.63	1085.56
716.96	1082.43
717.29	1084.04
717.63	1083.13
717.96	1085.26
718.30	1087.55
718.63	1089.92
718.97	1087.41
719.30	1087.25
719.63	1085.49
719.97	1085.77
720.30	1085.42
720.64	1085.89
720.97	1085.45
721.30	1086.57
721.64	1083.13
721.97	1085.10
722.31	1085.91
722.64	1090.27
722.97	1089.92
723.31	1093.45
723.64	1093.64
723.97	1094.29
724.31	1090.08
724.64	1093.31
724.98	1090.46
725.31	1086.08
725.64	1083.67
725.98	1086.99
726.31	1083.08
726.64	1084.70
726.97	1085.07
727.31	1087.86
727.64	1085.87
727.97	1086.48
728.31	1088.12
728.64	1089.07
728.97	1090.85
729.31	1090.22
729.64	1092.87
729.97	1091.60
730.30	1094.27
730.64	1090.17
730.97	1089.10
731.30	1087.53
731.63	1086.50
731.97	1086.50
732.30	1087.83
732.63	1086.94
732.96	1083.79
733.30	1086.01
733.63	1085.03
733.96	1083.64
734.29	1087.34
734.63	1088.42
734.96	1087.95
735.29	1087.13
735.62	1086.78
735.95	1084.74
736.29	1086.97
736.62	1087.27
736.95	1086.06
737.28	1084.23
737.61	1083.01
737.94	1084.07
738.28	1085.84
738.61	1087.60
738.94	1092.09
739.27	1092.09
739.60	1089.31
739.93	1087.23
740.27	1086.87
740.60	1084.49
740.93	1086.73
741.26	1088.65
741.59	1091.67
741.92	1090.60
742.25	1091.02
742.58	1089.22
742.91	1088.51
743.25	1085.59
743.58	1084.81
743.91	1084.93
744.24	1085.96
744.57	1084.51
744.90	1085.35
745.23	1085.03
745.56	1087.79
745.89	1090.81
746.22	1091.46
746.55	1091.30
746.88	1095.21
747.21	1091.88
747.54	1086.85
747.87	1086.57
748.20	1084.09
748.53	1079.99
748.87	1083.71
749.20	1085.68
749.53	1086.85
749.86	1087.37
750.19	1087.37
750.52	1084.46
750.85	1086.01
751.18	1084.23
751.51	1086.15
751.84	1091.32
752.16	1092.47
752.49	1089.78
752.82	1090.29
753.15	1089.61
753.48	1089.24
753.81	1088.75
754.14	1089.68
754.47	1087.62
754.80	1088.49
755.13	1086.27
755.46	1086.78
755.79	1086.41
756.12	1092.16
756.45	1091.11
756.78	1090.17
757.11	1089.82
757.43	1089.71
757.76	1084.42
758.09	1085.24
758.42	1082.22
758.75	1084.23
759.08	1086.01
759.41	1090.03
759.74	1089.38
760.07	1095.18
760.39	1093.03
760.72	1093.29
761.05	1090.83
761.38	1090.76
761.71	1087.13
762.04	1087.79
762.36	1085.12
762.69	1087.09
763.02	1088.04
763.35	1088.35
