SpectraSuite Data File
++++++++++++++++++++++++++++++++++++
Date: Mon Aug 26 10:26:39 PDT 2019
User: corrico
Dark Spectrum Present: No
Reference Spectrum Present: No
Number of Sampled Component Spectra: 1
Spectrometers: USB2+H06089
Integration Time (usec): 10000 (USB2+H06089)
Spectra Averaged: 20 (USB2+H06089)
Boxcar Smoothing: 2 (USB2+H06089)
Correct for Electrical Dark: No (USB2+H06089)
Strobe/Lamp Enabled: No (USB2+H06089)
Correct for Detector Non-linearity: No (USB2+H06089)
Correct for Stray Light: No (USB2+H06089)
Number of Pixels in Processed Spectrum: 2048
>>>>>Begin Processed Spectral Data<<<<<
339.70	1033.00
340.07	1033.00
340.45	1002.94
340.82	980.40
341.19	957.91
341.57	934.60
341.94	920.72
342.31	909.39
342.69	905.65
343.06	904.85
343.43	903.99
343.81	908.15
344.18	909.42
344.55	912.79
344.93	915.62
345.30	920.09
345.67	926.13
346.04	934.55
346.42	944.71
346.79	951.76
347.16	961.56
347.54	967.53
347.91	978.46
348.28	987.99
348.65	995.45
349.03	1004.00
349.40	1012.42
349.77	1020.87
350.14	1025.79
350.52	1038.05
350.89	1046.29
351.26	1052.89
351.63	1057.22
352.01	1065.08
352.38	1065.11
352.75	1065.90
353.12	1073.72
353.50	1077.37
353.87	1077.04
354.24	1078.85
354.61	1080.84
354.98	1077.63
355.36	1079.74
355.73	1081.42
356.10	1087.53
356.47	1086.92
356.84	1092.35
357.22	1091.27
357.59	1091.91
357.96	1091.88
358.33	1094.01
358.70	1092.30
359.08	1093.78
359.45	1092.68
359.82	1092.42
360.19	1094.53
360.56	1093.43
360.94	1092.59
361.31	1093.26
361.68	1089.14
362.05	1087.06
362.42	1084.89
362.79	1085.68
363.16	1083.32
363.54	1082.59
363.91	1082.50
364.28	1080.20
364.65	1077.14
365.02	1076.69
365.39	1075.31
365.76	1076.46
366.14	1084.23
366.51	1081.75
366.88	1084.77
367.25	1083.69
367.62	1079.57
367.99	1076.37
368.36	1077.23
368.73	1074.42
369.10	1076.55
369.48	1075.01
369.85	1074.73
370.22	1075.34
370.59	1074.84
370.96	1073.25
371.33	1079.17
371.70	1076.25
372.07	1076.11
372.44	1076.48
372.81	1077.75
373.18	1070.96
373.55	1075.83
373.93	1077.37
374.30	1078.43
374.67	1079.95
375.04	1084.65
375.41	1080.63
375.78	1081.51
376.15	1082.78
376.52	1084.11
376.89	1080.13
377.26	1082.59
377.63	1081.35
378.00	1079.74
378.37	1079.24
378.74	1085.61
379.11	1083.60
379.48	1082.87
379.85	1084.81
380.22	1083.41
380.59	1079.92
380.96	1078.75
381.33	1081.54
381.70	1080.04
382.07	1080.86
382.44	1081.77
382.81	1085.21
383.18	1085.89
383.55	1085.42
383.92	1086.43
384.29	1087.83
384.66	1088.49
385.03	1089.05
385.40	1091.13
385.77	1089.14
386.14	1085.96
386.51	1085.42
386.88	1084.14
387.25	1080.84
387.62	1082.64
387.99	1085.75
388.36	1086.31
388.73	1085.89
389.10	1085.61
389.46	1083.34
389.83	1082.80
390.20	1079.38
390.57	1079.31
390.94	1082.19
391.31	1085.47
391.68	1087.74
392.05	1091.32
392.42	1092.94
392.79	1093.26
393.16	1090.36
393.53	1087.18
393.89	1082.87
394.26	1082.73
394.63	1082.31
395.00	1081.42
395.37	1080.86
395.74	1085.12
396.11	1085.91
396.48	1084.46
396.84	1088.16
397.21	1089.52
397.58	1088.42
397.95	1089.59
398.32	1091.93
398.69	1089.47
399.06	1091.11
399.42	1091.32
399.79	1085.66
400.16	1085.61
400.53	1086.52
400.90	1087.53
401.27	1085.33
401.64	1087.13
402.00	1086.41
402.37	1087.53
402.74	1084.60
403.11	1085.63
403.48	1087.18
403.84	1089.26
404.21	1092.84
404.58	1095.35
404.95	1093.64
405.32	1094.95
405.68	1097.20
406.05	1096.05
406.42	1097.38
406.79	1103.54
407.16	1104.99
407.52	1102.35
407.89	1103.14
408.26	1098.55
408.63	1097.64
408.99	1095.72
409.36	1097.41
409.73	1095.42
410.10	1100.71
410.47	1100.57
410.83	1102.42
411.20	1103.09
411.57	1104.90
411.94	1104.41
412.30	1104.45
412.67	1102.06
413.04	1101.69
413.40	1102.67
413.77	1105.13
414.14	1108.81
414.51	1110.63
414.87	1111.82
415.24	1111.97
415.61	1107.03
415.97	1104.87
416.34	1106.77
416.71	1107.26
417.08	1105.01
417.44	1105.90
417.81	1103.89
418.18	1104.76
418.54	1103.14
418.91	1105.29
419.28	1105.20
419.64	1106.39
420.01	1107.89
420.38	1109.44
420.74	1110.44
421.11	1112.22
421.48	1115.20
421.84	1111.89
422.21	1110.49
422.58	1107.80
422.94	1107.07
423.31	1104.62
423.68	1107.61
424.04	1108.03
424.41	1110.23
424.77	1111.26
425.14	1113.37
425.51	1110.98
425.87	1112.29
426.24	1111.68
426.61	1110.37
426.97	1111.99
427.34	1113.32
427.70	1110.75
428.07	1110.21
428.44	1112.74
428.80	1110.23
429.17	1109.79
429.53	1112.67
429.90	1113.51
430.27	1110.68
430.63	1109.06
431.00	1108.92
431.36	1107.89
431.73	1108.50
432.09	1109.69
432.46	1109.39
432.83	1112.25
433.19	1113.18
433.56	1110.37
433.92	1112.99
434.29	1116.27
434.65	1112.67
435.02	1113.67
435.38	1116.11
435.75	1115.17
436.11	1115.41
436.48	1117.77
436.84	1117.14
437.21	1118.35
437.57	1116.90
437.94	1117.14
438.30	1116.81
438.67	1114.68
439.03	1113.49
439.40	1114.77
439.76	1113.04
440.13	1111.29
440.49	1114.68
440.86	1114.73
441.22	1112.48
441.59	1111.75
441.95	1111.50
442.32	1110.91
442.68	1112.53
443.05	1111.97
443.41	1110.42
443.78	1113.04
444.14	1111.03
444.51	1109.93
444.87	1110.35
445.24	1111.85
445.60	1110.63
445.96	1111.47
446.33	1110.72
446.69	1110.82
447.06	1111.73
447.42	1111.68
447.79	1108.71
448.15	1107.78
448.51	1110.94
448.88	1109.41
449.24	1109.60
449.61	1111.10
449.97	1113.51
450.33	1116.01
450.70	1117.84
451.06	1116.48
451.43	1117.61
451.79	1114.17
452.15	1113.32
452.52	1114.89
452.88	1113.39
453.24	1115.64
453.61	1119.55
453.97	1119.06
454.34	1118.89
454.70	1120.39
455.06	1116.25
455.43	1115.43
455.79	1113.93
456.15	1111.54
456.52	1113.91
456.88	1115.12
457.24	1116.34
457.61	1118.75
457.97	1119.88
458.33	1119.64
458.70	1120.74
459.06	1119.01
459.42	1115.73
459.79	1113.60
460.15	1113.46
460.51	1115.66
460.88	1116.48
461.24	1117.23
461.60	1120.81
461.96	1120.72
462.33	1119.17
462.69	1117.28
463.05	1118.68
463.42	1121.02
463.78	1120.32
464.14	1121.23
464.50	1124.77
464.87	1126.90
465.23	1125.84
465.59	1126.80
465.95	1128.37
466.32	1131.84
466.68	1130.36
467.04	1127.79
467.40	1132.33
467.77	1130.83
468.13	1129.33
468.49	1129.52
468.85	1133.66
469.22	1131.30
469.58	1132.23
469.94	1133.15
470.30	1138.65
470.66	1136.42
471.03	1136.68
471.39	1140.31
471.75	1141.95
472.11	1139.23
472.47	1146.65
472.84	1152.50
473.20	1157.51
473.56	1159.38
473.92	1162.47
474.28	1164.60
474.65	1165.12
475.01	1166.57
475.37	1171.88
475.73	1178.27
476.09	1181.76
476.45	1188.17
476.81	1189.65
477.18	1194.26
477.54	1198.56
477.90	1203.11
478.26	1207.08
478.62	1217.03
478.98	1223.23
479.34	1230.44
479.71	1240.09
480.07	1247.15
480.43	1258.79
480.79	1268.13
481.15	1277.58
481.51	1286.24
481.87	1298.32
482.23	1307.91
482.59	1319.76
482.96	1334.11
483.32	1348.90
483.68	1363.50
484.04	1379.04
484.40	1394.23
484.76	1410.73
485.12	1428.69
485.48	1451.34
485.84	1467.77
486.20	1488.09
486.56	1509.29
486.92	1531.60
487.28	1549.95
487.64	1577.40
488.00	1606.31
488.37	1638.75
488.73	1669.86
489.09	1709.08
489.45	1743.93
489.81	1782.65
490.17	1818.90
490.53	1858.92
490.89	1894.62
491.25	1934.94
491.61	1978.34
491.97	2023.65
492.33	2074.91
492.69	2130.96
493.05	2189.03
493.41	2251.22
493.77	2316.29
494.13	2379.08
494.49	2449.91
494.85	2520.29
495.21	2591.49
495.57	2667.58
495.93	2752.17
496.29	2834.83
496.64	2930.02
497.00	3021.14
497.36	3117.43
497.72	3219.80
498.08	3325.78
498.44	3435.53
498.80	3565.95
499.16	3700.29
499.52	3842.48
499.88	3990.43
500.24	4149.30
500.60	4298.07
500.96	4448.38
501.32	4611.77
501.68	4790.44
502.03	4969.54
502.39	5181.41
502.75	5407.74
503.11	5634.68
503.47	5861.92
503.83	6114.56
504.19	6361.46
504.55	6634.18
504.91	6908.51
505.26	7193.66
505.62	7488.66
505.98	7806.60
506.34	8134.39
506.70	8492.12
507.06	8875.92
507.42	9282.56
507.78	9703.16
508.13	10124.48
508.49	10566.96
508.85	11037.90
509.21	11522.20
509.57	12037.68
509.93	12582.63
510.28	13160.67
510.64	13772.25
511.00	14394.44
511.36	14966.60
511.72	15555.46
512.07	16206.64
512.43	16834.68
512.79	17498.38
513.15	18252.25
513.51	19015.54
513.86	19751.24
514.22	20567.83
514.58	21349.55
514.94	22151.02
515.30	22989.68
515.65	23798.12
516.01	24630.49
516.37	25475.42
516.73	26270.52
517.08	27139.54
517.44	28002.22
517.80	28804.36
518.16	29654.59
518.51	30485.71
518.87	31222.49
519.23	32061.22
519.59	32938.31
519.94	33776.72
520.30	34650.81
520.66	35410.97
521.01	36203.36
521.37	36894.29
521.73	37506.62
522.09	38082.97
522.44	38754.31
522.80	39169.73
523.16	39513.60
523.51	39764.86
523.87	40051.39
524.23	40279.75
524.58	40533.73
524.94	40886.35
525.30	41236.49
525.65	41438.62
526.01	41489.44
526.37	41497.86
526.72	41426.50
527.08	41288.95
527.44	41093.67
527.79	40936.16
528.15	40826.76
528.51	40615.25
528.86	40402.47
529.22	40179.20
529.58	39923.36
529.93	39524.44
530.29	39073.89
530.65	38680.68
531.00	38320.61
531.36	37885.25
531.71	37442.79
532.07	36966.26
532.43	36397.11
532.78	35747.33
533.14	35176.29
533.49	34591.67
533.85	33989.24
534.21	33392.73
534.56	32817.87
534.92	32210.55
535.27	31620.75
535.63	31021.95
535.98	30404.42
536.34	29798.13
536.69	29153.85
537.05	28517.93
537.41	28000.09
537.76	27515.45
538.12	26954.62
538.47	26471.90
538.83	26028.86
539.18	25546.36
539.54	25050.03
539.89	24602.54
540.25	24080.30
540.60	23586.82
540.96	23076.79
541.31	22595.74
541.67	22177.75
542.02	21793.99
542.38	21377.38
542.73	20948.73
543.09	20551.24
543.44	20194.26
543.80	19842.64
544.15	19442.41
544.51	19113.77
544.86	18799.23
545.22	18417.65
545.57	18045.32
545.93	17683.73
546.28	17361.79
546.64	17041.42
546.99	16714.42
547.35	16394.35
547.70	16122.03
548.05	15796.25
548.41	15478.08
548.76	15182.03
549.12	14895.78
549.47	14602.56
549.83	14349.78
550.18	14037.81
550.53	13706.55
550.89	13443.10
551.24	13169.52
551.60	12869.58
551.95	12611.44
552.30	12385.48
552.66	12134.53
553.01	11883.23
553.37	11614.98
553.72	11349.14
554.07	11081.57
554.43	10802.32
554.78	10524.83
555.13	10273.29
555.49	10042.47
555.84	9840.81
556.19	9645.14
556.55	9450.52
556.90	9262.69
557.26	9060.64
557.61	8847.34
557.96	8603.53
558.32	8397.47
558.67	8184.85
559.02	7974.95
559.37	7783.99
559.73	7635.55
560.08	7487.28
560.43	7339.48
560.79	7220.51
561.14	7073.59
561.49	6915.30
561.85	6751.06
562.20	6595.65
562.55	6450.75
562.90	6319.42
563.26	6198.02
563.61	6090.12
563.96	5984.75
564.32	5861.73
564.67	5732.42
565.02	5614.64
565.37	5500.70
565.73	5388.45
566.08	5277.72
566.43	5179.47
566.78	5066.82
567.14	4955.55
567.49	4847.46
567.84	4751.03
568.19	4651.21
568.54	4562.22
568.90	4474.05
569.25	4398.26
569.60	4322.01
569.95	4246.55
570.31	4170.44
570.66	4095.19
571.01	4008.03
571.36	3911.41
571.71	3836.11
572.06	3767.05
572.42	3701.09
572.77	3641.71
573.12	3599.11
573.47	3537.72
573.82	3476.70
574.18	3409.76
574.53	3349.10
574.88	3288.38
575.23	3234.76
575.58	3183.67
575.93	3135.85
576.28	3086.79
576.64	3029.71
576.99	2975.03
577.34	2918.95
577.69	2862.78
578.04	2805.39
578.39	2754.62
578.74	2708.54
579.09	2670.88
579.44	2633.71
579.80	2598.84
580.15	2562.89
580.50	2526.89
580.85	2489.79
581.20	2457.75
581.55	2427.23
581.90	2399.26
582.25	2368.29
582.60	2329.16
582.95	2294.17
583.30	2253.51
583.65	2218.92
584.00	2187.44
584.35	2161.37
584.71	2127.17
585.06	2100.65
585.41	2071.16
585.76	2042.19
586.11	2017.73
586.46	1996.92
586.81	1976.30
587.16	1954.39
587.51	1932.98
587.86	1906.37
588.21	1887.88
588.56	1866.95
588.91	1846.96
589.26	1826.81
589.61	1808.11
589.96	1783.91
590.31	1767.57
590.66	1750.21
591.01	1735.83
591.36	1723.62
591.71	1712.36
592.06	1695.67
592.41	1678.49
592.76	1662.93
593.10	1643.90
593.45	1625.22
593.80	1610.90
594.15	1597.23
594.50	1584.85
594.85	1568.28
595.20	1556.57
595.55	1549.41
595.90	1543.16
596.25	1533.59
596.60	1522.71
596.95	1514.23
597.30	1500.89
597.64	1537.87
597.99	1528.88
598.34	1521.14
598.69	1511.17
599.04	1503.51
599.39	1442.28
599.74	1428.64
600.09	1423.26
600.44	1415.79
600.78	1405.28
601.13	1400.11
601.48	1396.67
601.83	1391.00
602.18	1385.32
602.53	1379.28
602.88	1373.94
603.22	1366.22
603.57	1358.05
603.92	1351.40
604.27	1343.82
604.62	1336.84
604.97	1327.93
605.31	1325.42
605.66	1318.19
606.01	1312.95
606.36	1308.41
606.71	1309.20
607.05	1300.80
607.40	1297.22
607.75	1292.68
608.10	1287.83
608.44	1279.97
608.79	1276.46
609.14	1272.81
609.49	1273.93
609.84	1270.82
610.18	1270.42
610.53	1269.88
610.88	1266.32
611.23	1254.36
611.57	1250.29
611.92	1243.67
612.27	1239.57
612.62	1239.73
612.96	1241.61
613.31	1236.08
613.66	1234.30
614.00	1229.34
614.35	1221.88
614.70	1217.24
615.05	1215.74
615.39	1209.31
615.74	1206.10
616.09	1202.61
616.43	1199.08
616.78	1197.28
617.13	1196.25
617.47	1193.86
617.82	1192.03
618.17	1190.61
618.51	1187.49
618.86	1186.37
619.21	1184.47
619.55	1182.53
619.90	1178.34
620.25	1172.98
620.59	1169.54
620.94	1169.19
621.29	1167.08
621.63	1166.52
621.98	1167.39
622.32	1166.38
622.67	1161.12
623.02	1160.18
623.36	1155.87
623.71	1155.87
624.05	1156.67
624.40	1154.66
624.75	1154.98
625.09	1156.22
625.44	1154.66
625.78	1148.69
626.13	1149.30
626.48	1146.18
626.82	1146.21
627.17	1144.12
627.51	1142.79
627.86	1143.89
628.20	1145.06
628.55	1140.94
628.89	1139.47
629.24	1139.93
629.58	1137.62
629.93	1135.35
630.28	1135.14
630.62	1134.79
630.97	1135.82
631.31	1134.39
631.66	1132.75
632.00	1130.83
632.35	1131.27
632.69	1130.81
633.04	1130.71
633.38	1131.49
633.73	1132.26
634.07	1132.09
634.42	1130.24
634.76	1127.58
635.11	1123.64
635.45	1126.15
635.79	1123.39
636.14	1125.54
636.48	1124.28
636.83	1126.80
637.17	1121.07
637.52	1120.98
637.86	1118.82
638.21	1116.93
638.55	1111.26
638.89	1114.24
639.24	1114.56
639.58	1112.55
639.93	1114.12
640.27	1116.39
640.61	1115.71
640.96	1114.63
641.30	1116.58
641.65	1119.36
641.99	1120.93
642.33	1118.94
642.68	1114.87
643.02	1111.17
643.37	1106.39
643.71	1103.61
644.05	1103.98
644.40	1107.19
644.74	1108.24
645.08	1109.32
645.43	1107.73
645.77	1106.28
646.11	1105.46
646.46	1103.40
646.80	1104.73
647.14	1106.46
647.49	1103.59
647.83	1100.89
648.17	1103.84
648.52	1102.95
648.86	1101.55
649.20	1106.68
649.55	1105.58
649.89	1104.45
650.23	1101.57
650.57	1102.25
650.92	1098.41
651.26	1099.91
651.60	1095.91
651.95	1099.75
652.29	1098.79
652.63	1101.13
652.97	1102.30
653.32	1103.61
653.66	1099.42
654.00	1100.38
654.34	1096.87
654.69	1096.56
655.03	1095.72
655.37	1096.42
655.71	1098.53
656.05	1099.86
656.40	1102.35
656.74	1101.22
657.08	1099.33
657.42	1096.35
657.76	1095.67
658.11	1091.93
658.45	1093.24
658.79	1093.31
659.13	1092.75
659.47	1095.07
659.82	1095.60
660.16	1095.28
660.50	1095.84
660.84	1096.54
661.18	1094.50
661.52	1091.44
661.87	1091.72
662.21	1091.30
662.55	1088.63
662.89	1088.96
663.23	1092.02
663.57	1090.36
663.91	1090.43
664.25	1093.55
664.60	1094.39
664.94	1091.60
665.28	1092.59
665.62	1093.55
665.96	1094.04
666.30	1091.51
666.64	1094.29
666.98	1095.21
667.32	1093.92
667.66	1092.09
668.01	1096.52
668.35	1096.10
668.69	1097.50
669.03	1099.93
669.37	1101.18
669.71	1095.63
670.05	1094.53
670.39	1094.93
670.73	1094.88
671.07	1091.30
671.41	1095.02
671.75	1096.35
672.09	1092.52
672.43	1090.99
672.77	1087.76
673.11	1086.76
673.45	1083.50
673.79	1085.47
674.13	1086.62
674.47	1091.23
674.81	1091.13
675.15	1093.90
675.49	1092.49
675.83	1089.71
676.17	1091.16
676.51	1093.36
676.85	1092.87
677.19	1092.26
677.53	1094.15
677.87	1092.37
678.21	1090.78
678.55	1089.40
678.89	1091.95
679.23	1090.74
679.57	1091.70
679.90	1090.74
680.24	1091.58
680.58	1089.75
680.92	1091.98
681.26	1091.16
681.60	1090.92
681.94	1092.28
682.28	1096.99
682.62	1097.15
682.96	1098.58
683.29	1097.99
683.63	1098.67
683.97	1095.53
684.31	1093.26
684.65	1092.35
684.99	1091.58
685.33	1087.72
685.67	1085.66
686.00	1086.27
686.34	1085.73
686.68	1087.58
687.02	1091.34
687.36	1094.08
687.70	1095.49
688.03	1096.26
688.37	1094.39
688.71	1093.76
689.05	1093.29
689.39	1093.57
689.72	1095.32
690.06	1097.38
690.40	1098.93
690.74	1097.29
691.08	1095.46
691.41	1092.94
691.75	1091.58
692.09	1090.46
692.43	1093.59
692.76	1094.88
693.10	1092.52
693.44	1093.83
693.78	1092.68
694.11	1089.19
694.45	1089.24
694.79	1094.69
695.13	1091.16
695.46	1090.01
695.80	1092.47
696.14	1090.78
696.48	1086.80
696.81	1090.71
697.15	1090.85
697.49	1087.44
697.82	1087.27
698.16	1086.99
698.50	1085.45
698.83	1085.80
699.17	1084.98
699.51	1086.43
699.84	1087.18
700.18	1088.96
700.52	1087.53
700.85	1090.85
701.19	1089.14
701.53	1090.64
701.86	1087.81
702.20	1088.37
702.54	1086.10
702.87	1085.05
703.21	1083.43
703.55	1084.07
703.88	1085.82
704.22	1089.52
704.55	1089.68
704.89	1089.61
705.23	1087.90
705.56	1086.20
705.90	1083.81
706.23	1085.05
706.57	1086.41
706.91	1088.33
707.24	1088.23
707.58	1088.49
707.91	1092.21
708.25	1090.22
708.58	1091.44
708.92	1092.33
709.26	1087.60
709.59	1086.69
709.93	1086.97
710.26	1084.65
710.60	1081.30
710.93	1084.32
711.27	1084.39
711.60	1086.73
711.94	1084.02
712.27	1087.76
712.61	1087.32
712.94	1084.98
713.28	1081.02
713.61	1084.81
713.95	1083.48
714.28	1089.07
714.62	1090.24
714.95	1092.00
715.29	1090.69
715.62	1095.67
715.96	1092.12
716.29	1093.31
716.63	1093.47
716.96	1093.62
717.29	1085.87
717.63	1085.28
717.96	1085.07
718.30	1087.46
718.63	1089.87
718.97	1092.63
719.30	1094.29
719.63	1091.79
719.97	1091.37
720.30	1089.43
720.64	1091.16
720.97	1088.16
721.30	1089.29
721.64	1087.79
721.97	1086.69
722.31	1085.19
722.64	1086.06
722.97	1087.72
723.31	1085.47
723.64	1088.63
723.97	1086.45
724.31	1084.93
724.64	1085.94
724.98	1086.20
725.31	1085.14
725.64	1088.61
725.98	1090.90
726.31	1085.10
726.64	1085.12
726.97	1085.45
727.31	1083.71
727.64	1081.94
727.97	1083.25
728.31	1082.90
728.64	1081.84
728.97	1083.34
729.31	1087.11
729.64	1087.37
729.97	1091.67
730.30	1091.53
730.64	1087.32
730.97	1084.81
731.30	1086.06
731.63	1085.00
731.97	1086.59
732.30	1088.61
732.63	1086.59
732.96	1088.82
733.30	1086.69
733.63	1087.72
733.96	1086.78
734.29	1090.22
734.63	1088.63
734.96	1089.71
735.29	1087.16
735.62	1090.34
735.95	1088.91
736.29	1086.80
736.62	1088.72
736.95	1089.14
737.28	1089.07
737.61	1090.81
737.94	1090.62
738.28	1086.94
738.61	1086.62
738.94	1084.72
739.27	1085.73
739.60	1086.01
739.93	1083.04
740.27	1082.61
740.60	1082.85
740.93	1080.63
741.26	1079.71
741.59	1084.46
741.92	1086.71
742.25	1087.06
742.58	1087.37
742.91	1089.33
743.25	1088.33
743.58	1086.57
743.91	1086.94
744.24	1086.85
744.57	1089.87
744.90	1089.71
745.23	1089.05
745.56	1088.09
745.89	1088.72
746.22	1086.31
746.55	1084.42
746.88	1086.13
747.21	1088.70
747.54	1086.64
747.87	1086.24
748.20	1088.19
748.53	1086.99
748.87	1086.13
749.20	1089.50
749.53	1085.75
749.86	1088.26
750.19	1088.40
750.52	1083.06
750.85	1079.60
751.18	1084.67
751.51	1084.96
751.84	1085.56
752.16	1090.97
752.49	1089.24
752.82	1084.25
753.15	1079.71
753.48	1078.57
753.81	1079.29
754.14	1082.71
754.47	1086.27
754.80	1084.46
755.13	1085.38
755.46	1084.67
755.79	1082.71
756.12	1086.85
756.45	1089.54
756.78	1090.53
757.11	1088.35
757.43	1088.19
757.76	1085.10
758.09	1086.43
758.42	1084.74
758.75	1083.64
759.08	1086.73
759.41	1083.79
759.74	1086.20
760.07	1088.33
760.39	1089.71
760.72	1087.86
761.05	1087.55
761.38	1083.01
761.71	1080.58
762.04	1080.37
762.36	1080.11
762.69	1082.38
763.02	1084.00
763.35	1085.75
