SpectraSuite Data File
++++++++++++++++++++++++++++++++++++
Date: Mon Aug 26 10:26:19 PDT 2019
User: corrico
Dark Spectrum Present: No
Reference Spectrum Present: No
Number of Sampled Component Spectra: 1
Spectrometers: USB2+H06089
Integration Time (usec): 10000 (USB2+H06089)
Spectra Averaged: 20 (USB2+H06089)
Boxcar Smoothing: 2 (USB2+H06089)
Correct for Electrical Dark: No (USB2+H06089)
Strobe/Lamp Enabled: No (USB2+H06089)
Correct for Detector Non-linearity: No (USB2+H06089)
Correct for Stray Light: No (USB2+H06089)
Number of Pixels in Processed Spectrum: 2048
>>>>>Begin Processed Spectral Data<<<<<
339.70	1033.93
340.07	1033.93
340.45	999.67
340.82	979.44
341.19	957.86
341.57	931.49
341.94	921.00
342.31	914.40
342.69	907.75
343.06	901.36
343.43	901.18
343.81	898.98
344.18	901.18
344.55	908.53
344.93	914.42
345.30	921.42
345.67	930.22
346.04	940.38
346.42	946.86
346.79	955.83
347.16	961.66
347.54	972.33
347.91	978.09
348.28	981.83
348.65	991.71
349.03	1004.25
349.40	1010.92
349.77	1019.19
350.14	1029.60
350.52	1036.62
350.89	1045.94
351.26	1051.30
351.63	1059.82
352.01	1064.66
352.38	1070.19
352.75	1070.40
353.12	1074.59
353.50	1075.08
353.87	1081.47
354.24	1082.85
354.61	1085.99
354.98	1087.46
355.36	1090.71
355.73	1088.37
356.10	1086.80
356.47	1086.83
356.84	1085.40
357.22	1082.90
357.59	1083.79
357.96	1083.13
358.33	1080.48
358.70	1081.44
359.08	1085.00
359.45	1086.50
359.82	1089.19
360.19	1092.28
360.56	1093.22
360.94	1091.02
361.31	1087.86
361.68	1087.04
362.05	1083.13
362.42	1083.50
362.79	1085.24
363.16	1085.24
363.54	1085.91
363.91	1083.90
364.28	1078.43
364.65	1075.73
365.02	1077.51
365.39	1077.42
365.76	1081.47
366.14	1083.60
366.51	1081.68
366.88	1077.37
367.25	1074.87
367.62	1075.15
367.99	1077.00
368.36	1078.26
368.73	1081.82
369.10	1083.04
369.48	1081.66
369.85	1082.08
370.22	1081.05
370.59	1078.96
370.96	1078.40
371.33	1076.01
371.70	1074.73
372.07	1077.42
372.44	1079.34
372.81	1080.56
373.18	1086.92
373.55	1086.34
373.93	1085.42
374.30	1088.47
374.67	1088.47
375.04	1086.31
375.41	1084.18
375.78	1085.49
376.15	1083.34
376.52	1082.10
376.89	1082.22
377.26	1085.70
377.63	1083.25
378.00	1082.03
378.37	1082.01
378.74	1079.62
379.11	1078.05
379.48	1077.18
379.85	1077.98
380.22	1081.37
380.59	1081.96
380.96	1082.92
381.33	1085.87
381.70	1084.91
382.07	1085.54
382.44	1088.91
382.81	1090.22
383.18	1091.65
383.55	1096.12
383.92	1090.43
384.29	1086.48
384.66	1086.62
385.03	1085.94
385.40	1080.18
385.77	1083.67
386.14	1088.49
386.51	1089.82
386.88	1089.22
387.25	1089.92
387.62	1090.71
387.99	1088.86
388.36	1085.38
388.73	1086.45
389.10	1087.69
389.46	1085.73
389.83	1085.89
390.20	1089.61
390.57	1087.95
390.94	1092.56
391.31	1094.39
391.68	1091.60
392.05	1091.42
392.42	1093.99
392.79	1090.53
393.16	1093.12
393.53	1095.96
393.89	1096.89
394.26	1094.72
394.63	1096.42
395.00	1093.97
395.37	1095.07
395.74	1094.06
396.11	1096.73
396.48	1093.26
396.84	1091.46
397.21	1090.15
397.58	1088.89
397.95	1088.00
398.32	1088.63
398.69	1091.30
399.06	1090.50
399.42	1090.39
399.79	1092.84
400.16	1095.56
400.53	1095.42
400.90	1096.45
401.27	1097.99
401.64	1094.48
402.00	1091.39
402.37	1093.97
402.74	1089.89
403.11	1090.06
403.48	1091.25
403.84	1093.85
404.21	1093.83
404.58	1096.85
404.95	1100.10
405.32	1098.76
405.68	1097.20
406.05	1094.50
406.42	1098.27
406.79	1093.55
407.16	1097.06
407.52	1096.82
407.89	1098.27
408.26	1093.33
408.63	1093.45
408.99	1091.46
409.36	1092.19
409.73	1092.26
410.10	1094.34
410.47	1099.79
410.83	1100.85
411.20	1101.08
411.57	1102.60
411.94	1109.18
412.30	1104.73
412.67	1103.54
413.04	1104.57
413.40	1103.47
413.77	1097.20
414.14	1101.74
414.51	1104.22
414.87	1101.27
415.24	1104.03
415.61	1107.26
415.97	1103.77
416.34	1104.24
416.71	1108.71
417.08	1108.36
417.44	1109.46
417.81	1110.19
418.18	1111.59
418.54	1111.85
418.91	1110.21
419.28	1108.83
419.64	1109.41
420.01	1106.39
420.38	1106.89
420.74	1105.32
421.11	1105.11
421.48	1104.43
421.84	1105.46
422.21	1105.44
422.58	1110.02
422.94	1108.08
423.31	1111.52
423.68	1110.70
424.04	1113.77
424.41	1111.29
424.77	1112.88
425.14	1114.82
425.51	1119.92
425.87	1117.72
426.24	1119.88
426.61	1121.56
426.97	1120.18
427.34	1118.54
427.70	1118.54
428.07	1117.89
428.44	1118.17
428.80	1117.61
429.17	1117.23
429.53	1119.50
429.90	1122.36
430.27	1121.30
430.63	1118.17
431.00	1118.71
431.36	1113.93
431.73	1109.04
432.09	1110.47
432.46	1116.72
432.83	1118.82
433.19	1120.51
433.56	1118.17
433.92	1117.11
434.29	1113.98
434.65	1110.14
435.02	1110.12
435.38	1115.15
435.75	1116.79
436.11	1116.20
436.48	1117.04
436.84	1119.67
437.21	1114.05
437.57	1109.93
437.94	1108.69
438.30	1107.35
438.67	1105.86
439.03	1107.40
439.40	1111.85
439.76	1112.36
440.13	1112.15
440.49	1113.28
440.86	1116.27
441.22	1114.66
441.59	1114.77
441.95	1117.21
442.32	1116.79
442.68	1116.08
443.05	1117.93
443.41	1116.62
443.78	1112.11
444.14	1110.14
444.51	1109.27
444.87	1106.04
445.24	1109.86
445.60	1113.44
445.96	1115.05
446.33	1116.11
446.69	1115.78
447.06	1112.46
447.42	1109.53
447.79	1110.44
448.15	1111.59
448.51	1111.29
448.88	1111.40
449.24	1112.18
449.61	1107.07
449.97	1106.07
450.33	1105.93
450.70	1107.59
451.06	1107.99
451.43	1113.21
451.79	1111.10
452.15	1112.97
452.52	1111.61
452.88	1112.08
453.24	1110.98
453.61	1113.09
453.97	1114.54
454.34	1116.37
454.70	1119.17
455.06	1118.31
455.43	1116.90
455.79	1118.61
456.15	1116.13
456.52	1114.21
456.88	1116.67
457.24	1117.70
457.61	1115.08
457.97	1116.58
458.33	1116.65
458.70	1115.24
459.06	1117.65
459.42	1121.42
459.79	1124.51
460.15	1125.05
460.51	1124.09
460.88	1122.29
461.24	1117.07
461.60	1115.66
461.96	1118.21
462.33	1122.54
462.69	1122.15
463.05	1125.05
463.42	1124.91
463.78	1127.25
464.14	1126.62
464.50	1129.29
464.87	1129.75
465.23	1131.04
465.59	1127.67
465.95	1125.77
466.32	1128.49
466.68	1129.89
467.04	1129.71
467.40	1130.88
467.77	1135.60
468.13	1137.01
468.49	1139.16
468.85	1142.70
469.22	1145.93
469.58	1143.16
469.94	1140.92
470.30	1142.70
470.66	1143.54
471.03	1143.91
471.39	1148.59
471.75	1154.75
472.11	1156.81
472.47	1158.14
472.84	1159.55
473.20	1161.72
473.56	1164.32
473.92	1170.57
474.28	1176.70
474.65	1183.66
475.01	1186.46
475.37	1189.04
475.73	1190.35
476.09	1193.98
476.45	1198.80
476.81	1210.08
477.18	1217.76
477.54	1221.22
477.90	1227.61
478.26	1233.60
478.62	1236.93
478.98	1246.27
479.34	1257.78
479.71	1267.87
480.07	1275.94
480.43	1289.05
480.79	1296.24
481.15	1306.74
481.51	1317.53
481.87	1329.59
482.23	1341.50
482.59	1356.88
482.96	1375.23
483.32	1393.11
483.68	1413.82
484.04	1431.40
484.40	1449.19
484.76	1467.75
485.12	1489.10
485.48	1510.91
485.84	1532.44
486.20	1555.78
486.56	1586.49
486.92	1616.14
487.28	1646.08
487.64	1680.15
488.00	1718.82
488.37	1749.55
488.73	1788.38
489.09	1824.96
489.45	1867.26
489.81	1910.44
490.17	1961.65
490.53	2011.20
490.89	2063.70
491.25	2113.67
491.61	2170.71
491.97	2227.68
492.33	2282.96
492.69	2341.75
493.05	2411.90
493.41	2477.20
493.77	2547.18
494.13	2627.60
494.49	2707.04
494.85	2785.47
495.21	2875.54
495.57	2973.74
495.93	3070.01
496.29	3178.35
496.64	3297.63
497.00	3410.98
497.36	3528.92
497.72	3659.08
498.08	3801.33
498.44	3943.50
498.80	4099.85
499.16	4270.96
499.52	4443.65
499.88	4618.88
500.24	4802.64
500.60	4994.05
500.96	5180.66
501.32	5369.94
501.68	5561.98
502.03	5769.63
502.39	5992.85
502.75	6223.37
503.11	6490.61
503.47	6778.66
503.83	7085.55
504.19	7390.43
504.55	7736.69
504.91	8068.76
505.26	8401.52
505.62	8773.73
505.98	9186.63
506.34	9582.62
506.70	10019.25
507.06	10513.12
507.42	10976.06
507.78	11447.05
508.13	11960.61
508.49	12494.41
508.85	13047.01
509.21	13630.95
509.57	14226.13
509.93	14847.33
510.28	15486.72
510.64	16177.06
511.00	16876.39
511.36	17618.99
511.72	18411.99
512.07	19278.62
512.43	20083.43
512.79	21008.09
513.15	21908.12
513.51	22695.43
513.86	23504.83
514.22	24452.77
514.58	25367.64
514.94	26269.68
515.30	27332.24
515.65	28436.53
516.01	29439.00
516.37	30392.86
516.73	31427.73
517.08	32352.27
517.44	33125.27
517.80	33989.77
518.16	34937.95
518.51	35894.03
518.87	36841.41
519.23	37898.77
519.59	38877.68
519.94	39865.36
520.30	40814.68
520.66	41664.32
521.01	42468.53
521.37	43299.49
521.73	43957.39
522.09	44518.11
522.44	45263.34
522.80	45830.92
523.16	46173.34
523.51	46494.51
523.87	46865.53
524.23	47151.12
524.58	47429.08
524.94	47843.43
525.30	48165.37
525.65	48317.15
526.01	48306.29
526.37	48453.33
526.72	48568.29
527.08	48550.74
527.44	48467.21
527.79	48385.22
528.15	48177.19
528.51	47853.24
528.86	47597.67
529.22	47258.46
529.58	46858.72
529.93	46402.10
530.29	45834.17
530.65	45374.07
531.00	44940.91
531.36	44370.89
531.71	43813.94
532.07	43392.39
532.43	42653.36
532.78	41912.79
533.14	41308.23
533.49	40613.05
533.85	39838.45
534.21	39263.98
534.56	38748.15
534.92	38109.87
535.27	37427.44
535.63	36634.16
535.98	35871.38
536.34	35072.88
536.69	34310.38
537.05	33628.68
537.41	33061.05
537.76	32441.04
538.12	31716.27
538.47	31127.63
538.83	30561.83
539.18	29944.42
539.54	29354.72
539.89	28865.78
540.25	28354.33
540.60	27804.21
540.96	27233.14
541.31	26721.03
541.67	26297.96
542.02	25837.43
542.38	25385.36
542.73	24924.83
543.09	24423.70
543.44	23916.93
543.80	23423.36
544.15	22945.56
544.51	22593.66
544.86	22197.64
545.22	21826.36
545.57	21441.81
545.93	21010.40
546.28	20580.54
546.64	20221.39
546.99	19813.50
547.35	19435.88
547.70	19092.12
548.05	18702.35
548.41	18283.61
548.76	17836.78
549.12	17417.96
549.47	17034.77
549.83	16684.49
550.18	16316.20
550.53	15958.97
550.89	15589.82
551.24	15191.69
551.60	14840.85
551.95	14542.33
552.30	14301.87
552.66	14063.69
553.01	13858.94
553.37	13608.58
553.72	13331.79
554.07	13036.22
554.43	12744.76
554.78	12418.55
555.13	12117.77
555.49	11805.29
555.84	11513.87
556.19	11234.27
556.55	10952.63
556.90	10687.66
557.26	10473.94
557.61	10269.50
557.96	10042.91
558.32	9841.30
558.67	9628.61
559.02	9396.99
559.37	9176.94
559.73	8993.46
560.08	8815.96
560.43	8608.16
560.79	8413.85
561.14	8204.54
561.49	7995.95
561.85	7788.74
562.20	7617.60
562.55	7472.79
562.90	7325.78
563.26	7175.19
563.61	7032.89
563.96	6879.72
564.32	6702.36
564.67	6549.03
565.02	6422.31
565.37	6303.88
565.73	6160.34
566.08	6036.62
566.43	5912.68
566.78	5770.66
567.14	5626.93
567.49	5516.57
567.84	5398.40
568.19	5280.20
568.54	5174.18
568.90	5076.90
569.25	4992.60
569.60	4902.16
569.95	4832.57
570.31	4759.32
570.66	4676.37
571.01	4574.79
571.36	4479.48
571.71	4386.35
572.06	4292.38
572.42	4200.02
572.77	4116.63
573.12	4049.90
573.47	3973.43
573.82	3910.36
574.18	3856.71
574.53	3793.82
574.88	3732.78
575.23	3662.28
575.58	3593.10
575.93	3521.90
576.28	3465.75
576.64	3406.39
576.99	3343.67
577.34	3281.06
577.69	3217.84
578.04	3147.51
578.39	3085.01
578.74	3032.56
579.09	2977.21
579.44	2923.07
579.80	2883.82
580.15	2837.45
580.50	2792.10
580.85	2743.06
581.20	2698.31
581.55	2647.54
581.90	2602.32
582.25	2559.70
582.60	2517.69
582.95	2476.10
583.30	2440.34
583.65	2404.69
584.00	2364.29
584.35	2336.30
584.71	2308.59
585.06	2279.17
585.41	2250.64
585.76	2226.20
586.11	2192.78
586.46	2163.40
586.81	2130.73
587.16	2100.21
587.51	2070.37
587.86	2051.46
588.21	2030.60
588.56	2007.43
588.91	1990.77
589.26	1975.06
589.61	1951.61
589.96	1928.60
590.31	1911.45
590.66	1879.26
591.01	1855.72
591.36	1835.07
591.71	1809.35
592.06	1791.33
592.41	1776.21
592.76	1763.01
593.10	1742.08
593.45	1729.12
593.80	1708.99
594.15	1700.35
594.50	1687.36
594.85	1680.32
595.20	1671.66
595.55	1662.01
595.90	1645.26
596.25	1629.34
596.60	1616.26
596.95	1600.29
597.30	1588.99
597.64	1628.80
597.99	1618.48
598.34	1606.47
598.69	1594.96
599.04	1579.39
599.39	1518.33
599.74	1504.22
600.09	1492.42
600.44	1485.56
600.78	1479.99
601.13	1472.76
601.48	1466.93
601.83	1459.39
602.18	1441.70
602.53	1430.93
602.88	1417.36
603.22	1406.80
603.57	1397.21
603.92	1396.78
604.27	1389.25
604.62	1384.97
604.97	1379.49
605.31	1376.40
605.66	1371.20
606.01	1368.56
606.36	1362.31
606.71	1358.94
607.05	1351.26
607.40	1345.55
607.75	1334.78
608.10	1331.41
608.44	1320.90
608.79	1313.67
609.14	1307.28
609.49	1303.49
609.84	1297.08
610.18	1293.31
610.53	1289.28
610.88	1282.31
611.23	1277.07
611.57	1269.74
611.92	1265.46
612.27	1260.64
612.62	1256.59
612.96	1257.52
613.31	1258.01
613.66	1254.76
614.00	1251.25
614.35	1249.64
614.70	1242.57
615.05	1236.13
615.39	1231.26
615.74	1229.37
616.09	1225.53
616.43	1218.27
616.78	1214.95
617.13	1212.61
617.47	1208.54
617.82	1204.98
618.17	1206.38
618.51	1204.21
618.86	1202.19
619.21	1200.60
619.55	1197.04
619.90	1195.17
620.25	1190.91
620.59	1187.96
620.94	1186.16
621.29	1188.66
621.63	1188.08
621.98	1188.85
622.32	1189.06
622.67	1185.01
623.02	1178.83
623.36	1174.57
623.71	1170.27
624.05	1166.10
624.40	1162.94
624.75	1160.74
625.09	1160.18
625.44	1162.45
625.78	1157.49
626.13	1156.18
626.48	1155.76
626.82	1152.48
627.17	1148.64
627.51	1149.79
627.86	1148.24
628.20	1144.94
628.55	1144.03
628.89	1139.96
629.24	1137.90
629.58	1136.80
629.93	1136.87
630.28	1133.97
630.62	1137.41
630.97	1136.92
631.31	1133.71
631.66	1130.74
632.00	1129.33
632.35	1125.31
632.69	1127.11
633.04	1130.31
633.38	1133.33
633.73	1132.52
634.07	1135.18
634.42	1134.25
634.76	1132.61
635.11	1129.73
635.45	1129.71
635.79	1124.39
636.14	1121.77
636.48	1119.43
636.83	1121.21
637.17	1123.01
637.52	1122.92
637.86	1123.18
638.21	1121.00
638.55	1119.24
638.89	1117.18
639.24	1116.22
639.58	1113.72
639.93	1114.45
640.27	1111.24
640.61	1111.17
640.96	1112.88
641.30	1114.45
641.65	1117.61
641.99	1114.61
642.33	1111.80
642.68	1109.06
643.02	1105.22
643.37	1103.05
643.71	1108.36
644.05	1109.58
644.40	1111.59
644.74	1117.86
645.08	1117.30
645.43	1116.20
645.77	1114.05
646.11	1114.94
646.46	1111.31
646.80	1111.05
647.14	1106.72
647.49	1108.24
647.83	1106.02
648.17	1104.33
648.52	1103.94
648.86	1103.47
649.20	1106.72
649.55	1109.04
649.89	1109.98
650.23	1110.00
650.57	1115.62
650.92	1111.47
651.26	1106.79
651.60	1103.82
651.95	1102.88
652.29	1101.15
652.63	1102.70
652.97	1104.66
653.32	1107.05
653.66	1104.78
654.00	1099.47
654.34	1097.10
654.69	1097.24
655.03	1095.07
655.37	1098.55
655.71	1103.47
656.05	1103.33
656.40	1100.31
656.74	1099.49
657.08	1097.52
657.42	1095.21
657.76	1097.85
658.11	1095.75
658.45	1095.00
658.79	1094.53
659.13	1093.59
659.47	1091.53
659.82	1092.02
660.16	1090.78
660.50	1090.71
660.84	1095.09
661.18	1094.48
661.52	1098.32
661.87	1101.53
662.21	1102.30
662.55	1100.00
662.89	1097.80
663.23	1098.25
663.57	1098.13
663.91	1099.23
664.25	1097.36
664.60	1101.55
664.94	1098.53
665.28	1097.69
665.62	1095.56
665.96	1097.48
666.30	1095.02
666.64	1095.75
666.98	1097.48
667.32	1095.39
667.66	1097.15
668.01	1098.34
668.35	1098.25
668.69	1097.90
669.03	1104.62
669.37	1102.70
669.71	1103.70
670.05	1102.21
670.39	1101.25
670.73	1098.41
671.07	1095.56
671.41	1091.46
671.75	1093.97
672.09	1093.05
672.43	1092.66
672.77	1091.37
673.11	1093.47
673.45	1093.90
673.79	1095.09
674.13	1091.63
674.47	1091.67
674.81	1093.10
675.15	1092.98
675.49	1094.13
675.83	1095.04
676.17	1096.99
676.51	1095.42
676.85	1093.83
677.19	1092.54
677.53	1093.29
677.87	1096.00
678.21	1096.70
678.55	1097.03
678.89	1097.64
679.23	1094.95
679.57	1091.44
679.90	1090.57
680.24	1091.79
680.58	1088.51
680.92	1090.92
681.26	1089.43
681.60	1091.46
681.94	1089.07
682.28	1086.69
682.62	1084.30
682.96	1088.98
683.29	1086.50
683.63	1089.68
683.97	1092.02
684.31	1094.69
684.65	1091.32
684.99	1087.69
685.33	1088.42
685.67	1091.84
686.00	1091.06
686.34	1092.77
686.68	1096.26
687.02	1092.16
687.36	1091.18
687.70	1087.88
688.03	1086.90
688.37	1083.04
688.71	1083.71
689.05	1084.58
689.39	1090.10
689.72	1090.85
690.06	1097.52
690.40	1097.85
690.74	1095.44
691.08	1096.35
691.41	1098.90
691.75	1097.55
692.09	1096.03
692.43	1095.14
692.76	1090.99
693.10	1087.62
693.44	1086.76
693.78	1089.54
694.11	1090.50
694.45	1089.68
694.79	1092.94
695.13	1091.72
695.46	1089.96
695.80	1090.15
696.14	1092.40
696.48	1091.49
696.81	1093.59
697.15	1095.09
697.49	1096.73
697.82	1096.28
698.16	1091.09
698.50	1090.20
698.83	1090.76
699.17	1090.17
699.51	1092.23
699.84	1095.02
700.18	1094.53
700.52	1091.23
700.85	1091.51
701.19	1090.60
701.53	1091.09
701.86	1088.75
702.20	1086.90
702.54	1087.06
702.87	1088.49
703.21	1087.90
703.55	1090.71
703.88	1091.77
704.22	1090.36
704.55	1086.08
704.89	1087.53
705.23	1085.49
705.56	1086.22
705.90	1087.51
706.23	1090.29
706.57	1087.34
706.91	1089.14
707.24	1091.23
707.58	1089.85
707.91	1087.65
708.25	1089.80
708.58	1088.72
708.92	1087.97
709.26	1088.72
709.59	1091.70
709.93	1092.66
710.26	1094.39
710.60	1096.54
710.93	1094.65
711.27	1095.84
711.60	1093.19
711.94	1093.66
712.27	1093.87
712.61	1094.25
712.94	1093.94
713.28	1094.62
713.61	1092.26
713.95	1090.97
714.28	1088.70
714.62	1085.00
714.95	1087.44
715.29	1090.76
715.62	1088.09
715.96	1092.26
716.29	1093.76
716.63	1093.99
716.96	1092.89
717.29	1095.70
717.63	1093.59
717.96	1092.12
718.30	1090.29
718.63	1087.74
718.97	1083.43
719.30	1083.90
719.63	1085.47
719.97	1085.96
720.30	1086.69
720.64	1090.10
720.97	1090.97
721.30	1091.42
721.64	1089.66
721.97	1088.82
722.31	1088.21
722.64	1088.21
722.97	1090.99
723.31	1092.63
723.64	1092.49
723.97	1090.15
724.31	1090.83
724.64	1086.85
724.98	1086.06
725.31	1086.99
725.64	1087.06
725.98	1084.21
726.31	1084.60
726.64	1083.27
726.97	1083.32
727.31	1086.10
727.64	1087.32
727.97	1083.81
728.31	1083.69
728.64	1082.92
728.97	1081.14
729.31	1078.73
729.64	1080.18
729.97	1084.93
730.30	1085.35
730.64	1086.62
730.97	1093.03
731.30	1098.74
731.63	1095.11
731.97	1097.36
732.30	1100.73
732.63	1095.39
732.96	1094.65
733.30	1095.58
733.63	1094.22
733.96	1088.75
734.29	1091.06
734.63	1088.30
734.96	1087.65
735.29	1084.77
735.62	1086.64
735.95	1087.97
736.29	1087.06
736.62	1084.91
736.95	1086.22
737.28	1087.44
737.61	1087.30
737.94	1091.34
738.28	1093.17
738.61	1093.85
738.94	1091.37
739.27	1089.24
739.60	1085.73
739.93	1083.95
740.27	1086.45
740.60	1085.12
740.93	1086.34
741.26	1086.50
741.59	1085.33
741.92	1081.51
742.25	1085.35
742.58	1084.42
742.91	1084.81
743.25	1085.94
743.58	1085.17
743.91	1084.96
744.24	1084.91
744.57	1084.16
744.90	1087.32
745.23	1091.72
745.56	1089.75
745.89	1090.71
746.22	1089.12
746.55	1085.26
746.88	1086.97
747.21	1088.68
747.54	1089.82
747.87	1094.81
748.20	1095.32
748.53	1093.19
748.87	1094.41
749.20	1091.18
749.53	1087.95
749.86	1089.96
750.19	1090.48
750.52	1087.11
750.85	1086.59
751.18	1084.77
751.51	1083.60
751.84	1077.77
752.16	1079.64
752.49	1078.71
752.82	1076.67
753.15	1075.94
753.48	1077.00
753.81	1077.37
754.14	1081.89
754.47	1084.58
754.80	1085.03
755.13	1089.14
755.46	1088.65
755.79	1087.53
756.12	1091.04
756.45	1094.13
756.78	1091.49
757.11	1091.86
757.43	1089.80
757.76	1084.51
758.09	1081.58
758.42	1083.04
758.75	1080.23
759.08	1082.01
759.41	1084.93
759.74	1086.01
760.07	1084.00
760.39	1087.25
760.72	1084.23
761.05	1084.11
761.38	1082.94
761.71	1086.03
762.04	1081.96
762.36	1085.07
762.69	1084.91
763.02	1086.69
763.35	1084.09
