SpectraSuite Data File
++++++++++++++++++++++++++++++++++++
Date: Mon Aug 26 10:26:20 PDT 2019
User: corrico
Dark Spectrum Present: No
Reference Spectrum Present: No
Number of Sampled Component Spectra: 1
Spectrometers: USB2+H06089
Integration Time (usec): 10000 (USB2+H06089)
Spectra Averaged: 20 (USB2+H06089)
Boxcar Smoothing: 2 (USB2+H06089)
Correct for Electrical Dark: No (USB2+H06089)
Strobe/Lamp Enabled: No (USB2+H06089)
Correct for Detector Non-linearity: No (USB2+H06089)
Correct for Stray Light: No (USB2+H06089)
Number of Pixels in Processed Spectrum: 2048
>>>>>Begin Processed Spectral Data<<<<<
339.70	1040.84
340.07	1040.84
340.45	1004.49
340.82	978.67
341.19	953.39
341.57	925.87
341.94	915.45
342.31	906.23
342.69	903.26
343.06	900.54
343.43	901.39
343.81	901.95
344.18	905.34
344.55	909.11
344.93	915.83
345.30	922.78
345.67	925.49
346.04	933.15
346.42	942.56
346.79	951.43
347.16	959.03
347.54	968.49
347.91	979.44
348.28	988.38
348.65	996.44
349.03	1005.38
349.40	1017.55
349.77	1026.28
350.14	1033.35
350.52	1036.76
350.89	1042.78
351.26	1050.06
351.63	1053.80
352.01	1059.54
352.38	1069.16
352.75	1076.86
353.12	1080.44
353.50	1082.52
353.87	1084.07
354.24	1083.32
354.61	1082.52
354.98	1082.12
355.36	1086.45
355.73	1090.03
356.10	1090.83
356.47	1092.28
356.84	1094.18
357.22	1090.90
357.59	1092.00
357.96	1092.75
358.33	1092.75
358.70	1090.43
359.08	1094.97
359.45	1088.84
359.82	1085.14
360.19	1082.78
360.56	1083.36
360.94	1077.40
361.31	1079.29
361.68	1082.90
362.05	1081.84
362.42	1081.87
362.79	1085.14
363.16	1088.68
363.54	1088.09
363.91	1086.85
364.28	1085.35
364.65	1083.53
365.02	1080.32
365.39	1077.93
365.76	1077.33
366.14	1077.96
366.51	1078.89
366.88	1075.27
367.25	1074.91
367.62	1078.57
367.99	1075.05
368.36	1075.92
368.73	1079.34
369.10	1080.86
369.48	1082.38
369.85	1087.18
370.22	1084.16
370.59	1085.24
370.96	1086.43
371.33	1083.13
371.70	1083.41
372.07	1084.37
372.44	1084.96
372.81	1086.99
373.18	1086.10
373.55	1083.27
373.93	1083.32
374.30	1079.15
374.67	1074.19
375.04	1078.03
375.41	1079.78
375.78	1082.52
376.15	1085.03
376.52	1088.26
376.89	1085.49
377.26	1083.69
377.63	1082.05
378.00	1083.74
378.37	1083.76
378.74	1085.33
379.11	1086.76
379.48	1087.30
379.85	1086.66
380.22	1083.90
380.59	1085.17
380.96	1084.86
381.33	1084.18
381.70	1085.12
382.07	1087.04
382.44	1085.38
382.81	1083.27
383.18	1084.93
383.55	1083.41
383.92	1083.83
384.29	1083.57
384.66	1087.44
385.03	1085.07
385.40	1083.67
385.77	1081.16
386.14	1083.22
386.51	1082.78
386.88	1082.50
387.25	1084.72
387.62	1088.68
387.99	1087.51
388.36	1086.52
388.73	1088.37
389.10	1089.36
389.46	1089.38
389.83	1091.86
390.20	1095.32
390.57	1095.56
390.94	1094.53
391.31	1093.59
391.68	1091.39
392.05	1088.61
392.42	1086.06
392.79	1085.19
393.16	1085.21
393.53	1087.67
393.89	1086.94
394.26	1090.06
394.63	1091.49
395.00	1095.07
395.37	1092.02
395.74	1092.91
396.11	1095.23
396.48	1095.91
396.84	1091.13
397.21	1092.47
397.58	1093.55
397.95	1092.35
398.32	1090.78
398.69	1095.35
399.06	1096.10
399.42	1096.14
399.79	1094.93
400.16	1096.33
400.53	1094.18
400.90	1094.69
401.27	1096.19
401.64	1096.12
402.00	1093.80
402.37	1094.57
402.74	1092.45
403.11	1091.74
403.48	1090.01
403.84	1092.63
404.21	1092.12
404.58	1093.78
404.95	1092.47
405.32	1092.80
405.68	1093.40
406.05	1096.14
406.42	1096.42
406.79	1100.89
407.16	1103.31
407.52	1101.83
407.89	1100.24
408.26	1101.18
408.63	1097.01
408.99	1095.35
409.36	1098.30
409.73	1098.23
410.10	1096.03
410.47	1097.20
410.83	1099.54
411.20	1099.28
411.57	1096.38
411.94	1097.10
412.30	1098.18
412.67	1099.37
413.04	1098.27
413.40	1102.53
413.77	1102.25
414.14	1103.70
414.51	1101.22
414.87	1100.75
415.24	1097.90
415.61	1100.24
415.97	1097.06
416.34	1100.22
416.71	1102.72
417.08	1106.46
417.44	1105.67
417.81	1108.10
418.18	1109.02
418.54	1108.76
418.91	1110.02
419.28	1111.97
419.64	1114.49
420.01	1113.49
420.38	1115.03
420.74	1116.48
421.11	1117.49
421.48	1116.51
421.84	1119.31
422.21	1117.98
422.58	1114.80
422.94	1112.20
423.31	1112.15
423.68	1109.25
424.04	1108.99
424.41	1110.54
424.77	1111.61
425.14	1109.65
425.51	1110.68
425.87	1112.95
426.24	1112.18
426.61	1113.07
426.97	1115.99
427.34	1120.55
427.70	1121.47
428.07	1121.40
428.44	1122.05
428.80	1120.72
429.17	1114.87
429.53	1113.14
429.90	1112.27
430.27	1113.09
430.63	1116.32
431.00	1117.72
431.36	1115.03
431.73	1116.15
432.09	1112.57
432.46	1109.69
432.83	1109.18
433.19	1113.74
433.56	1112.95
433.92	1113.23
434.29	1114.45
434.65	1116.95
435.02	1113.88
435.38	1116.01
435.75	1116.20
436.11	1114.94
436.48	1117.65
436.84	1119.20
437.21	1116.72
437.57	1117.70
437.94	1119.31
438.30	1115.73
438.67	1115.29
439.03	1117.61
439.40	1118.26
439.76	1115.24
440.13	1113.88
440.49	1109.41
440.86	1108.20
441.22	1109.79
441.59	1113.74
441.95	1112.50
442.32	1117.04
442.68	1119.99
443.05	1116.81
443.41	1117.00
443.78	1118.21
444.14	1117.25
444.51	1114.91
444.87	1119.22
445.24	1117.32
445.60	1120.25
445.96	1121.12
446.33	1121.98
446.69	1119.97
447.06	1117.72
447.42	1116.86
447.79	1117.40
448.15	1119.08
448.51	1118.61
448.88	1120.86
449.24	1118.85
449.61	1116.95
449.97	1112.74
450.33	1110.42
450.70	1109.13
451.06	1109.41
451.43	1112.25
451.79	1114.54
452.15	1116.46
452.52	1116.25
452.88	1117.04
453.24	1113.93
453.61	1109.98
453.97	1107.78
454.34	1106.93
454.70	1105.67
455.06	1105.58
455.43	1108.20
455.79	1110.72
456.15	1113.04
456.52	1114.73
456.88	1119.97
457.24	1120.39
457.61	1118.50
457.97	1117.04
458.33	1117.42
458.70	1111.89
459.06	1110.87
459.42	1108.97
459.79	1112.90
460.15	1114.49
460.51	1116.95
460.88	1116.69
461.24	1120.72
461.60	1118.89
461.96	1117.72
462.33	1118.50
462.69	1120.98
463.05	1121.75
463.42	1121.37
463.78	1122.90
464.14	1124.00
464.50	1124.14
464.87	1126.01
465.23	1129.57
465.59	1129.45
465.95	1130.34
466.32	1132.70
466.68	1135.42
467.04	1134.88
467.40	1137.15
467.77	1137.41
468.13	1137.10
468.49	1136.92
468.85	1137.76
469.22	1137.97
469.58	1141.15
469.94	1143.12
470.30	1142.72
470.66	1145.25
471.03	1143.87
471.39	1147.40
471.75	1149.04
472.11	1151.61
472.47	1157.84
472.84	1163.29
473.20	1166.15
473.56	1170.29
473.92	1175.00
474.28	1179.02
474.65	1182.53
475.01	1185.95
475.37	1194.00
475.73	1197.42
476.09	1197.39
476.45	1204.09
476.81	1209.94
477.18	1213.66
477.54	1223.12
477.90	1233.42
478.26	1240.30
478.62	1245.73
478.98	1254.55
479.34	1263.73
479.71	1271.61
480.07	1280.06
480.43	1287.67
480.79	1296.89
481.15	1305.13
481.51	1314.21
481.87	1328.86
482.23	1345.04
482.59	1360.76
482.96	1376.38
483.32	1395.78
483.68	1410.43
484.04	1426.84
484.40	1447.76
484.76	1475.22
485.12	1493.73
485.48	1516.46
485.84	1542.76
486.20	1570.03
486.56	1588.94
486.92	1616.19
487.28	1644.81
487.64	1675.05
488.00	1705.01
488.37	1740.35
488.73	1783.16
489.09	1822.29
489.45	1863.65
489.81	1901.50
490.17	1946.34
490.53	1993.48
490.89	2045.68
491.25	2096.86
491.61	2154.81
491.97	2209.98
492.33	2262.39
492.69	2319.68
493.05	2383.62
493.41	2451.01
493.77	2526.19
494.13	2608.46
494.49	2689.18
494.85	2770.38
495.21	2858.54
495.57	2954.04
495.93	3050.35
496.29	3152.00
496.64	3266.76
497.00	3384.44
497.36	3502.28
497.72	3632.58
498.08	3776.43
498.44	3921.71
498.80	4066.38
499.16	4224.62
499.52	4390.80
499.88	4562.41
500.24	4741.64
500.60	4932.14
500.96	5127.27
501.32	5305.13
501.68	5490.08
502.03	5689.05
502.39	5914.56
502.75	6154.18
503.11	6428.33
503.47	6710.20
503.83	7013.70
504.19	7321.29
504.55	7651.14
504.91	7971.86
505.26	8303.35
505.62	8676.01
505.98	9079.20
506.34	9465.85
506.70	9913.67
507.06	10395.23
507.42	10860.27
507.78	11302.94
508.13	11823.33
508.49	12333.20
508.85	12900.31
509.21	13460.19
509.57	14057.56
509.93	14660.48
510.28	15307.08
510.64	15984.13
511.00	16680.11
511.36	17404.95
511.72	18183.53
512.07	19016.57
512.43	19798.45
512.79	20710.75
513.15	21610.40
513.51	22397.31
513.86	23196.67
514.22	24130.67
514.58	25024.17
514.94	25914.43
515.30	26967.65
515.65	28054.27
516.01	29040.20
516.37	29981.33
516.73	30986.45
517.08	31875.57
517.44	32637.86
517.80	33479.26
518.16	34396.16
518.51	35330.04
518.87	36252.14
519.23	37289.25
519.59	38283.25
519.94	39252.19
520.30	40202.80
520.66	41053.96
521.01	41863.22
521.37	42636.44
521.73	43294.43
522.09	43835.78
522.44	44554.23
522.80	45107.93
523.16	45466.19
523.51	45800.63
523.87	46172.43
524.23	46451.98
524.58	46693.85
524.94	47122.43
525.30	47443.43
525.65	47587.84
526.01	47559.48
526.37	47710.86
526.72	47804.58
527.08	47771.60
527.44	47669.08
527.79	47576.33
528.15	47394.26
528.51	47052.80
528.86	46798.92
529.22	46497.32
529.58	46169.71
529.93	45723.14
530.29	45177.30
530.65	44700.72
531.00	44265.48
531.36	43658.93
531.71	43062.74
532.07	42655.96
532.43	41961.17
532.78	41213.51
533.14	40625.40
533.49	39969.91
533.85	39208.63
534.21	38639.97
534.56	38114.20
534.92	37502.45
535.27	36856.37
535.63	36080.81
535.98	35326.38
536.34	34582.40
536.69	33822.15
537.05	33108.33
537.41	32539.86
537.76	31897.73
538.12	31170.88
538.47	30593.77
538.83	30060.23
539.18	29478.04
539.54	28932.18
539.89	28482.26
540.25	27957.11
540.60	27426.33
540.96	26825.89
541.31	26318.74
541.67	25900.56
542.02	25469.10
542.38	25020.96
542.73	24578.93
543.09	24086.13
543.44	23551.20
543.80	23042.93
544.15	22557.69
544.51	22204.01
544.86	21810.54
545.22	21452.25
545.57	21098.60
545.93	20686.24
546.28	20276.44
546.64	19920.00
546.99	19532.03
547.35	19154.36
547.70	18806.16
548.05	18408.85
548.41	17995.19
548.76	17543.09
549.12	17126.40
549.47	16742.39
549.83	16406.99
550.18	16062.37
550.53	15723.34
550.89	15358.95
551.24	14982.35
551.60	14645.13
551.95	14354.18
552.30	14099.27
552.66	13877.32
553.01	13666.08
553.37	13415.95
553.72	13131.46
554.07	12838.63
554.43	12540.15
554.78	12235.10
555.13	11937.67
555.49	11628.90
555.84	11361.83
556.19	11097.25
556.55	10800.71
556.90	10525.23
557.26	10308.12
557.61	10099.41
557.96	9871.84
558.32	9683.45
558.67	9475.85
559.02	9254.01
559.37	9045.26
559.73	8875.36
560.08	8702.42
560.43	8511.76
560.79	8315.36
561.14	8105.46
561.49	7890.88
561.85	7681.40
562.20	7513.73
562.55	7378.26
562.90	7236.91
563.26	7093.44
563.61	6948.54
563.96	6785.10
564.32	6609.13
564.67	6452.90
565.02	6320.80
565.37	6213.40
565.73	6075.56
566.08	5948.66
566.43	5831.59
566.78	5702.25
567.14	5570.05
567.49	5463.93
567.84	5345.85
568.19	5228.17
568.54	5121.00
568.90	5019.68
569.25	4934.65
569.60	4853.29
569.95	4774.58
570.31	4699.14
570.66	4613.22
571.01	4515.48
571.36	4424.46
571.71	4334.23
572.06	4241.50
572.42	4158.15
572.77	4074.66
573.12	4002.04
573.47	3926.88
573.82	3866.87
574.18	3802.32
574.53	3742.26
574.88	3687.77
575.23	3622.45
575.58	3554.57
575.93	3486.18
576.28	3429.52
576.64	3365.48
576.99	3309.33
577.34	3245.13
577.69	3187.44
578.04	3125.25
578.39	3063.08
578.74	3001.25
579.09	2948.28
579.44	2897.65
579.80	2848.95
580.15	2802.72
580.50	2762.00
580.85	2709.19
581.20	2664.58
581.55	2627.09
581.90	2583.60
582.25	2537.96
582.60	2499.55
582.95	2460.68
583.30	2420.42
583.65	2389.17
584.00	2355.42
584.35	2322.84
584.71	2290.47
585.06	2256.74
585.41	2223.67
585.76	2201.93
586.11	2177.21
586.46	2148.61
586.81	2119.57
587.16	2095.83
587.51	2068.75
587.86	2048.23
588.21	2029.57
588.56	2008.62
588.91	1988.43
589.26	1964.67
589.61	1940.12
589.96	1916.64
590.31	1896.19
590.66	1872.97
591.01	1853.17
591.36	1830.77
591.71	1805.61
592.06	1782.60
592.41	1764.11
592.76	1746.51
593.10	1732.82
593.45	1721.91
593.80	1710.18
594.15	1694.08
594.50	1686.31
594.85	1672.10
595.20	1657.92
595.55	1645.65
595.90	1633.62
596.25	1615.09
596.60	1600.86
596.95	1586.56
597.30	1575.51
597.64	1613.10
597.99	1602.80
598.34	1595.31
598.69	1583.75
599.04	1570.78
599.39	1511.61
599.74	1501.73
600.09	1489.03
600.44	1480.08
600.78	1470.54
601.13	1462.09
601.48	1451.25
601.83	1445.05
602.18	1434.82
602.53	1427.73
602.88	1420.49
603.22	1412.21
603.57	1404.95
603.92	1401.33
604.27	1390.49
604.62	1381.59
604.97	1374.64
605.31	1367.20
605.66	1361.79
606.01	1359.29
606.36	1352.15
606.71	1347.07
607.05	1337.43
607.40	1328.96
607.75	1321.82
608.10	1319.13
608.44	1312.43
608.79	1309.83
609.14	1306.09
609.49	1305.53
609.84	1300.45
610.18	1296.80
610.53	1291.79
610.88	1289.03
611.23	1281.98
611.57	1274.94
611.92	1270.19
612.27	1264.15
612.62	1254.97
612.96	1247.01
613.31	1244.58
613.66	1240.46
614.00	1238.38
614.35	1239.48
614.70	1237.18
615.05	1234.45
615.39	1232.97
615.74	1229.97
616.09	1221.36
616.43	1219.11
616.78	1217.62
617.13	1211.70
617.47	1205.91
617.82	1206.27
618.17	1202.99
618.51	1198.35
618.86	1195.85
619.21	1195.52
619.55	1190.40
619.90	1190.05
620.25	1186.72
620.59	1183.84
620.94	1182.04
621.29	1183.59
621.63	1179.54
621.98	1174.36
622.32	1174.81
622.67	1174.39
623.02	1172.68
623.36	1174.64
623.71	1174.69
624.05	1167.95
624.40	1161.96
624.75	1157.09
625.09	1151.17
625.44	1151.82
625.78	1154.00
626.13	1153.98
626.48	1154.16
626.82	1152.32
627.17	1150.89
627.51	1150.23
627.86	1151.22
628.20	1151.10
628.55	1150.28
628.89	1146.63
629.24	1146.25
629.58	1142.23
629.93	1139.51
630.28	1140.00
630.62	1139.02
630.97	1137.57
631.31	1137.55
631.66	1135.93
632.00	1134.25
632.35	1135.32
632.69	1134.48
633.04	1131.74
633.38	1132.91
633.73	1131.44
634.07	1133.12
634.42	1130.81
634.76	1133.57
635.11	1130.34
635.45	1128.37
635.79	1123.39
636.14	1126.43
636.48	1126.17
636.83	1127.46
637.17	1127.65
637.52	1127.88
637.86	1121.35
638.21	1120.88
638.55	1116.79
638.89	1115.97
639.24	1115.92
639.58	1118.87
639.93	1120.74
640.27	1121.40
640.61	1120.77
640.96	1118.21
641.30	1118.26
641.65	1114.10
641.99	1116.44
642.33	1116.30
642.68	1117.23
643.02	1115.90
643.37	1110.77
643.71	1111.22
644.05	1110.65
644.40	1109.06
644.74	1107.94
645.08	1112.34
645.43	1109.37
645.77	1109.74
646.11	1109.39
646.46	1108.34
646.80	1108.24
647.14	1106.63
647.49	1106.39
647.83	1107.68
648.17	1108.76
648.52	1109.32
648.86	1109.34
649.20	1109.09
649.55	1106.86
649.89	1109.48
650.23	1107.05
650.57	1104.59
650.92	1104.38
651.26	1106.75
651.60	1102.51
651.95	1101.48
652.29	1102.44
652.63	1102.60
652.97	1101.41
653.32	1103.89
653.66	1103.49
654.00	1108.97
654.34	1106.23
654.69	1104.55
655.03	1103.49
655.37	1105.04
655.71	1101.78
656.05	1104.10
656.40	1105.13
656.74	1103.70
657.08	1103.61
657.42	1101.36
657.76	1098.81
658.11	1098.30
658.45	1095.56
658.79	1096.56
659.13	1098.98
659.47	1103.12
659.82	1103.26
660.16	1104.90
660.50	1101.36
660.84	1099.05
661.18	1093.01
661.52	1092.89
661.87	1096.40
662.21	1099.89
662.55	1101.62
662.89	1104.03
663.23	1099.86
663.57	1095.63
663.91	1094.32
664.25	1093.94
664.60	1093.99
664.94	1099.82
665.28	1101.43
665.62	1102.42
665.96	1102.21
666.30	1100.71
666.64	1098.98
666.98	1095.25
667.32	1092.07
667.66	1089.99
668.01	1091.02
668.35	1089.38
668.69	1093.90
669.03	1093.47
669.37	1093.71
669.71	1097.13
670.05	1101.13
670.39	1098.62
670.73	1100.08
671.07	1102.49
671.41	1098.86
671.75	1095.37
672.09	1096.05
672.43	1095.00
672.77	1094.34
673.11	1092.16
673.45	1092.59
673.79	1092.28
674.13	1087.79
674.47	1086.38
674.81	1089.33
675.15	1090.17
675.49	1089.03
675.83	1092.28
676.17	1092.12
676.51	1093.12
676.85	1093.12
677.19	1093.17
677.53	1095.37
677.87	1098.55
678.21	1096.52
678.55	1095.02
678.89	1098.53
679.23	1095.18
679.57	1091.56
679.90	1092.49
680.24	1092.16
680.58	1087.60
680.92	1090.53
681.26	1088.98
681.60	1088.14
681.94	1087.55
682.28	1090.53
682.62	1090.39
682.96	1091.70
683.29	1093.40
683.63	1096.38
683.97	1093.47
684.31	1094.55
684.65	1092.07
684.99	1089.61
685.33	1088.63
685.67	1092.05
686.00	1091.06
686.34	1095.46
686.68	1095.93
687.02	1095.16
687.36	1093.43
687.70	1093.29
688.03	1092.14
688.37	1090.92
688.71	1092.05
689.05	1091.34
689.39	1093.24
689.72	1091.70
690.06	1095.65
690.40	1094.34
690.74	1095.42
691.08	1095.72
691.41	1098.06
691.75	1097.50
692.09	1096.40
692.43	1096.05
692.76	1092.21
693.10	1092.21
693.44	1092.91
693.78	1095.91
694.11	1094.53
694.45	1097.48
694.79	1097.97
695.13	1094.90
695.46	1093.24
695.80	1095.63
696.14	1093.12
696.48	1094.06
696.81	1096.70
697.15	1097.36
697.49	1093.69
697.82	1093.66
698.16	1091.30
698.50	1088.84
698.83	1087.09
699.17	1089.82
699.51	1090.10
699.84	1093.26
700.18	1093.73
700.52	1093.64
700.85	1093.36
701.19	1093.15
701.53	1089.78
701.86	1087.11
702.20	1085.31
702.54	1084.25
702.87	1084.77
703.21	1083.36
703.55	1085.68
703.88	1088.44
704.22	1086.71
704.55	1087.32
704.89	1089.33
705.23	1088.47
705.56	1089.94
705.90	1093.10
706.23	1092.40
706.57	1087.76
706.91	1086.27
707.24	1084.86
707.58	1082.73
707.91	1082.54
708.25	1086.45
708.58	1090.74
708.92	1090.69
709.26	1094.83
709.59	1094.79
709.93	1095.28
710.26	1092.61
710.60	1091.60
710.93	1089.85
711.27	1091.11
711.60	1089.40
711.94	1090.60
712.27	1091.34
712.61	1092.56
712.94	1092.02
713.28	1092.56
713.61	1091.44
713.95	1089.64
714.28	1086.01
714.62	1088.30
714.95	1090.29
715.29	1086.80
715.62	1087.79
715.96	1087.97
716.29	1085.40
716.63	1086.17
716.96	1089.68
717.29	1088.82
717.63	1085.28
717.96	1082.22
718.30	1077.21
718.63	1075.85
718.97	1073.49
719.30	1078.00
719.63	1082.01
719.97	1084.96
720.30	1084.42
720.64	1085.61
720.97	1083.01
721.30	1078.68
721.64	1074.87
721.97	1075.66
722.31	1078.94
722.64	1083.13
722.97	1086.50
723.31	1091.67
723.64	1093.05
723.97	1092.30
724.31	1089.52
724.64	1088.79
724.98	1087.32
725.31	1086.03
725.64	1086.27
725.98	1086.34
726.31	1085.14
726.64	1085.38
726.97	1088.54
727.31	1087.41
727.64	1088.23
727.97	1091.98
728.31	1092.19
728.64	1087.88
728.97	1091.16
729.31	1092.37
729.64	1089.78
729.97	1087.23
730.30	1092.14
730.64	1088.79
730.97	1088.47
731.30	1088.75
731.63	1090.13
731.97	1088.23
732.30	1090.41
732.63	1087.86
732.96	1088.35
733.30	1090.64
733.63	1091.44
733.96	1090.88
734.29	1094.46
734.63	1091.67
734.96	1087.90
735.29	1085.03
735.62	1084.23
735.95	1082.71
736.29	1085.91
736.62	1088.86
736.95	1092.91
737.28	1089.85
737.61	1090.39
737.94	1088.72
738.28	1086.34
738.61	1082.92
738.94	1085.49
739.27	1081.84
739.60	1082.76
739.93	1082.97
740.27	1083.41
740.60	1083.25
740.93	1085.63
741.26	1086.24
741.59	1086.99
741.92	1092.89
742.25	1092.19
742.58	1093.40
742.91	1094.43
743.25	1095.72
743.58	1090.62
743.91	1091.13
744.24	1090.71
744.57	1088.86
744.90	1086.69
745.23	1085.10
745.56	1087.88
745.89	1087.23
746.22	1086.15
746.55	1086.48
746.88	1086.66
747.21	1083.60
747.54	1082.15
747.87	1084.79
748.20	1083.27
748.53	1084.53
748.87	1087.74
749.20	1092.28
749.53	1092.84
749.86	1096.94
750.19	1098.95
750.52	1093.97
750.85	1091.86
751.18	1091.39
751.51	1091.39
751.84	1089.03
752.16	1090.24
752.49	1090.60
752.82	1087.13
753.15	1087.41
753.48	1086.24
753.81	1086.22
754.14	1082.71
754.47	1084.56
754.80	1085.00
755.13	1085.89
755.46	1087.69
755.79	1090.53
756.12	1094.50
756.45	1092.75
756.78	1090.69
757.11	1089.71
757.43	1090.92
757.76	1086.69
758.09	1085.00
758.42	1086.64
758.75	1084.18
759.08	1085.24
759.41	1086.17
759.74	1083.62
760.07	1083.39
760.39	1085.31
760.72	1081.12
761.05	1079.01
761.38	1082.94
761.71	1084.00
762.04	1084.04
762.36	1085.80
762.69	1085.68
763.02	1083.71
763.35	1083.69
