SpectraSuite Data File
++++++++++++++++++++++++++++++++++++
Date: Mon Aug 26 10:26:29 PDT 2019
User: corrico
Dark Spectrum Present: No
Reference Spectrum Present: No
Number of Sampled Component Spectra: 1
Spectrometers: USB2+H06089
Integration Time (usec): 10000 (USB2+H06089)
Spectra Averaged: 20 (USB2+H06089)
Boxcar Smoothing: 2 (USB2+H06089)
Correct for Electrical Dark: No (USB2+H06089)
Strobe/Lamp Enabled: No (USB2+H06089)
Correct for Detector Non-linearity: No (USB2+H06089)
Correct for Stray Light: No (USB2+H06089)
Number of Pixels in Processed Spectrum: 2048
>>>>>Begin Processed Spectral Data<<<<<
339.70	1018.95
340.07	1018.95
340.45	991.29
340.82	972.24
341.19	951.54
341.57	929.33
341.94	918.61
342.31	910.94
342.69	906.56
343.06	906.40
343.43	904.83
343.81	905.74
344.18	906.58
344.55	911.26
344.93	914.73
345.30	923.43
345.67	932.42
346.04	941.06
346.42	948.20
346.79	954.24
347.16	960.58
347.54	967.93
347.91	975.14
348.28	985.11
348.65	997.19
349.03	1009.38
349.40	1017.99
349.77	1024.90
350.14	1032.76
350.52	1037.86
350.89	1042.90
351.26	1046.45
351.63	1055.30
352.01	1062.70
352.38	1068.69
352.75	1071.80
353.12	1080.25
353.50	1083.69
353.87	1081.54
354.24	1084.21
354.61	1086.62
354.98	1090.83
355.36	1089.96
355.73	1092.82
356.10	1092.47
356.47	1093.10
356.84	1090.22
357.22	1090.41
357.59	1087.30
357.96	1088.02
358.33	1085.12
358.70	1082.40
359.08	1082.87
359.45	1084.79
359.82	1081.66
360.19	1082.24
360.56	1084.79
360.94	1085.28
361.31	1085.47
361.68	1086.50
362.05	1087.11
362.42	1084.65
362.79	1085.07
363.16	1082.83
363.54	1081.49
363.91	1078.61
364.28	1077.58
364.65	1071.85
365.02	1071.90
365.39	1072.20
365.76	1074.10
366.14	1075.31
366.51	1078.89
366.88	1079.55
367.25	1079.95
367.62	1080.70
367.99	1080.88
368.36	1082.54
368.73	1081.89
369.10	1081.89
369.48	1080.72
369.85	1076.39
370.22	1074.52
370.59	1075.01
370.96	1075.57
371.33	1076.62
371.70	1075.59
372.07	1073.21
372.44	1073.65
372.81	1072.46
373.18	1073.58
373.55	1076.90
373.93	1081.00
374.30	1082.08
374.67	1083.50
375.04	1082.97
375.41	1085.31
375.78	1083.53
376.15	1081.89
376.52	1076.76
376.89	1077.79
377.26	1077.56
377.63	1079.15
378.00	1081.19
378.37	1086.73
378.74	1084.00
379.11	1083.62
379.48	1084.32
379.85	1085.26
380.22	1086.34
380.59	1087.55
380.96	1087.67
381.33	1088.02
381.70	1088.33
382.07	1086.27
382.44	1083.55
382.81	1083.71
383.18	1080.84
383.55	1079.76
383.92	1080.84
384.29	1080.09
384.66	1076.48
385.03	1078.59
385.40	1077.65
385.77	1079.01
386.14	1081.80
386.51	1084.37
386.88	1084.21
387.25	1084.67
387.62	1082.08
387.99	1082.92
388.36	1082.83
388.73	1081.94
389.10	1082.80
389.46	1084.39
389.83	1084.81
390.20	1085.77
390.57	1088.12
390.94	1085.75
391.31	1085.12
391.68	1085.66
392.05	1084.93
392.42	1084.14
392.79	1085.84
393.16	1086.57
393.53	1089.45
393.89	1092.49
394.26	1092.16
394.63	1094.97
395.00	1095.09
395.37	1090.76
395.74	1084.96
396.11	1086.83
396.48	1082.33
396.84	1083.27
397.21	1083.64
397.58	1088.09
397.95	1085.35
398.32	1087.13
398.69	1086.01
399.06	1085.49
399.42	1086.55
399.79	1086.76
400.16	1087.34
400.53	1086.64
400.90	1090.34
401.27	1088.75
401.64	1090.10
402.00	1092.23
402.37	1093.85
402.74	1092.84
403.11	1094.83
403.48	1096.56
403.84	1097.31
404.21	1098.39
404.58	1098.65
404.95	1097.97
405.32	1097.43
405.68	1095.02
406.05	1095.32
406.42	1094.34
406.79	1097.80
407.16	1098.04
407.52	1101.03
407.89	1098.58
408.26	1099.30
408.63	1095.53
408.99	1097.50
409.36	1095.51
409.73	1096.21
410.10	1097.34
410.47	1096.49
410.83	1093.64
411.20	1092.33
411.57	1092.05
411.94	1092.30
412.30	1094.04
412.67	1100.05
413.04	1103.12
413.40	1106.14
413.77	1107.64
414.14	1111.22
414.51	1105.67
414.87	1104.17
415.24	1103.68
415.61	1101.99
415.97	1098.16
416.34	1096.70
416.71	1096.14
417.08	1096.63
417.44	1098.74
417.81	1102.65
418.18	1105.81
418.54	1108.22
418.91	1107.14
419.28	1104.33
419.64	1099.56
420.01	1099.33
420.38	1100.15
420.74	1101.43
421.11	1106.14
421.48	1107.54
421.84	1107.64
422.21	1105.65
422.58	1105.08
422.94	1101.43
423.31	1105.46
423.68	1105.27
424.04	1107.21
424.41	1108.85
424.77	1108.59
425.14	1106.37
425.51	1109.37
425.87	1111.15
426.24	1110.42
426.61	1114.52
426.97	1118.14
427.34	1116.11
427.70	1116.55
428.07	1117.47
428.44	1118.47
428.80	1116.86
429.17	1118.68
429.53	1118.68
429.90	1119.67
430.27	1115.64
430.63	1117.79
431.00	1116.86
431.36	1115.83
431.73	1116.88
432.09	1116.44
432.46	1112.18
432.83	1112.11
433.19	1112.57
433.56	1109.27
433.92	1110.40
434.29	1113.88
434.65	1113.93
435.02	1110.79
435.38	1110.63
435.75	1110.82
436.11	1110.56
436.48	1112.85
436.84	1114.49
437.21	1117.37
437.57	1116.86
437.94	1114.21
438.30	1110.42
438.67	1111.92
439.03	1110.82
439.40	1110.21
439.76	1108.55
440.13	1112.69
440.49	1116.06
440.86	1114.49
441.22	1115.73
441.59	1117.89
441.95	1116.34
442.32	1115.52
442.68	1118.24
443.05	1121.58
443.41	1123.81
443.78	1122.97
444.14	1121.12
444.51	1120.04
444.87	1115.99
445.24	1112.25
445.60	1112.06
445.96	1109.18
446.33	1106.30
446.69	1104.87
447.06	1106.49
447.42	1107.54
447.79	1106.86
448.15	1108.24
448.51	1109.30
448.88	1107.71
449.24	1105.81
449.61	1107.40
449.97	1108.88
450.33	1109.32
450.70	1109.55
451.06	1110.54
451.43	1108.50
451.79	1107.94
452.15	1109.23
452.52	1110.51
452.88	1110.40
453.24	1110.77
453.61	1112.71
453.97	1112.95
454.34	1114.12
454.70	1115.24
455.06	1115.69
455.43	1112.69
455.79	1110.16
456.15	1110.70
456.52	1111.57
456.88	1112.08
457.24	1112.34
457.61	1115.76
457.97	1115.08
458.33	1114.24
458.70	1113.63
459.06	1118.24
459.42	1114.59
459.79	1115.03
460.15	1115.69
460.51	1120.16
460.88	1119.31
461.24	1124.23
461.60	1121.68
461.96	1121.51
462.33	1119.34
462.69	1115.55
463.05	1114.14
463.42	1116.72
463.78	1117.40
464.14	1117.79
464.50	1120.91
464.87	1123.15
465.23	1123.64
465.59	1123.15
465.95	1125.59
466.32	1130.99
466.68	1128.75
467.04	1132.37
467.40	1133.85
467.77	1131.16
468.13	1129.14
468.49	1133.40
468.85	1135.53
469.22	1135.00
469.58	1138.25
469.94	1137.38
470.30	1138.25
470.66	1135.77
471.03	1140.36
471.39	1143.38
471.75	1146.86
472.11	1147.96
472.47	1151.94
472.84	1153.16
473.20	1155.50
473.56	1157.18
473.92	1160.74
474.28	1167.11
474.65	1167.62
475.01	1171.06
475.37	1176.63
475.73	1180.75
476.09	1182.39
476.45	1188.85
476.81	1194.33
477.18	1199.24
477.54	1205.82
477.90	1209.40
478.26	1216.05
478.62	1220.10
478.98	1226.86
479.34	1234.02
479.71	1241.89
480.07	1251.02
480.43	1257.66
480.79	1264.66
481.15	1273.67
481.51	1283.18
481.87	1293.01
482.23	1306.53
482.59	1322.52
482.96	1335.77
483.32	1350.07
483.68	1366.22
484.04	1385.11
484.40	1400.97
484.76	1418.67
485.12	1438.77
485.48	1458.34
485.84	1475.94
486.20	1494.48
486.56	1515.82
486.92	1542.25
487.28	1563.69
487.64	1590.25
488.00	1622.13
488.37	1653.57
488.73	1683.62
489.09	1721.04
489.45	1757.53
489.81	1789.13
490.17	1825.71
490.53	1866.62
490.89	1907.86
491.25	1951.80
491.61	2002.30
491.97	2054.66
492.33	2105.59
492.69	2163.31
493.05	2221.07
493.41	2280.66
493.77	2337.54
494.13	2403.71
494.49	2468.82
494.85	2543.39
495.21	2619.01
495.57	2702.08
495.93	2783.37
496.29	2872.63
496.64	2967.75
497.00	3061.21
497.36	3160.12
497.72	3272.96
498.08	3380.41
498.44	3495.31
498.80	3622.07
499.16	3756.70
499.52	3889.10
499.88	4047.82
500.24	4207.79
500.60	4366.20
500.96	4535.28
501.32	4718.68
501.68	4891.67
502.03	5080.39
502.39	5291.48
502.75	5502.30
503.11	5730.47
503.47	5966.70
503.83	6221.12
504.19	6482.21
504.55	6764.94
504.91	7037.71
505.26	7321.87
505.62	7626.64
505.98	7949.63
506.34	8296.24
506.70	8677.63
507.06	9078.59
507.42	9468.54
507.78	9867.35
508.13	10276.29
508.49	10708.54
508.85	11181.02
509.21	11695.07
509.57	12237.65
509.93	12809.45
510.28	13434.60
510.64	14068.00
511.00	14699.29
511.36	15308.72
511.72	15916.74
512.07	16565.66
512.43	17203.15
512.79	17869.41
513.15	18596.49
513.51	19362.57
513.86	20095.37
514.22	20892.16
514.58	21695.99
514.94	22533.77
515.30	23377.53
515.65	24212.44
516.01	25093.16
516.37	25963.14
516.73	26800.05
517.08	27713.02
517.44	28570.54
517.80	29429.73
518.16	30325.60
518.51	31165.17
518.87	31893.15
519.23	32788.52
519.59	33693.35
519.94	34546.00
520.30	35421.85
520.66	36226.34
521.01	37016.13
521.37	37668.93
521.73	38337.60
522.09	38974.46
522.44	39655.35
522.80	40062.74
523.16	40446.40
523.51	40671.91
523.87	40946.48
524.23	41208.27
524.58	41505.84
524.94	41906.31
525.30	42266.17
525.65	42480.23
526.01	42536.90
526.37	42565.24
526.72	42478.78
527.08	42334.88
527.44	42171.98
527.79	42023.01
528.15	41918.95
528.51	41702.64
528.86	41492.99
529.22	41247.71
529.58	41001.13
529.93	40607.50
530.29	40156.52
530.65	39754.58
531.00	39402.17
531.36	38983.59
531.71	38555.64
532.07	38078.34
532.43	37490.61
532.78	36773.75
533.14	36105.95
533.49	35454.69
533.85	34826.75
534.21	34225.49
534.56	33687.35
534.92	33125.51
535.27	32543.72
535.63	31924.74
535.98	31278.59
536.34	30643.37
536.69	29962.91
537.05	29295.53
537.41	28763.97
537.76	28250.41
538.12	27675.36
538.47	27182.54
538.83	26751.13
539.18	26264.20
539.54	25786.52
539.89	25319.00
540.25	24782.25
540.60	24259.51
540.96	23721.21
541.31	23224.78
541.67	22792.72
542.02	22381.91
542.38	21945.71
542.73	21489.86
543.09	21072.78
543.44	20708.01
543.80	20370.76
544.15	19973.64
544.51	19638.62
544.86	19324.38
545.22	18939.99
545.57	18533.11
545.93	18147.79
546.28	17825.10
546.64	17486.59
546.99	17132.91
547.35	16795.66
547.70	16501.24
548.05	16169.71
548.41	15846.01
548.76	15551.20
549.12	15280.54
549.47	15002.58
549.83	14746.12
550.18	14434.04
550.53	14103.79
550.89	13829.22
551.24	13545.08
551.60	13238.61
551.95	12975.27
552.30	12741.57
552.66	12478.68
553.01	12210.60
553.37	11935.35
553.72	11662.82
554.07	11387.83
554.43	11081.76
554.78	10796.89
555.13	10519.51
555.49	10277.41
555.84	10074.60
556.19	9891.97
556.55	9698.03
556.90	9514.61
557.26	9317.63
557.61	9092.05
557.96	8850.38
558.32	8643.27
558.67	8427.45
559.02	8194.64
559.37	8009.41
559.73	7858.16
560.08	7696.62
560.43	7543.27
560.79	7411.38
561.14	7244.50
561.49	7070.34
561.85	6899.20
562.20	6753.03
562.55	6619.46
562.90	6490.73
563.26	6366.51
563.61	6261.87
563.96	6141.59
564.32	6006.40
564.67	5880.62
565.02	5753.58
565.37	5629.97
565.73	5515.94
566.08	5419.28
566.43	5311.54
566.78	5205.00
567.14	5102.06
567.49	4986.35
567.84	4874.59
568.19	4766.01
568.54	4667.92
568.90	4571.02
569.25	4488.09
569.60	4416.08
569.95	4338.84
570.31	4260.62
570.66	4178.70
571.01	4099.28
571.36	4002.85
571.71	3936.87
572.06	3865.86
572.42	3802.13
572.77	3734.11
573.12	3677.38
573.47	3608.47
573.82	3546.99
574.18	3477.61
574.53	3412.69
574.88	3359.75
575.23	3305.07
575.58	3253.77
575.93	3206.21
576.28	3157.31
576.64	3099.59
576.99	3040.40
577.34	2981.16
577.69	2924.05
578.04	2874.41
578.39	2820.30
578.74	2776.76
579.09	2739.06
579.44	2698.90
579.80	2656.70
580.15	2615.46
580.50	2573.58
580.85	2533.65
581.20	2502.45
581.55	2469.31
581.90	2437.50
582.25	2405.13
582.60	2369.16
582.95	2327.87
583.30	2292.48
583.65	2258.78
584.00	2222.57
584.35	2188.45
584.71	2158.25
585.06	2128.44
585.41	2095.62
585.76	2069.34
586.11	2041.35
586.46	2016.72
586.81	1993.60
587.16	1972.49
587.51	1952.15
587.86	1934.71
588.21	1917.44
588.56	1895.81
588.91	1878.07
589.26	1860.45
589.61	1839.99
589.96	1820.87
590.31	1804.20
590.66	1786.06
591.01	1769.28
591.36	1753.18
591.71	1732.72
592.06	1714.75
592.41	1700.87
592.76	1679.57
593.10	1667.80
593.45	1653.82
593.80	1635.75
594.15	1616.96
594.50	1606.31
594.85	1587.84
595.20	1577.38
595.55	1569.84
595.90	1560.72
596.25	1551.92
596.60	1545.06
596.95	1529.80
597.30	1519.92
597.64	1561.37
597.99	1550.72
598.34	1538.95
598.69	1528.81
599.04	1519.66
599.39	1456.21
599.74	1443.46
600.09	1434.94
600.44	1434.00
600.78	1426.42
601.13	1420.52
601.48	1417.43
601.83	1408.25
602.18	1394.26
602.53	1380.33
602.88	1370.76
603.22	1361.89
603.57	1354.21
603.92	1349.93
604.27	1349.69
604.62	1344.71
604.97	1336.75
605.31	1331.86
605.66	1326.08
606.01	1318.61
606.36	1312.36
606.71	1305.06
607.05	1301.10
607.40	1298.67
607.75	1294.83
608.10	1290.15
608.44	1287.27
608.79	1281.84
609.14	1274.47
609.49	1269.20
609.84	1270.30
610.18	1269.51
610.53	1268.80
610.88	1269.62
611.23	1264.94
611.57	1261.60
611.92	1256.98
612.27	1252.61
612.62	1240.60
612.96	1240.04
613.31	1232.97
613.66	1226.67
614.00	1221.67
614.35	1223.91
614.70	1219.37
615.05	1217.15
615.39	1213.61
615.74	1208.21
616.09	1201.87
616.43	1199.90
616.78	1194.84
617.13	1191.92
617.47	1191.82
617.82	1190.30
618.17	1187.21
618.51	1185.13
618.86	1182.16
619.21	1180.45
619.55	1180.82
619.90	1175.18
620.25	1169.80
620.59	1170.97
620.94	1169.75
621.29	1168.44
621.63	1171.18
621.98	1175.91
622.32	1171.93
622.67	1167.53
623.02	1162.97
623.36	1158.07
623.71	1155.01
624.05	1153.74
624.40	1151.26
624.75	1149.23
625.09	1150.35
625.44	1145.74
625.78	1144.92
626.13	1144.36
626.48	1143.16
626.82	1140.52
627.17	1140.68
627.51	1141.64
627.86	1138.83
628.20	1137.97
628.55	1138.27
628.89	1135.39
629.24	1132.54
629.58	1133.99
629.93	1136.56
630.28	1133.73
630.62	1134.86
630.97	1136.80
631.31	1136.00
631.66	1130.01
632.00	1129.59
632.35	1126.52
632.69	1124.39
633.04	1123.01
633.38	1126.24
633.73	1124.09
634.07	1125.84
634.42	1123.93
634.76	1124.35
635.11	1120.48
635.45	1120.74
635.79	1120.16
636.14	1117.47
636.48	1116.86
636.83	1117.40
637.17	1114.19
637.52	1115.57
637.86	1117.18
638.21	1115.64
638.55	1112.83
638.89	1116.08
639.24	1115.12
639.58	1115.99
639.93	1115.99
640.27	1117.51
640.61	1113.86
640.96	1109.86
641.30	1109.65
641.65	1109.20
641.99	1109.95
642.33	1110.37
642.68	1113.88
643.02	1110.16
643.37	1108.43
643.71	1108.06
644.05	1107.54
644.40	1109.34
644.74	1108.48
645.08	1107.64
645.43	1106.68
645.77	1107.31
646.11	1101.85
646.46	1102.63
646.80	1104.15
647.14	1101.92
647.49	1103.19
647.83	1103.98
648.17	1104.94
648.52	1104.59
648.86	1108.38
649.20	1107.96
649.55	1108.20
649.89	1106.70
650.23	1105.06
650.57	1101.41
650.92	1100.15
651.26	1095.44
651.60	1093.38
651.95	1093.62
652.29	1091.09
652.63	1087.58
652.97	1091.18
653.32	1091.25
653.66	1092.63
654.00	1094.39
654.34	1097.43
654.69	1095.37
655.03	1095.51
655.37	1095.86
655.71	1095.70
656.05	1097.34
656.40	1098.04
656.74	1102.13
657.08	1101.53
657.42	1103.70
657.76	1102.46
658.11	1102.63
658.45	1099.30
658.79	1098.09
659.13	1096.17
659.47	1094.67
659.82	1092.61
660.16	1091.44
660.50	1093.38
660.84	1094.95
661.18	1095.51
661.52	1097.20
661.87	1098.53
662.21	1093.62
662.55	1092.82
662.89	1089.75
663.23	1089.10
663.57	1088.63
663.91	1090.39
664.25	1089.24
664.60	1090.95
664.94	1092.19
665.28	1091.70
665.62	1090.15
665.96	1090.10
666.30	1089.40
666.64	1086.66
666.98	1088.42
667.32	1090.10
667.66	1090.46
668.01	1092.42
668.35	1092.12
668.69	1091.91
669.03	1092.35
669.37	1093.33
669.71	1092.37
670.05	1094.57
670.39	1093.66
670.73	1093.19
671.07	1092.59
671.41	1092.42
671.75	1092.59
672.09	1092.80
672.43	1089.19
672.77	1089.59
673.11	1090.43
673.45	1087.09
673.79	1087.06
674.13	1092.14
674.47	1091.93
674.81	1088.77
675.15	1090.81
675.49	1087.93
675.83	1085.10
676.17	1083.81
676.51	1086.48
676.85	1087.16
677.19	1088.54
677.53	1091.02
677.87	1092.63
678.21	1091.93
678.55	1094.34
678.89	1093.76
679.23	1090.41
679.57	1090.53
679.90	1091.49
680.24	1090.60
680.58	1094.34
680.92	1094.76
681.26	1093.97
681.60	1091.67
681.94	1090.39
682.28	1088.37
682.62	1089.87
682.96	1089.43
683.29	1086.80
683.63	1086.83
683.97	1088.30
684.31	1088.00
684.65	1091.25
684.99	1098.18
685.33	1096.68
685.67	1093.78
686.00	1095.11
686.34	1091.81
686.68	1089.33
687.02	1090.10
687.36	1091.44
687.70	1089.92
688.03	1092.00
688.37	1093.73
688.71	1094.43
689.05	1094.67
689.39	1091.93
689.72	1089.00
690.06	1089.19
690.40	1088.56
690.74	1087.25
691.08	1091.70
691.41	1091.51
691.75	1088.49
692.09	1088.56
692.43	1087.58
692.76	1088.49
693.10	1090.41
693.44	1090.55
693.78	1092.47
694.11	1093.43
694.45	1090.92
694.79	1093.19
695.13	1091.42
695.46	1089.89
695.80	1090.36
696.14	1089.38
696.48	1087.02
696.81	1089.47
697.15	1090.71
697.49	1090.55
697.82	1092.75
698.16	1092.66
698.50	1091.65
698.83	1091.37
699.17	1091.88
699.51	1088.56
699.84	1084.77
700.18	1084.96
700.52	1083.60
700.85	1082.97
701.19	1086.41
701.53	1091.13
701.86	1092.19
702.20	1090.15
702.54	1089.73
702.87	1089.26
703.21	1084.93
703.55	1081.66
703.88	1082.76
704.22	1083.20
704.55	1081.37
704.89	1085.59
705.23	1089.92
705.56	1091.37
705.90	1093.29
706.23	1095.84
706.57	1092.26
706.91	1090.64
707.24	1091.46
707.58	1089.31
707.91	1088.28
708.25	1089.96
708.58	1089.75
708.92	1089.22
709.26	1092.56
709.59	1094.27
709.93	1091.39
710.26	1090.76
710.60	1090.60
710.93	1088.58
711.27	1084.28
711.60	1087.39
711.94	1087.44
712.27	1088.56
712.61	1086.17
712.94	1086.62
713.28	1085.26
713.61	1084.25
713.95	1082.26
714.28	1083.57
714.62	1084.79
714.95	1086.08
715.29	1086.01
715.62	1083.69
715.96	1081.21
716.29	1082.12
716.63	1081.30
716.96	1081.96
717.29	1084.53
717.63	1088.14
717.96	1087.20
718.30	1087.69
718.63	1085.89
718.97	1083.50
719.30	1084.14
719.63	1087.83
719.97	1089.82
720.30	1093.01
720.64	1094.76
720.97	1094.50
721.30	1092.77
721.64	1090.99
721.97	1089.03
722.31	1087.69
722.64	1086.15
722.97	1084.30
723.31	1082.64
723.64	1085.31
723.97	1085.24
724.31	1084.65
724.64	1081.33
724.98	1082.76
725.31	1081.73
725.64	1082.31
725.98	1083.95
726.31	1089.05
726.64	1085.99
726.97	1086.73
727.31	1085.40
727.64	1087.62
727.97	1086.29
728.31	1090.03
728.64	1087.62
728.97	1089.52
729.31	1088.14
729.64	1088.89
729.97	1087.18
730.30	1087.37
730.64	1088.96
730.97	1087.65
731.30	1089.14
731.63	1088.28
731.97	1089.66
732.30	1091.13
732.63	1091.93
732.96	1090.22
733.30	1091.56
733.63	1090.76
733.96	1087.23
734.29	1086.10
734.63	1085.94
734.96	1089.52
735.29	1090.50
735.62	1092.73
735.95	1093.57
736.29	1093.01
736.62	1092.45
736.95	1094.67
737.28	1092.56
737.61	1091.11
737.94	1091.65
738.28	1086.03
738.61	1084.72
738.94	1085.63
739.27	1086.80
739.60	1084.35
739.93	1086.08
740.27	1087.02
740.60	1087.34
740.93	1087.18
741.26	1088.84
741.59	1091.65
741.92	1091.18
742.25	1090.92
742.58	1089.54
742.91	1090.76
743.25	1089.57
743.58	1088.19
743.91	1088.70
744.24	1089.17
744.57	1087.16
744.90	1087.30
745.23	1086.94
745.56	1087.62
745.89	1087.86
746.22	1088.07
746.55	1084.67
746.88	1084.72
747.21	1082.78
747.54	1080.25
747.87	1081.73
748.20	1084.65
748.53	1086.06
748.87	1089.59
749.20	1090.71
749.53	1088.96
749.86	1088.35
750.19	1087.46
750.52	1083.71
750.85	1084.44
751.18	1086.55
751.51	1089.19
751.84	1087.02
752.16	1090.17
752.49	1089.68
752.82	1089.71
753.15	1085.82
753.48	1087.02
753.81	1082.47
754.14	1083.55
754.47	1081.14
754.80	1083.46
755.13	1084.98
755.46	1085.38
755.79	1085.68
756.12	1090.81
756.45	1089.68
756.78	1088.98
757.11	1092.59
757.43	1094.11
757.76	1089.47
758.09	1090.50
758.42	1090.39
758.75	1088.61
759.08	1084.60
759.41	1083.41
759.74	1082.99
760.07	1080.51
760.39	1080.02
760.72	1083.04
761.05	1085.14
761.38	1084.70
761.71	1089.22
762.04	1091.46
762.36	1088.42
762.69	1089.92
763.02	1090.03
763.35	1087.13
