SpectraSuite Data File
++++++++++++++++++++++++++++++++++++
Date: Mon Aug 26 10:26:32 PDT 2019
User: corrico
Dark Spectrum Present: No
Reference Spectrum Present: No
Number of Sampled Component Spectra: 1
Spectrometers: USB2+H06089
Integration Time (usec): 10000 (USB2+H06089)
Spectra Averaged: 20 (USB2+H06089)
Boxcar Smoothing: 2 (USB2+H06089)
Correct for Electrical Dark: No (USB2+H06089)
Strobe/Lamp Enabled: No (USB2+H06089)
Correct for Detector Non-linearity: No (USB2+H06089)
Correct for Stray Light: No (USB2+H06089)
Number of Pixels in Processed Spectrum: 2048
>>>>>Begin Processed Spectral Data<<<<<
339.70	1035.69
340.07	1035.69
340.45	999.99
340.82	981.20
341.19	957.42
341.57	933.36
341.94	920.98
342.31	911.24
342.69	904.31
343.06	901.67
343.43	898.25
343.81	901.36
344.18	904.45
344.55	906.56
344.93	909.58
345.30	915.73
345.67	923.86
346.04	933.17
346.42	941.08
346.79	951.54
347.16	962.24
347.54	970.74
347.91	977.36
348.28	986.56
348.65	997.35
349.03	1005.24
349.40	1014.72
349.77	1025.86
350.14	1035.01
350.52	1039.41
350.89	1046.59
351.26	1051.84
351.63	1055.07
352.01	1061.39
352.38	1066.04
352.75	1068.15
353.12	1072.50
353.50	1076.90
353.87	1080.32
354.24	1083.08
354.61	1088.40
354.98	1089.73
355.36	1091.74
355.73	1089.87
356.10	1093.43
356.47	1091.46
356.84	1092.12
357.22	1089.87
357.59	1091.13
357.96	1089.75
358.33	1092.77
358.70	1094.15
359.08	1096.96
359.45	1094.29
359.82	1094.39
360.19	1092.30
360.56	1089.57
360.94	1087.48
361.31	1087.67
361.68	1084.77
362.05	1085.42
362.42	1087.86
362.79	1088.14
363.16	1088.98
363.54	1089.05
363.91	1086.99
364.28	1083.95
364.65	1083.41
365.02	1084.70
365.39	1083.97
365.76	1083.67
366.14	1084.32
366.51	1086.62
366.88	1085.84
367.25	1085.14
367.62	1085.63
367.99	1082.76
368.36	1080.06
368.73	1079.64
369.10	1081.47
369.48	1079.50
369.85	1079.64
370.22	1080.27
370.59	1079.22
370.96	1082.15
371.33	1082.59
371.70	1083.15
372.07	1081.61
372.44	1079.53
372.81	1076.95
373.18	1078.68
373.55	1081.28
373.93	1084.02
374.30	1086.27
374.67	1087.06
375.04	1087.62
375.41	1087.09
375.78	1085.94
376.15	1085.61
376.52	1085.63
376.89	1084.49
377.26	1082.73
377.63	1083.69
378.00	1081.98
378.37	1080.16
378.74	1081.00
379.11	1079.74
379.48	1077.82
379.85	1079.88
380.22	1081.51
380.59	1081.56
380.96	1082.29
381.33	1081.12
381.70	1084.23
382.07	1086.71
382.44	1084.32
382.81	1087.13
383.18	1087.46
383.55	1081.70
383.92	1078.00
384.29	1083.15
384.66	1086.50
385.03	1088.00
385.40	1087.62
385.77	1086.97
386.14	1082.83
386.51	1078.64
386.88	1077.04
387.25	1082.69
387.62	1080.79
387.99	1082.71
388.36	1082.26
388.73	1083.18
389.10	1083.97
389.46	1087.97
389.83	1087.95
390.20	1087.27
390.57	1090.92
390.94	1088.84
391.31	1087.46
391.68	1087.27
392.05	1090.74
392.42	1087.44
392.79	1088.49
393.16	1089.17
393.53	1091.79
393.89	1090.27
394.26	1091.46
394.63	1091.88
395.00	1091.04
395.37	1090.03
395.74	1090.53
396.11	1089.87
396.48	1088.61
396.84	1092.05
397.21	1090.32
397.58	1093.43
397.95	1095.82
398.32	1096.54
398.69	1095.00
399.06	1095.89
399.42	1094.41
399.79	1091.65
400.16	1092.00
400.53	1091.18
400.90	1093.99
401.27	1090.01
401.64	1091.60
402.00	1093.97
402.37	1095.37
402.74	1091.06
403.11	1090.62
403.48	1088.47
403.84	1085.63
404.21	1083.11
404.58	1083.39
404.95	1087.86
405.32	1088.26
405.68	1089.14
406.05	1092.16
406.42	1093.90
406.79	1093.57
407.16	1091.44
407.52	1093.29
407.89	1092.56
408.26	1094.93
408.63	1098.65
408.99	1104.41
409.36	1104.62
409.73	1104.99
410.10	1105.41
410.47	1104.78
410.83	1105.22
411.20	1104.90
411.57	1105.74
411.94	1105.22
412.30	1101.92
412.67	1100.80
413.04	1099.47
413.40	1100.47
413.77	1100.45
414.14	1103.40
414.51	1105.86
414.87	1106.49
415.24	1105.44
415.61	1106.00
415.97	1105.62
416.34	1103.23
416.71	1102.46
417.08	1103.68
417.44	1101.36
417.81	1101.36
418.18	1101.78
418.54	1101.34
418.91	1101.53
419.28	1105.29
419.64	1103.59
420.01	1104.99
420.38	1107.56
420.74	1107.26
421.11	1104.66
421.48	1106.79
421.84	1107.94
422.21	1108.20
422.58	1107.64
422.94	1110.07
423.31	1108.17
423.68	1109.27
424.04	1106.07
424.41	1107.26
424.77	1106.14
425.14	1110.87
425.51	1109.74
425.87	1112.36
426.24	1112.76
426.61	1113.53
426.97	1111.36
427.34	1112.29
427.70	1113.77
428.07	1114.14
428.44	1116.46
428.80	1116.20
429.17	1116.74
429.53	1115.50
429.90	1117.68
430.27	1115.05
430.63	1116.39
431.00	1115.57
431.36	1118.33
431.73	1116.62
432.09	1115.52
432.46	1117.07
432.83	1112.81
433.19	1110.23
433.56	1110.12
433.92	1112.15
434.29	1109.32
434.65	1112.99
435.02	1114.68
435.38	1114.98
435.75	1113.25
436.11	1110.84
436.48	1110.05
436.84	1110.58
437.21	1110.42
437.57	1111.05
437.94	1112.36
438.30	1111.87
438.67	1112.48
439.03	1112.27
439.40	1113.04
439.76	1116.04
440.13	1117.93
440.49	1116.53
440.86	1118.78
441.22	1119.85
441.59	1118.05
441.95	1115.80
442.32	1113.63
442.68	1106.91
443.05	1105.86
443.41	1105.32
443.78	1108.03
444.14	1107.66
444.51	1113.84
444.87	1116.48
445.24	1117.68
445.60	1114.40
445.96	1115.24
446.33	1114.54
446.69	1111.99
447.06	1111.80
447.42	1115.78
447.79	1117.61
448.15	1115.52
448.51	1116.37
448.88	1117.37
449.24	1114.28
449.61	1116.11
449.97	1118.21
450.33	1115.01
450.70	1110.75
451.06	1111.40
451.43	1108.92
451.79	1109.67
452.15	1113.09
452.52	1117.25
452.88	1115.29
453.24	1115.45
453.61	1114.14
453.97	1112.04
454.34	1110.47
454.70	1114.40
455.06	1112.62
455.43	1113.98
455.79	1114.42
456.15	1115.80
456.52	1117.89
456.88	1119.71
457.24	1117.96
457.61	1118.05
457.97	1115.80
458.33	1110.05
458.70	1111.78
459.06	1113.44
459.42	1112.76
459.79	1116.34
460.15	1119.29
460.51	1119.41
460.88	1119.67
461.24	1122.10
461.60	1123.88
461.96	1125.54
462.33	1124.32
462.69	1125.35
463.05	1126.10
463.42	1123.43
463.78	1122.71
464.14	1126.62
464.50	1125.56
464.87	1126.41
465.23	1128.00
465.59	1129.38
465.95	1124.35
466.32	1124.32
466.68	1126.64
467.04	1127.90
467.40	1128.51
467.77	1128.58
468.13	1131.65
468.49	1130.48
468.85	1127.25
469.22	1130.71
469.58	1136.82
469.94	1135.16
470.30	1139.28
470.66	1146.53
471.03	1143.12
471.39	1143.70
471.75	1151.01
472.11	1147.87
472.47	1145.69
472.84	1147.56
473.20	1147.35
473.56	1146.07
473.92	1149.04
474.28	1152.36
474.65	1158.54
475.01	1167.72
475.37	1171.11
475.73	1174.20
476.09	1181.48
476.45	1187.26
476.81	1186.77
477.18	1189.58
477.54	1198.87
477.90	1204.77
478.26	1207.67
478.62	1216.54
478.98	1226.72
479.34	1234.96
479.71	1244.02
480.07	1255.77
480.43	1264.57
480.79	1275.97
481.15	1283.85
481.51	1292.33
481.87	1301.81
482.23	1315.78
482.59	1327.46
482.96	1342.77
483.32	1356.01
483.68	1370.69
484.04	1385.39
484.40	1399.45
484.76	1411.39
485.12	1429.72
485.48	1451.20
485.84	1472.22
486.20	1491.32
486.56	1519.10
486.92	1543.12
487.28	1564.72
487.64	1588.57
488.00	1620.75
488.37	1645.44
488.73	1674.16
489.09	1709.69
489.45	1747.09
489.81	1780.16
490.17	1818.90
490.53	1862.81
490.89	1908.45
491.25	1950.53
491.61	1998.47
491.97	2049.75
492.33	2099.74
492.69	2151.14
493.05	2204.88
493.41	2266.74
493.77	2331.01
494.13	2400.87
494.49	2467.53
494.85	2544.28
495.21	2621.05
495.57	2698.22
495.93	2779.32
496.29	2866.50
496.64	2960.68
497.00	3049.58
497.36	3149.94
497.72	3251.50
498.08	3361.03
498.44	3469.59
498.80	3602.60
499.16	3740.04
499.52	3882.04
499.88	4035.06
500.24	4201.14
500.60	4354.40
500.96	4512.79
501.32	4684.91
501.68	4859.16
502.03	5048.63
502.39	5267.73
502.75	5485.44
503.11	5713.41
503.47	5949.76
503.83	6198.96
504.19	6446.75
504.55	6724.52
504.91	7011.92
505.26	7294.26
505.62	7595.65
505.98	7919.81
506.34	8257.78
506.70	8621.97
507.06	9019.14
507.42	9418.34
507.78	9829.43
508.13	10254.07
508.49	10691.31
508.85	11162.34
509.21	11652.45
509.57	12181.06
509.93	12744.97
510.28	13350.09
510.64	13976.27
511.00	14609.32
511.36	15201.64
511.72	15793.89
512.07	16440.72
512.43	17068.50
512.79	17744.05
513.15	18486.51
513.51	19239.32
513.86	19971.00
514.22	20797.79
514.58	21606.40
514.94	22450.07
515.30	23328.42
515.65	24180.64
516.01	25041.04
516.37	25921.08
516.73	26727.56
517.08	27597.19
517.44	28454.62
517.80	29276.75
518.16	30150.34
518.51	30991.22
518.87	31741.13
519.23	32624.26
519.59	33533.35
519.94	34372.92
520.30	35268.97
520.66	36078.19
521.01	36872.47
521.37	37544.00
521.73	38174.02
522.09	38795.41
522.44	39472.06
522.80	39886.96
523.16	40248.93
523.51	40509.15
523.87	40775.64
524.23	41011.12
524.58	41305.82
524.94	41733.02
525.30	42098.14
525.65	42311.71
526.01	42388.06
526.37	42370.41
526.72	42257.44
527.08	42131.30
527.44	41938.89
527.79	41782.26
528.15	41703.74
528.51	41468.89
528.86	41223.60
529.22	40988.98
529.58	40721.65
529.93	40304.26
530.29	39888.91
530.65	39505.39
531.00	39136.36
531.36	38696.26
531.71	38255.14
532.07	37759.86
532.43	37179.74
532.78	36498.81
533.14	35869.74
533.49	35275.92
533.85	34653.74
534.21	34024.34
534.56	33474.20
534.92	32918.39
535.27	32299.79
535.63	31671.17
535.98	31026.42
536.34	30393.33
536.69	29694.56
537.05	29052.81
537.41	28531.60
537.76	28045.35
538.12	27475.92
538.47	26981.72
538.83	26528.36
539.18	26045.83
539.54	25536.49
539.89	25082.28
540.25	24549.55
540.60	24041.91
540.96	23507.71
541.31	23025.96
541.67	22591.11
542.02	22199.75
542.38	21753.36
542.73	21297.59
543.09	20888.32
543.44	20528.60
543.80	20189.60
544.15	19803.67
544.51	19491.84
544.86	19185.61
545.22	18786.26
545.57	18388.77
545.93	18009.70
546.28	17669.08
546.64	17334.10
546.99	16987.73
547.35	16656.87
547.70	16367.44
548.05	16036.67
548.41	15704.69
548.76	15423.05
549.12	15127.82
549.47	14846.06
549.83	14593.38
550.18	14279.87
550.53	13942.03
550.89	13681.30
551.24	13398.35
551.60	13098.08
551.95	12845.94
552.30	12618.02
552.66	12360.04
553.01	12101.25
553.37	11824.20
553.72	11543.64
554.07	11272.98
554.43	10980.44
554.78	10691.54
555.13	10428.19
555.49	10200.69
555.84	10004.67
556.19	9813.09
556.55	9622.41
556.90	9428.92
557.26	9220.82
557.61	8990.33
557.96	8744.87
558.32	8543.21
558.67	8343.75
559.02	8121.28
559.37	7927.35
559.73	7779.31
560.08	7615.64
560.43	7450.70
560.79	7319.46
561.14	7164.03
561.49	6990.08
561.85	6831.86
562.20	6676.31
562.55	6540.25
562.90	6411.43
563.26	6296.46
563.61	6176.88
563.96	6066.53
564.32	5944.63
564.67	5816.98
565.02	5687.34
565.37	5570.12
565.73	5458.13
566.08	5351.85
566.43	5244.06
566.78	5140.78
567.14	5036.51
567.49	4925.91
567.84	4814.22
568.19	4715.03
568.54	4618.35
568.90	4526.39
569.25	4448.59
569.60	4374.95
569.95	4295.98
570.31	4217.95
570.66	4140.41
571.01	4051.33
571.36	3957.92
571.71	3884.42
572.06	3810.37
572.42	3744.65
572.77	3690.32
573.12	3642.41
573.47	3582.33
573.82	3523.42
574.18	3457.09
574.53	3395.86
574.88	3336.67
575.23	3280.57
575.58	3228.56
575.93	3180.91
576.28	3124.36
576.64	3064.65
576.99	3004.26
577.34	2945.63
577.69	2886.77
578.04	2836.71
578.39	2793.22
578.74	2753.27
579.09	2712.07
579.44	2671.23
579.80	2636.12
580.15	2593.99
580.50	2552.82
580.85	2521.39
581.20	2487.17
581.55	2455.57
581.90	2430.39
582.25	2395.66
582.60	2357.90
582.95	2321.91
583.30	2279.03
583.65	2235.98
584.00	2201.81
584.35	2172.86
584.71	2145.01
585.06	2115.12
585.41	2083.69
585.76	2061.29
586.11	2031.89
586.46	2004.90
586.81	1982.90
587.16	1964.34
587.51	1943.02
587.86	1923.08
588.21	1899.49
588.56	1878.96
588.91	1858.46
589.26	1837.58
589.61	1816.65
589.96	1802.26
590.31	1782.36
590.66	1769.33
591.01	1755.14
591.36	1742.37
591.71	1723.85
592.06	1707.37
592.41	1687.25
592.76	1669.43
593.10	1652.54
593.45	1639.26
593.80	1627.51
594.15	1614.41
594.50	1603.31
594.85	1589.48
595.20	1577.01
595.55	1563.43
595.90	1552.08
596.25	1538.11
596.60	1528.63
596.95	1516.88
597.30	1509.11
597.64	1550.18
597.99	1542.04
598.34	1529.96
598.69	1522.66
599.04	1512.62
599.39	1449.31
599.74	1440.34
600.09	1434.63
600.44	1422.62
600.78	1417.85
601.13	1412.89
601.48	1404.88
601.83	1398.54
602.18	1395.17
602.53	1386.32
602.88	1380.82
603.22	1375.70
603.57	1369.54
603.92	1361.07
604.27	1355.99
604.62	1346.11
604.97	1333.75
605.31	1323.78
605.66	1320.97
606.01	1312.17
606.36	1308.03
606.71	1307.59
607.05	1302.16
607.40	1294.57
607.75	1290.31
608.10	1285.61
608.44	1280.11
608.79	1278.26
609.14	1274.84
609.49	1272.78
609.84	1271.68
610.18	1269.93
610.53	1267.68
610.88	1267.14
611.23	1262.48
611.57	1259.02
611.92	1253.17
612.27	1247.11
612.62	1243.13
612.96	1237.56
613.31	1232.57
613.66	1229.18
614.00	1225.15
614.35	1217.13
614.70	1212.77
615.05	1209.33
615.39	1208.44
615.74	1208.44
616.09	1207.83
616.43	1209.07
616.78	1208.28
617.13	1202.15
617.47	1199.52
617.82	1197.28
618.17	1190.02
618.51	1185.65
618.86	1185.32
619.21	1181.46
619.55	1178.04
619.90	1180.03
620.25	1176.49
620.59	1173.64
620.94	1174.36
621.29	1174.55
621.63	1173.03
621.98	1174.06
622.32	1174.15
622.67	1171.37
623.02	1171.46
623.36	1166.29
623.71	1161.37
624.05	1156.37
624.40	1152.74
624.75	1147.17
625.09	1148.15
625.44	1147.66
625.78	1150.44
626.13	1151.29
626.48	1151.17
626.82	1149.65
627.17	1149.37
627.51	1144.90
627.86	1140.43
628.20	1140.12
628.55	1138.53
628.89	1133.57
629.24	1133.36
629.58	1133.47
629.93	1133.12
630.28	1131.13
630.62	1132.96
630.97	1132.28
631.31	1130.50
631.66	1125.98
632.00	1125.07
632.35	1120.23
632.69	1117.79
633.04	1119.88
633.38	1119.31
633.73	1119.20
634.07	1124.74
634.42	1126.78
634.76	1122.54
635.11	1119.88
635.45	1117.42
635.79	1116.30
636.14	1115.92
636.48	1115.48
636.83	1117.35
637.17	1120.53
637.52	1118.40
637.86	1116.06
638.21	1115.92
638.55	1117.58
638.89	1115.59
639.24	1112.25
639.58	1111.22
639.93	1108.27
640.27	1110.30
640.61	1105.34
640.96	1107.17
641.30	1107.64
641.65	1109.34
641.99	1104.01
642.33	1106.77
642.68	1107.52
643.02	1107.00
643.37	1107.19
643.71	1107.07
644.05	1104.92
644.40	1104.92
644.74	1103.66
645.08	1102.09
645.43	1098.81
645.77	1099.79
646.11	1096.89
646.46	1096.73
646.80	1100.10
647.14	1105.36
647.49	1104.97
647.83	1105.55
648.17	1106.86
648.52	1103.47
648.86	1104.50
649.20	1107.59
649.55	1108.69
649.89	1107.80
650.23	1110.82
650.57	1109.86
650.92	1108.92
651.26	1107.89
651.60	1108.76
651.95	1105.46
652.29	1105.25
652.63	1102.86
652.97	1101.99
653.32	1099.51
653.66	1099.30
654.00	1095.56
654.34	1097.88
654.69	1100.87
655.03	1101.83
655.37	1104.69
655.71	1106.09
656.05	1102.67
656.40	1098.72
656.74	1099.65
657.08	1098.11
657.42	1097.27
657.76	1098.60
658.11	1101.08
658.45	1099.82
658.79	1098.30
659.13	1097.29
659.47	1098.30
659.82	1098.09
660.16	1097.08
660.50	1099.96
660.84	1103.07
661.18	1103.14
661.52	1100.94
661.87	1098.37
662.21	1093.94
662.55	1091.95
662.89	1089.50
663.23	1091.18
663.57	1096.07
663.91	1101.03
664.25	1101.76
664.60	1102.25
664.94	1101.97
665.28	1099.19
665.62	1094.65
665.96	1094.74
666.30	1093.47
666.64	1090.01
666.98	1089.80
667.32	1090.39
667.66	1088.54
668.01	1088.02
668.35	1093.31
668.69	1093.62
669.03	1094.08
669.37	1095.32
669.71	1096.61
670.05	1095.30
670.39	1095.89
670.73	1093.17
671.07	1092.66
671.41	1094.32
671.75	1090.88
672.09	1090.95
672.43	1094.08
672.77	1093.66
673.11	1093.80
673.45	1094.06
673.79	1094.69
674.13	1093.43
674.47	1091.98
674.81	1089.92
675.15	1090.20
675.49	1090.83
675.83	1088.72
676.17	1091.49
676.51	1092.09
676.85	1095.25
677.19	1092.16
677.53	1093.12
677.87	1091.88
678.21	1092.56
678.55	1091.67
678.89	1091.79
679.23	1094.41
679.57	1097.24
679.90	1099.09
680.24	1096.78
680.58	1097.73
680.92	1097.24
681.26	1093.15
681.60	1088.77
681.94	1089.61
682.28	1090.41
682.62	1092.14
682.96	1092.35
683.29	1096.05
683.63	1097.13
683.97	1096.12
684.31	1093.29
684.65	1095.84
684.99	1092.96
685.33	1087.09
685.67	1088.30
686.00	1088.56
686.34	1086.15
686.68	1086.13
687.02	1089.92
687.36	1091.27
687.70	1090.01
688.03	1090.62
688.37	1091.34
688.71	1090.53
689.05	1087.95
689.39	1090.97
689.72	1090.32
690.06	1086.50
690.40	1088.51
690.74	1088.14
691.08	1083.36
691.41	1085.94
691.75	1086.99
692.09	1085.73
692.43	1083.06
692.76	1088.14
693.10	1086.52
693.44	1089.54
693.78	1089.68
694.11	1091.37
694.45	1085.66
694.79	1087.48
695.13	1086.10
695.46	1086.55
695.80	1088.98
696.14	1091.63
696.48	1090.39
696.81	1091.65
697.15	1092.68
697.49	1090.76
697.82	1091.77
698.16	1091.11
698.50	1090.55
698.83	1090.36
699.17	1092.59
699.51	1091.58
699.84	1091.44
700.18	1091.53
700.52	1089.52
700.85	1087.67
701.19	1087.18
701.53	1087.37
701.86	1088.82
702.20	1090.20
702.54	1092.26
702.87	1091.74
703.21	1093.92
703.55	1092.82
703.88	1096.31
704.22	1095.77
704.55	1097.34
704.89	1094.97
705.23	1096.31
705.56	1092.61
705.90	1090.50
706.23	1091.27
706.57	1092.30
706.91	1090.88
707.24	1092.00
707.58	1093.05
707.91	1091.63
708.25	1089.24
708.58	1089.85
708.92	1086.55
709.26	1085.89
709.59	1087.16
709.93	1086.66
710.26	1088.72
710.60	1088.84
710.93	1088.33
711.27	1090.22
711.60	1091.20
711.94	1089.19
712.27	1092.84
712.61	1096.61
712.94	1094.67
713.28	1097.36
713.61	1096.75
713.95	1094.74
714.28	1091.51
714.62	1089.80
714.95	1087.34
715.29	1087.69
715.62	1089.89
715.96	1092.21
716.29	1093.92
716.63	1093.73
716.96	1091.58
717.29	1088.19
717.63	1085.47
717.96	1088.72
718.30	1088.21
718.63	1090.67
718.97	1091.39
719.30	1093.15
719.63	1091.04
719.97	1089.19
720.30	1086.94
720.64	1088.07
720.97	1087.48
721.30	1086.55
721.64	1087.79
721.97	1089.22
722.31	1090.60
722.64	1089.85
722.97	1091.11
723.31	1091.86
723.64	1091.25
723.97	1087.81
724.31	1086.29
724.64	1084.58
724.98	1085.38
725.31	1085.26
725.64	1086.45
725.98	1088.98
726.31	1089.14
726.64	1089.61
726.97	1089.99
727.31	1091.23
727.64	1092.05
727.97	1094.53
728.31	1094.11
728.64	1092.42
728.97	1088.19
729.31	1089.36
729.64	1088.47
729.97	1087.09
730.30	1089.61
730.64	1094.36
730.97	1090.85
731.30	1088.40
731.63	1088.23
731.97	1088.09
732.30	1084.51
732.63	1087.25
732.96	1087.16
733.30	1087.39
733.63	1088.21
733.96	1090.41
734.29	1089.26
734.63	1090.29
734.96	1090.32
735.29	1087.55
735.62	1087.18
735.95	1084.89
736.29	1088.23
736.62	1089.12
736.95	1091.88
737.28	1093.22
737.61	1093.10
737.94	1090.90
738.28	1094.53
738.61	1090.60
738.94	1087.79
739.27	1090.41
739.60	1088.65
739.93	1085.05
740.27	1086.99
740.60	1088.49
740.93	1088.61
741.26	1092.02
741.59	1096.19
741.92	1098.53
742.25	1098.11
742.58	1095.49
742.91	1091.56
743.25	1086.43
743.58	1082.50
743.91	1084.21
744.24	1084.23
744.57	1086.24
744.90	1088.54
745.23	1091.27
745.56	1088.47
745.89	1090.46
746.22	1091.60
746.55	1088.70
746.88	1089.47
747.21	1091.02
747.54	1091.44
747.87	1089.17
748.20	1089.50
748.53	1086.52
748.87	1084.32
749.20	1083.34
749.53	1082.57
749.86	1082.10
750.19	1085.33
750.52	1086.27
750.85	1083.48
751.18	1084.28
751.51	1085.77
751.84	1082.31
752.16	1085.21
752.49	1088.33
752.82	1088.72
753.15	1088.21
753.48	1088.98
753.81	1083.41
754.14	1084.16
754.47	1084.86
754.80	1086.59
755.13	1086.69
755.46	1091.20
755.79	1090.69
756.12	1092.94
756.45	1091.51
756.78	1090.90
757.11	1091.72
757.43	1090.01
757.76	1088.26
758.09	1089.94
758.42	1090.29
758.75	1091.53
759.08	1092.05
759.41	1089.38
759.74	1089.29
760.07	1089.40
760.39	1086.78
760.72	1084.93
761.05	1084.58
761.38	1085.87
761.71	1083.13
762.04	1083.76
762.36	1086.94
762.69	1091.04
763.02	1086.34
763.35	1088.91
