SpectraSuite Data File
++++++++++++++++++++++++++++++++++++
Date: Mon Aug 26 10:26:18 PDT 2019
User: corrico
Dark Spectrum Present: No
Reference Spectrum Present: No
Number of Sampled Component Spectra: 1
Spectrometers: USB2+H06089
Integration Time (usec): 10000 (USB2+H06089)
Spectra Averaged: 20 (USB2+H06089)
Boxcar Smoothing: 2 (USB2+H06089)
Correct for Electrical Dark: No (USB2+H06089)
Strobe/Lamp Enabled: No (USB2+H06089)
Correct for Detector Non-linearity: No (USB2+H06089)
Correct for Stray Light: No (USB2+H06089)
Number of Pixels in Processed Spectrum: 2048
>>>>>Begin Processed Spectral Data<<<<<
339.70	1034.75
340.07	1034.75
340.45	1003.48
340.82	982.14
341.19	959.48
341.57	933.64
341.94	921.66
342.31	912.29
342.69	906.49
343.06	902.77
343.43	904.13
343.81	905.76
344.18	906.42
344.55	910.82
344.93	915.83
345.30	915.97
345.67	919.13
346.04	927.91
346.42	935.11
346.79	944.24
347.16	958.26
347.54	970.69
347.91	980.71
348.28	990.37
348.65	1000.60
349.03	1009.92
349.40	1018.34
349.77	1026.04
350.14	1032.76
350.52	1038.80
350.89	1041.84
351.26	1047.20
351.63	1054.76
352.01	1061.06
352.38	1067.00
352.75	1075.45
353.12	1081.73
353.50	1083.39
353.87	1086.69
354.24	1086.92
354.61	1085.56
354.98	1085.96
355.36	1087.60
355.73	1090.15
356.10	1093.87
356.47	1095.28
356.84	1095.16
357.22	1098.06
357.59	1095.21
357.96	1091.09
358.33	1092.16
358.70	1089.03
359.08	1086.20
359.45	1086.99
359.82	1086.41
360.19	1086.08
360.56	1087.06
360.94	1083.53
361.31	1083.11
361.68	1083.71
362.05	1081.02
362.42	1079.34
362.79	1080.13
363.16	1082.78
363.54	1088.16
363.91	1091.98
364.28	1092.30
364.65	1091.30
365.02	1087.88
365.39	1084.81
365.76	1082.80
366.14	1083.93
366.51	1084.98
366.88	1084.35
367.25	1082.31
367.62	1080.25
367.99	1080.39
368.36	1081.21
368.73	1080.95
369.10	1080.58
369.48	1080.84
369.85	1079.90
370.22	1078.92
370.59	1079.85
370.96	1078.24
371.33	1078.47
371.70	1078.89
372.07	1076.79
372.44	1078.75
372.81	1078.99
373.18	1078.00
373.55	1078.19
373.93	1081.94
374.30	1077.98
374.67	1077.42
375.04	1077.63
375.41	1078.50
375.78	1079.06
376.15	1080.58
376.52	1082.66
376.89	1084.89
377.26	1087.11
377.63	1087.86
378.00	1086.57
378.37	1086.94
378.74	1085.63
379.11	1083.88
379.48	1080.41
379.85	1080.67
380.22	1080.67
380.59	1080.44
380.96	1079.57
381.33	1081.94
381.70	1081.77
382.07	1083.86
382.44	1082.92
382.81	1084.70
383.18	1084.58
383.55	1084.96
383.92	1083.62
384.29	1086.43
384.66	1084.65
385.03	1083.18
385.40	1084.46
385.77	1085.21
386.14	1084.60
386.51	1089.14
386.88	1092.96
387.25	1091.60
387.62	1086.76
387.99	1088.37
388.36	1085.17
388.73	1083.64
389.10	1086.01
389.46	1088.00
389.83	1089.19
390.20	1089.07
390.57	1088.16
390.94	1088.40
391.31	1089.96
391.68	1084.18
392.05	1084.51
392.42	1083.90
392.79	1082.22
393.16	1085.14
393.53	1089.12
393.89	1090.92
394.26	1093.33
394.63	1092.75
395.00	1089.87
395.37	1089.82
395.74	1086.69
396.11	1084.93
396.48	1088.35
396.84	1088.70
397.21	1089.19
397.58	1094.50
397.95	1095.30
398.32	1091.42
398.69	1093.59
399.06	1092.84
399.42	1091.30
399.79	1089.14
400.16	1092.66
400.53	1094.69
400.90	1097.10
401.27	1096.33
401.64	1100.00
402.00	1102.02
402.37	1100.64
402.74	1099.02
403.11	1100.80
403.48	1103.16
403.84	1101.15
404.21	1099.12
404.58	1101.46
404.95	1100.33
405.32	1099.72
405.68	1099.56
406.05	1099.77
406.42	1097.83
406.79	1097.06
407.16	1095.02
407.52	1093.19
407.89	1092.12
408.26	1092.00
408.63	1093.71
408.99	1095.23
409.36	1100.00
409.73	1104.52
410.10	1105.74
410.47	1107.14
410.83	1104.55
411.20	1105.86
411.57	1105.74
411.94	1106.61
412.30	1104.62
412.67	1106.30
413.04	1103.56
413.40	1097.29
413.77	1097.15
414.14	1096.75
414.51	1094.72
414.87	1096.17
415.24	1101.50
415.61	1102.70
415.97	1106.42
416.34	1108.29
416.71	1109.69
417.08	1108.90
417.44	1108.69
417.81	1106.96
418.18	1107.82
418.54	1105.97
418.91	1105.83
419.28	1105.36
419.64	1106.77
420.01	1111.36
420.38	1111.97
420.74	1115.20
421.11	1113.93
421.48	1114.77
421.84	1110.07
422.21	1111.75
422.58	1112.22
422.94	1114.80
423.31	1114.33
423.68	1115.87
424.04	1116.41
424.41	1113.44
424.77	1112.74
425.14	1112.57
425.51	1114.26
425.87	1114.38
426.24	1117.63
426.61	1121.68
426.97	1120.70
427.34	1118.59
427.70	1117.09
428.07	1118.40
428.44	1116.15
428.80	1117.72
429.17	1119.78
429.53	1121.23
429.90	1119.71
430.27	1121.23
430.63	1120.88
431.00	1122.08
431.36	1123.74
431.73	1124.32
432.09	1122.85
432.46	1122.03
432.83	1121.07
433.19	1120.11
433.56	1120.51
433.92	1122.01
434.29	1121.49
434.65	1121.96
435.02	1120.02
435.38	1118.54
435.75	1117.35
436.11	1119.81
436.48	1119.10
436.84	1121.00
437.21	1122.90
437.57	1119.31
437.94	1114.45
438.30	1111.64
438.67	1111.99
439.03	1110.49
439.40	1111.36
439.76	1114.56
440.13	1118.92
440.49	1117.37
440.86	1117.63
441.22	1119.38
441.59	1118.71
441.95	1117.84
442.32	1117.40
442.68	1117.58
443.05	1119.45
443.41	1121.00
443.78	1122.08
444.14	1122.19
444.51	1119.95
444.87	1117.77
445.24	1118.17
445.60	1113.49
445.96	1113.67
446.33	1116.79
446.69	1116.88
447.06	1116.51
447.42	1118.99
447.79	1121.19
448.15	1117.14
448.51	1116.06
448.88	1111.43
449.24	1110.72
449.61	1109.27
449.97	1111.01
450.33	1112.34
450.70	1116.34
451.06	1116.46
451.43	1114.84
451.79	1117.28
452.15	1114.00
452.52	1115.24
452.88	1114.94
453.24	1117.84
453.61	1115.10
453.97	1117.02
454.34	1116.60
454.70	1118.38
455.06	1118.96
455.43	1119.13
455.79	1122.45
456.15	1120.79
456.52	1121.75
456.88	1120.09
457.24	1120.91
457.61	1121.28
457.97	1124.46
458.33	1123.76
458.70	1123.97
459.06	1127.48
459.42	1126.78
459.79	1122.59
460.15	1122.75
460.51	1123.08
460.88	1120.11
461.24	1120.39
461.60	1122.73
461.96	1123.32
462.33	1121.09
462.69	1119.90
463.05	1121.80
463.42	1122.99
463.78	1121.65
464.14	1124.65
464.50	1128.63
464.87	1128.58
465.23	1126.34
465.59	1127.06
465.95	1128.09
466.32	1127.27
466.68	1127.62
467.04	1133.43
467.40	1135.74
467.77	1138.53
468.13	1142.91
468.49	1145.39
468.85	1148.13
469.22	1152.90
469.58	1152.32
469.94	1150.40
470.30	1149.09
470.66	1146.35
471.03	1145.88
471.39	1148.55
471.75	1153.37
472.11	1157.47
472.47	1160.25
472.84	1163.48
473.20	1168.30
473.56	1170.85
473.92	1176.17
474.28	1182.04
474.65	1186.21
475.01	1187.26
475.37	1189.98
475.73	1195.48
476.09	1201.54
476.45	1205.49
476.81	1212.35
477.18	1220.00
477.54	1222.95
477.90	1227.82
478.26	1236.04
478.62	1245.21
478.98	1252.96
479.34	1262.46
479.71	1276.20
480.07	1285.89
480.43	1300.75
480.79	1314.61
481.15	1328.30
481.51	1336.07
481.87	1350.65
482.23	1361.21
482.59	1373.80
482.96	1386.63
483.32	1406.50
483.68	1421.03
484.04	1440.37
484.40	1462.76
484.76	1487.34
485.12	1509.79
485.48	1538.69
485.84	1560.79
486.20	1584.33
486.56	1609.96
486.92	1637.53
487.28	1668.40
487.64	1702.62
488.00	1739.23
488.37	1779.49
488.73	1816.09
489.09	1852.09
489.45	1897.03
489.81	1942.15
490.17	1986.88
490.53	2043.33
490.89	2095.58
491.25	2148.66
491.61	2207.45
491.97	2263.11
492.33	2316.62
492.69	2372.93
493.05	2436.33
493.41	2505.10
493.77	2586.81
494.13	2668.12
494.49	2755.79
494.85	2843.45
495.21	2931.68
495.57	3028.51
495.93	3132.18
496.29	3240.19
496.64	3361.92
497.00	3481.08
497.36	3601.17
497.72	3732.12
498.08	3875.67
498.44	4023.54
498.80	4174.86
499.16	4348.95
499.52	4525.54
499.88	4708.10
500.24	4884.49
500.60	5086.87
500.96	5282.85
501.32	5470.77
501.68	5667.35
502.03	5894.99
502.39	6130.21
502.75	6380.04
503.11	6666.69
503.47	6963.40
503.83	7266.40
504.19	7572.66
504.55	7915.34
504.91	8252.64
505.26	8582.86
505.62	8973.12
505.98	9405.79
506.34	9803.36
506.70	10247.61
507.06	10748.18
507.42	11224.48
507.78	11695.59
508.13	12249.29
508.49	12799.87
508.85	13382.55
509.21	13982.20
509.57	14604.99
509.93	15229.54
510.28	15891.16
510.64	16619.11
511.00	17344.00
511.36	18106.88
511.72	18935.40
512.07	19822.02
512.43	20653.59
512.79	21585.82
513.15	22521.15
513.51	23343.15
513.86	24188.01
514.22	25151.30
514.58	26124.92
514.94	27059.87
515.30	28154.51
515.65	29291.38
516.01	30318.83
516.37	31316.91
516.73	32377.45
517.08	33346.48
517.44	34142.12
517.80	35043.53
518.16	35978.67
518.51	36941.63
518.87	37889.36
519.23	39005.17
519.59	40025.20
519.94	41047.99
520.30	42030.17
520.66	42894.48
521.01	43677.70
521.37	44512.26
521.73	45173.88
522.09	45775.19
522.44	46546.54
522.80	47158.54
523.16	47511.75
523.51	47848.27
523.87	48219.58
524.23	48539.64
524.58	48816.48
524.94	49209.65
525.30	49530.63
525.65	49684.24
526.01	49661.65
526.37	49832.70
526.72	50022.94
527.08	50072.93
527.44	50012.89
527.79	49894.77
528.15	49680.66
528.51	49339.64
528.86	49086.28
529.22	48756.99
529.58	48398.14
529.93	47957.32
530.29	47385.76
530.65	46877.16
531.00	46462.04
531.36	45868.86
531.71	45251.36
532.07	44793.36
532.43	44044.08
532.78	43214.60
533.14	42575.02
533.49	41888.47
533.85	41104.75
534.21	40516.97
534.56	39991.28
534.92	39376.80
535.27	38678.71
535.63	37922.41
535.98	37149.05
536.34	36348.66
536.69	35571.86
537.05	34870.68
537.41	34266.50
537.76	33626.22
538.12	32899.74
538.47	32262.55
538.83	31678.05
539.18	31033.91
539.54	30435.69
539.89	29944.84
540.25	29436.66
540.60	28886.49
540.96	28290.29
541.31	27742.56
541.67	27324.56
542.02	26852.97
542.38	26395.20
542.73	25948.96
543.09	25448.88
543.44	24885.16
543.80	24370.66
544.15	23856.85
544.51	23444.70
544.86	23036.54
545.22	22656.71
545.57	22267.65
545.93	21822.83
546.28	21387.11
546.64	21011.53
546.99	20604.02
547.35	20198.78
547.70	19838.17
548.05	19417.88
548.41	18997.68
548.76	18532.08
549.12	18088.92
549.47	17702.88
549.83	17375.11
550.18	16996.69
550.53	16626.44
550.89	16248.19
551.24	15842.08
551.60	15458.86
551.95	15135.92
552.30	14865.51
552.66	14625.19
553.01	14381.98
553.37	14122.16
553.72	13817.28
554.07	13502.29
554.43	13197.95
554.78	12881.58
555.13	12569.24
555.49	12241.49
555.84	11960.11
556.19	11676.89
556.55	11385.82
556.90	11097.74
557.26	10888.55
557.61	10666.22
557.96	10431.02
558.32	10210.91
558.67	9984.98
559.02	9737.17
559.37	9508.96
559.73	9309.90
560.08	9132.35
560.43	8941.15
560.79	8752.60
561.14	8537.74
561.49	8310.94
561.85	8085.71
562.20	7903.05
562.55	7742.61
562.90	7588.77
563.26	7440.87
563.61	7296.39
563.96	7121.43
564.32	6932.74
564.67	6753.64
565.02	6611.90
565.37	6486.47
565.73	6345.50
566.08	6218.52
566.43	6098.97
566.78	5957.23
567.14	5813.26
567.49	5711.75
567.84	5589.57
568.19	5466.63
568.54	5356.62
568.90	5252.07
569.25	5159.03
569.60	5070.75
569.95	5004.81
570.31	4926.43
570.66	4837.16
571.01	4722.34
571.36	4626.61
571.71	4525.22
572.06	4431.38
572.42	4348.25
572.77	4269.54
573.12	4188.60
573.47	4112.11
573.82	4045.22
574.18	3975.91
574.53	3910.92
574.88	3857.55
575.23	3787.83
575.58	3710.59
575.93	3638.97
576.28	3573.30
576.64	3508.04
576.99	3441.64
577.34	3387.53
577.69	3324.94
578.04	3256.74
578.39	3192.05
578.74	3134.23
579.09	3066.15
579.44	3002.11
579.80	2952.02
580.15	2906.48
580.50	2859.32
580.85	2816.51
581.20	2776.06
581.55	2731.03
581.90	2680.17
582.25	2629.15
582.60	2582.69
582.95	2540.23
583.30	2508.14
583.65	2469.97
584.00	2436.85
584.35	2409.82
584.71	2379.18
585.06	2345.08
585.41	2317.34
585.76	2291.03
586.11	2254.15
586.46	2218.64
586.81	2179.72
587.16	2147.00
587.51	2117.93
587.86	2099.11
588.21	2079.52
588.56	2063.16
588.91	2043.40
589.26	2024.28
589.61	1996.13
589.96	1971.08
590.31	1945.15
590.66	1918.89
591.01	1892.35
591.36	1871.75
591.71	1850.10
592.06	1833.51
592.41	1821.29
592.76	1804.67
593.10	1786.16
593.45	1769.63
593.80	1748.31
594.15	1730.55
594.50	1720.27
594.85	1707.14
595.20	1695.86
595.55	1683.59
595.90	1668.94
596.25	1649.98
596.60	1636.25
596.95	1626.13
597.30	1613.80
597.64	1653.17
597.99	1643.06
598.34	1630.58
598.69	1615.79
599.04	1603.78
599.39	1540.92
599.74	1524.67
600.09	1514.68
600.44	1504.40
600.78	1495.27
601.13	1486.12
601.48	1479.94
601.83	1468.92
602.18	1456.89
602.53	1445.21
602.88	1434.87
603.22	1427.47
603.57	1424.38
603.92	1419.16
604.27	1410.92
604.62	1403.99
604.97	1394.68
605.31	1388.69
605.66	1385.25
606.01	1378.29
606.36	1370.13
606.71	1365.21
607.05	1353.51
607.40	1345.62
607.75	1341.36
608.10	1337.36
608.44	1330.95
608.79	1326.29
609.14	1316.95
609.49	1314.61
609.84	1309.30
610.18	1303.07
610.53	1298.08
610.88	1296.63
611.23	1289.78
611.57	1283.32
611.92	1282.10
612.27	1278.66
612.62	1270.98
612.96	1265.79
613.31	1261.38
613.66	1258.74
614.00	1250.20
614.35	1247.81
614.70	1247.01
615.05	1245.63
615.39	1237.21
615.74	1232.60
616.09	1229.02
616.43	1221.97
616.78	1217.52
617.13	1216.70
617.47	1218.55
617.82	1216.19
618.17	1213.80
618.51	1211.30
618.86	1205.91
619.21	1204.23
619.55	1203.36
619.90	1201.79
620.25	1197.32
620.59	1195.12
620.94	1190.14
621.29	1186.60
621.63	1185.06
621.98	1181.83
622.32	1179.07
622.67	1179.84
623.02	1179.44
623.36	1177.85
623.71	1176.10
624.05	1177.13
624.40	1173.61
624.75	1167.11
625.09	1164.21
625.44	1163.85
625.78	1162.03
626.13	1158.47
626.48	1158.94
626.82	1158.59
627.17	1157.23
627.51	1152.60
627.86	1154.24
628.20	1152.13
628.55	1149.76
628.89	1146.30
629.24	1147.21
629.58	1143.82
629.93	1143.82
630.28	1141.03
630.62	1143.33
630.97	1141.83
631.31	1142.93
631.66	1141.57
632.00	1142.28
632.35	1142.11
632.69	1140.64
633.04	1137.06
633.38	1136.92
633.73	1136.38
634.07	1133.69
634.42	1133.57
634.76	1131.86
635.11	1130.55
635.45	1129.40
635.79	1127.58
636.14	1124.53
636.48	1126.64
636.83	1125.63
637.17	1123.41
637.52	1124.11
637.86	1124.46
638.21	1123.83
638.55	1119.22
638.89	1120.09
639.24	1117.79
639.58	1116.93
639.93	1110.84
640.27	1110.65
640.61	1108.43
640.96	1107.64
641.30	1106.18
641.65	1110.89
641.99	1115.97
642.33	1115.45
642.68	1116.93
643.02	1118.12
643.37	1113.77
643.71	1112.11
644.05	1108.41
644.40	1105.90
644.74	1104.62
645.08	1106.61
645.43	1103.61
645.77	1105.72
646.11	1106.30
646.46	1106.51
646.80	1105.44
647.14	1105.51
647.49	1109.98
647.83	1111.59
648.17	1108.69
648.52	1109.30
648.86	1110.30
649.20	1105.32
649.55	1103.91
649.89	1107.05
650.23	1108.92
650.57	1111.12
650.92	1112.34
651.26	1110.58
651.60	1110.94
651.95	1110.02
652.29	1107.21
652.63	1106.56
652.97	1107.61
653.32	1106.16
653.66	1103.00
654.00	1103.33
654.34	1101.39
654.69	1099.70
655.03	1100.54
655.37	1104.10
655.71	1102.51
656.05	1103.75
656.40	1105.27
656.74	1102.63
657.08	1099.56
657.42	1101.32
657.76	1101.29
658.11	1100.82
658.45	1101.95
658.79	1101.64
659.13	1098.79
659.47	1100.22
659.82	1099.61
660.16	1100.38
660.50	1097.13
660.84	1096.07
661.18	1095.63
661.52	1096.40
661.87	1093.69
662.21	1096.54
662.55	1095.11
662.89	1092.21
663.23	1093.01
663.57	1094.55
663.91	1095.44
664.25	1095.42
664.60	1099.40
664.94	1098.51
665.28	1095.42
665.62	1095.56
665.96	1096.66
666.30	1094.39
666.64	1093.17
666.98	1095.53
667.32	1095.42
667.66	1092.73
668.01	1090.64
668.35	1091.42
668.69	1087.86
669.03	1083.29
669.37	1088.98
669.71	1087.74
670.05	1085.26
670.39	1091.06
670.73	1095.18
671.07	1092.68
671.41	1094.53
671.75	1098.93
672.09	1095.86
672.43	1093.08
672.77	1093.43
673.11	1096.33
673.45	1095.70
673.79	1098.13
674.13	1098.65
674.47	1097.78
674.81	1094.72
675.15	1093.05
675.49	1089.33
675.83	1091.63
676.17	1091.63
676.51	1091.79
676.85	1091.44
677.19	1094.01
677.53	1092.94
677.87	1093.40
678.21	1090.34
678.55	1088.86
678.89	1085.99
679.23	1085.68
679.57	1088.19
679.90	1090.17
680.24	1088.91
680.58	1093.05
680.92	1093.85
681.26	1094.08
681.60	1095.49
681.94	1094.69
682.28	1092.96
682.62	1092.16
682.96	1090.34
683.29	1091.67
683.63	1094.57
683.97	1095.77
684.31	1096.52
684.65	1097.38
684.99	1095.37
685.33	1091.72
685.67	1089.05
686.00	1089.45
686.34	1089.50
686.68	1089.07
687.02	1094.36
687.36	1097.52
687.70	1099.19
688.03	1100.08
688.37	1101.76
688.71	1098.23
689.05	1095.53
689.39	1092.09
689.72	1092.56
690.06	1089.61
690.40	1090.46
690.74	1089.75
691.08	1091.51
691.41	1088.02
691.75	1089.50
692.09	1093.26
692.43	1094.43
692.76	1093.26
693.10	1097.41
693.44	1099.65
693.78	1096.38
694.11	1096.42
694.45	1098.02
694.79	1094.62
695.13	1096.61
695.46	1097.17
695.80	1095.72
696.14	1093.19
696.48	1094.22
696.81	1094.48
697.15	1092.68
697.49	1094.48
697.82	1094.95
698.16	1093.38
698.50	1089.92
698.83	1092.75
699.17	1089.29
699.51	1090.67
699.84	1087.95
700.18	1086.69
700.52	1084.32
700.85	1087.79
701.19	1085.52
701.53	1087.60
701.86	1086.43
702.20	1084.89
702.54	1085.17
702.87	1087.09
703.21	1087.81
703.55	1089.24
703.88	1095.18
704.22	1093.80
704.55	1093.73
704.89	1092.91
705.23	1093.31
705.56	1087.88
705.90	1087.88
706.23	1087.34
706.57	1088.12
706.91	1089.47
707.24	1090.60
707.58	1089.03
707.91	1086.20
708.25	1086.57
708.58	1084.39
708.92	1083.93
709.26	1086.92
709.59	1085.17
709.93	1083.67
710.26	1082.10
710.60	1083.06
710.93	1084.32
711.27	1090.92
711.60	1093.22
711.94	1096.59
712.27	1094.72
712.61	1090.81
712.94	1086.57
713.28	1084.93
713.61	1082.66
713.95	1085.42
714.28	1085.59
714.62	1088.98
714.95	1090.34
715.29	1090.41
715.62	1090.43
715.96	1093.15
716.29	1089.19
716.63	1090.83
716.96	1090.43
717.29	1089.54
717.63	1087.93
717.96	1089.71
718.30	1085.03
718.63	1085.07
718.97	1085.87
719.30	1086.01
719.63	1087.27
719.97	1089.19
720.30	1088.75
720.64	1087.02
720.97	1087.41
721.30	1086.36
721.64	1085.17
721.97	1085.56
722.31	1084.74
722.64	1088.72
722.97	1091.49
723.31	1090.50
723.64	1092.21
723.97	1094.72
724.31	1092.47
724.64	1087.39
724.98	1090.78
725.31	1091.56
725.64	1089.40
725.98	1088.23
726.31	1092.98
726.64	1093.73
726.97	1092.14
727.31	1091.02
727.64	1091.58
727.97	1087.86
728.31	1084.84
728.64	1085.42
728.97	1088.93
729.31	1087.62
729.64	1089.45
729.97	1091.30
730.30	1090.97
730.64	1091.34
730.97	1089.68
731.30	1090.43
731.63	1090.76
731.97	1090.34
732.30	1089.89
732.63	1092.23
732.96	1088.37
733.30	1088.79
733.63	1089.80
733.96	1088.63
734.29	1086.17
734.63	1088.96
734.96	1084.74
735.29	1086.69
735.62	1086.27
735.95	1086.48
736.29	1084.72
736.62	1084.23
736.95	1084.35
737.28	1087.48
737.61	1085.10
737.94	1088.51
738.28	1091.02
738.61	1087.93
738.94	1087.25
739.27	1087.46
739.60	1086.87
739.93	1084.96
740.27	1083.93
740.60	1082.73
740.93	1088.93
741.26	1090.36
741.59	1092.33
741.92	1094.06
742.25	1091.77
742.58	1088.96
742.91	1084.84
743.25	1085.26
743.58	1083.93
743.91	1087.53
744.24	1086.71
744.57	1087.93
744.90	1089.43
745.23	1088.02
745.56	1083.48
745.89	1082.26
746.22	1080.23
746.55	1077.35
746.88	1079.78
747.21	1083.60
747.54	1086.01
747.87	1087.93
748.20	1089.82
748.53	1088.09
748.87	1086.10
749.20	1088.75
749.53	1090.03
749.86	1087.48
750.19	1090.15
750.52	1092.05
750.85	1088.44
751.18	1087.20
751.51	1086.76
751.84	1087.13
752.16	1087.76
752.49	1087.81
752.82	1086.45
753.15	1088.04
753.48	1087.23
753.81	1081.68
754.14	1081.58
754.47	1084.14
754.80	1084.89
755.13	1084.93
755.46	1089.07
755.79	1092.87
756.12	1098.67
756.45	1097.43
756.78	1099.28
757.11	1099.07
757.43	1095.44
757.76	1084.74
758.09	1085.59
758.42	1084.81
758.75	1083.97
759.08	1086.71
759.41	1092.14
759.74	1093.38
760.07	1091.16
760.39	1090.57
760.72	1088.61
761.05	1087.09
761.38	1084.91
761.71	1087.58
762.04	1090.29
762.36	1090.85
762.69	1087.81
763.02	1088.44
763.35	1086.29
