SpectraSuite Data File
++++++++++++++++++++++++++++++++++++
Date: Mon Aug 26 10:26:24 PDT 2019
User: corrico
Dark Spectrum Present: No
Reference Spectrum Present: No
Number of Sampled Component Spectra: 1
Spectrometers: USB2+H06089
Integration Time (usec): 10000 (USB2+H06089)
Spectra Averaged: 20 (USB2+H06089)
Boxcar Smoothing: 2 (USB2+H06089)
Correct for Electrical Dark: No (USB2+H06089)
Strobe/Lamp Enabled: No (USB2+H06089)
Correct for Detector Non-linearity: No (USB2+H06089)
Correct for Stray Light: No (USB2+H06089)
Number of Pixels in Processed Spectrum: 2048
>>>>>Begin Processed Spectral Data<<<<<
339.70	1029.84
340.07	1029.84
340.45	996.67
340.82	977.20
341.19	951.45
341.57	927.25
341.94	920.02
342.31	911.97
342.69	905.13
343.06	902.98
343.43	902.86
343.81	901.79
344.18	904.50
344.55	909.06
344.93	914.87
345.30	917.47
345.67	921.54
346.04	928.00
346.42	936.05
346.79	944.92
347.16	955.43
347.54	966.64
347.91	978.98
348.28	988.29
348.65	1001.47
349.03	1012.70
349.40	1018.72
349.77	1028.08
350.14	1035.31
350.52	1037.68
350.89	1043.48
351.26	1052.61
351.63	1054.39
352.01	1058.04
352.38	1063.14
352.75	1064.50
353.12	1064.34
353.50	1072.55
353.87	1075.64
354.24	1079.15
354.61	1084.81
354.98	1089.47
355.36	1090.55
355.73	1092.26
356.10	1091.16
356.47	1092.73
356.84	1091.60
357.22	1091.25
357.59	1093.05
357.96	1095.46
358.33	1091.23
358.70	1088.49
359.08	1088.42
359.45	1089.50
359.82	1089.80
360.19	1089.12
360.56	1093.19
360.94	1090.22
361.31	1089.33
361.68	1090.95
362.05	1093.62
362.42	1094.13
362.79	1092.66
363.16	1089.94
363.54	1087.18
363.91	1086.45
364.28	1084.91
364.65	1082.69
365.02	1082.36
365.39	1082.47
365.76	1081.75
366.14	1078.38
366.51	1081.26
366.88	1079.78
367.25	1078.73
367.62	1076.93
367.99	1081.40
368.36	1078.96
368.73	1079.53
369.10	1080.60
369.48	1081.49
369.85	1080.91
370.22	1081.14
370.59	1083.08
370.96	1079.85
371.33	1080.63
371.70	1075.55
372.07	1079.60
372.44	1078.47
372.81	1079.15
373.18	1080.11
373.55	1082.78
373.93	1076.25
374.30	1074.96
374.67	1074.07
375.04	1073.70
375.41	1075.29
375.78	1080.51
376.15	1083.22
376.52	1085.56
376.89	1086.85
377.26	1087.51
377.63	1086.64
378.00	1084.04
378.37	1082.22
378.74	1079.60
379.11	1080.88
379.48	1080.77
379.85	1084.32
380.22	1084.44
380.59	1088.65
380.96	1084.63
381.33	1084.39
381.70	1079.69
382.07	1080.86
382.44	1076.20
382.81	1080.98
383.18	1082.10
383.55	1082.29
383.92	1084.46
384.29	1088.42
384.66	1083.32
385.03	1085.31
385.40	1088.91
385.77	1087.25
386.14	1085.35
386.51	1089.99
386.88	1086.50
387.25	1086.85
387.62	1085.47
387.99	1083.41
388.36	1080.18
388.73	1079.69
389.10	1078.85
389.46	1079.71
389.83	1081.28
390.20	1081.40
390.57	1082.59
390.94	1084.56
391.31	1087.23
391.68	1088.23
392.05	1092.98
392.42	1095.70
392.79	1097.22
393.16	1096.42
393.53	1096.49
393.89	1096.07
394.26	1095.44
394.63	1090.95
395.00	1090.03
395.37	1090.41
395.74	1088.12
396.11	1086.38
396.48	1088.09
396.84	1088.58
397.21	1089.38
397.58	1088.40
397.95	1088.49
398.32	1090.29
398.69	1090.39
399.06	1089.36
399.42	1090.08
399.79	1093.26
400.16	1091.39
400.53	1094.13
400.90	1094.57
401.27	1094.36
401.64	1093.26
402.00	1096.92
402.37	1094.32
402.74	1095.14
403.11	1099.40
403.48	1099.72
403.84	1098.25
404.21	1099.93
404.58	1099.84
404.95	1095.89
405.32	1095.56
405.68	1096.87
406.05	1097.69
406.42	1099.26
406.79	1099.65
407.16	1099.19
407.52	1097.29
407.89	1094.13
408.26	1093.33
408.63	1099.37
408.99	1099.35
409.36	1100.50
409.73	1101.01
410.10	1098.69
410.47	1093.69
410.83	1094.18
411.20	1093.97
411.57	1095.53
411.94	1096.85
412.30	1098.16
412.67	1099.56
413.04	1100.43
413.40	1103.23
413.77	1102.91
414.14	1100.59
414.51	1100.19
414.87	1100.36
415.24	1098.16
415.61	1100.73
415.97	1103.70
416.34	1107.94
416.71	1106.82
417.08	1108.97
417.44	1106.30
417.81	1104.69
418.18	1100.73
418.54	1104.94
418.91	1106.61
419.28	1110.21
419.64	1112.01
420.01	1114.82
420.38	1113.46
420.74	1112.13
421.11	1110.56
421.48	1111.66
421.84	1107.99
422.21	1107.64
422.58	1105.79
422.94	1105.65
423.31	1102.53
423.68	1108.64
424.04	1109.06
424.41	1110.35
424.77	1113.56
425.14	1115.83
425.51	1112.13
425.87	1110.96
426.24	1111.75
426.61	1113.18
426.97	1113.84
427.34	1113.70
427.70	1112.97
428.07	1112.15
428.44	1106.75
428.80	1105.67
429.17	1103.91
429.53	1107.05
429.90	1108.27
430.27	1109.58
430.63	1110.49
431.00	1110.72
431.36	1111.08
431.73	1109.86
432.09	1110.89
432.46	1112.18
432.83	1114.49
433.19	1112.60
433.56	1112.69
433.92	1114.84
434.29	1113.65
434.65	1112.62
435.02	1110.91
435.38	1107.89
435.75	1103.98
436.11	1106.96
436.48	1109.79
436.84	1111.33
437.21	1116.55
437.57	1118.26
437.94	1115.59
438.30	1113.77
438.67	1117.14
439.03	1115.83
439.40	1116.65
439.76	1116.76
440.13	1118.87
440.49	1115.36
440.86	1113.28
441.22	1112.92
441.59	1114.21
441.95	1112.20
442.32	1113.51
442.68	1115.76
443.05	1116.41
443.41	1115.83
443.78	1115.08
444.14	1112.46
444.51	1112.57
444.87	1116.60
445.24	1116.51
445.60	1116.55
445.96	1118.12
446.33	1117.23
446.69	1113.37
447.06	1109.18
447.42	1111.10
447.79	1108.71
448.15	1107.78
448.51	1106.84
448.88	1107.47
449.24	1107.73
449.61	1110.79
449.97	1112.64
450.33	1110.96
450.70	1113.63
451.06	1112.57
451.43	1110.61
451.79	1110.89
452.15	1113.28
452.52	1112.27
452.88	1107.75
453.24	1106.46
453.61	1106.68
453.97	1106.49
454.34	1108.43
454.70	1111.08
455.06	1110.49
455.43	1108.24
455.79	1107.14
456.15	1106.18
456.52	1110.44
456.88	1111.59
457.24	1110.79
457.61	1110.70
457.97	1110.07
458.33	1107.00
458.70	1109.86
459.06	1112.60
459.42	1113.44
459.79	1113.21
460.15	1114.77
460.51	1113.11
460.88	1114.02
461.24	1113.25
461.60	1114.07
461.96	1115.38
462.33	1119.08
462.69	1120.34
463.05	1117.86
463.42	1117.18
463.78	1118.59
464.14	1116.30
464.50	1117.68
464.87	1123.20
465.23	1125.73
465.59	1124.72
465.95	1124.16
466.32	1125.26
466.68	1126.45
467.04	1130.60
467.40	1132.73
467.77	1136.00
468.13	1135.93
468.49	1136.35
468.85	1135.21
469.22	1136.63
469.58	1138.11
469.94	1142.13
470.30	1145.15
470.66	1144.99
471.03	1143.80
471.39	1145.58
471.75	1143.63
472.11	1146.82
472.47	1152.39
472.84	1158.80
473.20	1164.11
473.56	1168.37
473.92	1170.29
474.28	1174.62
474.65	1175.79
475.01	1180.45
475.37	1183.52
475.73	1187.61
476.09	1186.35
476.45	1190.58
476.81	1193.28
477.18	1197.23
477.54	1202.54
477.90	1212.70
478.26	1216.80
478.62	1223.84
478.98	1234.00
479.34	1244.51
479.71	1252.42
480.07	1262.25
480.43	1273.30
480.79	1282.73
481.15	1288.23
481.51	1298.44
481.87	1310.75
482.23	1317.28
482.59	1329.17
482.96	1346.37
483.32	1363.95
483.68	1379.65
484.04	1400.06
484.40	1419.53
484.76	1440.53
485.12	1456.84
485.48	1479.10
485.84	1503.49
486.20	1524.88
486.56	1546.25
486.92	1573.33
487.28	1600.74
487.64	1624.52
488.00	1654.71
488.37	1684.67
488.73	1718.49
489.09	1753.04
489.45	1791.98
489.81	1831.52
490.17	1875.17
490.53	1919.85
490.89	1962.61
491.25	2009.37
491.61	2058.81
491.97	2110.53
492.33	2163.45
492.69	2219.97
493.05	2275.14
493.41	2334.52
493.77	2395.21
494.13	2467.02
494.49	2540.35
494.85	2621.17
495.21	2702.43
495.57	2792.80
495.93	2875.11
496.29	2968.13
496.64	3066.90
497.00	3169.41
497.36	3275.74
497.72	3386.90
498.08	3502.75
498.44	3629.30
498.80	3762.25
499.16	3906.49
499.52	4064.11
499.88	4229.63
500.24	4392.46
500.60	4566.43
500.96	4740.10
501.32	4903.21
501.68	5071.92
502.03	5260.26
502.39	5456.84
502.75	5669.90
503.11	5914.53
503.47	6175.25
503.83	6453.77
504.19	6736.23
504.55	7037.80
504.91	7338.52
505.26	7633.70
505.62	7965.76
505.98	8337.53
506.34	8692.66
506.70	9073.06
507.06	9515.31
507.42	9936.98
507.78	10337.91
508.13	10782.38
508.49	11258.00
508.85	11745.46
509.21	12257.17
509.57	12775.00
509.93	13318.00
510.28	13901.07
510.64	14522.13
511.00	15132.76
511.36	15805.45
511.72	16522.92
512.07	17277.69
512.43	17975.48
512.79	18775.29
513.15	19589.25
513.51	20304.57
513.86	21029.43
514.22	21875.44
514.58	22697.42
514.94	23467.01
515.30	24410.59
515.65	25413.14
516.01	26284.43
516.37	27102.07
516.73	28009.35
517.08	28763.36
517.44	29365.25
517.80	30154.92
518.16	31025.13
518.51	31877.96
518.87	32775.79
519.23	33799.04
519.59	34712.84
519.94	35652.33
520.30	36543.14
520.66	37325.58
521.01	38023.29
521.37	38693.34
521.73	39231.83
522.09	39718.19
522.44	40371.85
522.80	40898.83
523.16	41287.28
523.51	41613.39
523.87	42003.21
524.23	42240.07
524.58	42462.37
524.94	42885.21
525.30	43176.94
525.65	43202.29
526.01	43172.40
526.37	43301.39
526.72	43313.86
527.08	43251.58
527.44	43188.95
527.79	43115.29
528.15	42898.81
528.51	42577.04
528.86	42338.04
529.22	42092.90
529.58	41806.56
529.93	41421.51
530.29	40893.02
530.65	40417.61
531.00	39991.70
531.36	39429.34
531.71	38887.18
532.07	38544.13
532.43	37980.74
532.78	37356.49
533.14	36811.97
533.49	36235.96
533.85	35534.72
534.21	34973.08
534.56	34476.47
534.92	33922.25
535.27	33326.23
535.63	32628.57
535.98	31926.08
536.34	31231.06
536.69	30546.66
537.05	29933.51
537.41	29438.58
537.76	28878.18
538.12	28213.17
538.47	27711.71
538.83	27211.54
539.18	26671.22
539.54	26227.72
539.89	25827.76
540.25	25335.69
540.60	24839.82
540.96	24308.41
541.31	23816.05
541.67	23433.07
542.02	23010.30
542.38	22597.50
542.73	22161.81
543.09	21756.45
543.44	21318.47
543.80	20915.52
544.15	20491.34
544.51	20203.39
544.86	19816.26
545.22	19459.92
545.57	19119.65
545.93	18736.88
546.28	18375.34
546.64	18051.76
546.99	17700.25
547.35	17383.02
547.70	17089.05
548.05	16736.33
548.41	16369.45
548.76	15964.84
549.12	15560.02
549.47	15205.15
549.83	14877.55
550.18	14570.26
550.53	14255.81
550.89	13915.28
551.24	13593.93
551.60	13326.43
551.95	13071.21
552.30	12853.66
552.66	12660.52
553.01	12467.78
553.37	12227.92
553.72	11965.50
554.07	11692.87
554.43	11438.74
554.78	11165.15
555.13	10905.26
555.49	10641.53
555.84	10395.96
556.19	10146.39
556.55	9885.14
556.90	9617.28
557.26	9415.02
557.61	9242.14
557.96	9048.75
558.32	8864.62
558.67	8681.94
559.02	8479.43
559.37	8286.25
559.73	8103.75
560.08	7932.66
560.43	7752.58
560.79	7582.10
561.14	7394.17
561.49	7224.02
561.85	7050.47
562.20	6900.37
562.55	6764.76
562.90	6624.77
563.26	6486.14
563.61	6357.01
563.96	6219.27
564.32	6070.16
564.67	5940.84
565.02	5839.31
565.37	5740.09
565.73	5616.21
566.08	5501.15
566.43	5397.86
566.78	5263.12
567.14	5142.84
567.49	5048.79
567.84	4944.87
568.19	4839.46
568.54	4747.64
568.90	4661.57
569.25	4575.54
569.60	4493.41
569.95	4416.15
570.31	4345.25
570.66	4255.94
571.01	4171.21
571.36	4089.22
571.71	4007.35
572.06	3922.95
572.42	3853.08
572.77	3775.21
573.12	3711.57
573.47	3647.49
573.82	3584.86
574.18	3524.43
574.53	3464.32
574.88	3407.56
575.23	3344.93
575.58	3290.00
575.93	3240.12
576.28	3197.38
576.64	3144.28
576.99	3097.86
577.34	3050.30
577.69	2991.46
578.04	2934.24
578.39	2885.74
578.74	2832.96
579.09	2777.54
579.44	2725.79
579.80	2679.91
580.15	2638.93
580.50	2597.18
580.85	2557.32
581.20	2523.71
581.55	2488.88
581.90	2443.75
582.25	2401.97
582.60	2359.24
582.95	2321.20
583.30	2287.03
583.65	2258.55
584.00	2229.78
584.35	2208.95
584.71	2184.05
585.06	2160.81
585.41	2132.49
585.76	2109.38
586.11	2077.62
586.46	2048.86
586.81	2019.70
587.16	1999.07
587.51	1976.72
587.86	1959.66
588.21	1939.44
588.56	1914.61
588.91	1889.89
589.26	1868.45
589.61	1843.94
589.96	1821.97
590.31	1808.72
590.66	1790.42
591.01	1772.51
591.36	1758.33
591.71	1742.39
592.06	1721.65
592.41	1704.92
592.76	1687.27
593.10	1671.70
593.45	1654.52
593.80	1638.75
594.15	1630.18
594.50	1620.33
594.85	1604.30
595.20	1597.77
595.55	1588.97
595.90	1571.79
596.25	1559.26
596.60	1552.17
596.95	1535.63
597.30	1527.27
597.64	1568.81
597.99	1561.04
598.34	1553.30
598.69	1542.62
599.04	1529.66
599.39	1470.23
599.74	1460.12
600.09	1450.52
600.44	1443.46
600.78	1435.57
601.13	1428.87
601.48	1419.98
601.83	1411.74
602.18	1405.12
602.53	1396.13
602.88	1384.89
603.22	1374.78
603.57	1366.01
603.92	1359.73
604.27	1352.43
604.62	1348.48
604.97	1342.88
605.31	1335.23
605.66	1328.56
606.01	1323.25
606.36	1318.92
606.71	1312.20
607.05	1307.31
607.40	1305.34
607.75	1302.48
608.10	1298.22
608.44	1295.98
608.79	1291.02
609.14	1285.59
609.49	1281.65
609.84	1276.01
610.18	1274.30
610.53	1272.69
610.88	1268.45
611.23	1260.89
611.57	1258.74
611.92	1253.75
612.27	1246.52
612.62	1239.69
612.96	1237.07
613.31	1229.37
613.66	1223.14
614.00	1223.42
614.35	1222.02
614.70	1217.64
615.05	1215.00
615.39	1214.57
615.74	1210.62
616.09	1210.10
616.43	1211.06
616.78	1210.20
617.13	1206.85
617.47	1205.21
617.82	1199.50
618.17	1191.54
618.51	1191.10
618.86	1189.46
619.21	1184.50
619.55	1184.57
619.90	1187.94
620.25	1183.30
620.59	1179.58
620.94	1176.87
621.29	1172.66
621.63	1168.58
621.98	1167.76
622.32	1166.59
622.67	1166.22
623.02	1161.89
623.36	1162.71
623.71	1157.61
624.05	1154.54
624.40	1155.90
624.75	1158.71
625.09	1154.94
625.44	1154.02
625.78	1154.28
626.13	1152.90
626.48	1150.00
626.82	1149.76
627.17	1151.68
627.51	1149.53
627.86	1145.86
628.20	1144.87
628.55	1142.95
628.89	1138.48
629.24	1139.37
629.58	1139.61
629.93	1138.65
630.28	1138.86
630.62	1141.13
630.97	1139.72
631.31	1137.76
631.66	1136.61
632.00	1132.63
632.35	1130.64
632.69	1130.29
633.04	1127.69
633.38	1125.14
633.73	1125.38
634.07	1125.31
634.42	1119.76
634.76	1119.95
635.11	1119.15
635.45	1118.59
635.79	1114.82
636.14	1115.20
636.48	1113.56
636.83	1114.84
637.17	1114.28
637.52	1116.06
637.86	1115.22
638.21	1115.85
638.55	1115.01
638.89	1113.81
639.24	1113.74
639.58	1114.94
639.93	1115.38
640.27	1116.76
640.61	1116.20
640.96	1112.04
641.30	1111.78
641.65	1110.70
641.99	1110.49
642.33	1111.12
642.68	1113.21
643.02	1115.31
643.37	1114.31
643.71	1111.05
644.05	1111.19
644.40	1112.90
644.74	1111.71
645.08	1107.94
645.43	1109.27
645.77	1105.72
646.11	1103.54
646.46	1101.32
646.80	1104.92
647.14	1101.97
647.49	1102.23
647.83	1101.36
648.17	1099.05
648.52	1099.16
648.86	1101.90
649.20	1104.50
649.55	1105.60
649.89	1104.90
650.23	1104.08
650.57	1098.69
650.92	1097.10
651.26	1097.59
651.60	1100.08
651.95	1097.57
652.29	1100.57
652.63	1101.69
652.97	1102.23
653.32	1101.41
653.66	1101.36
654.00	1102.88
654.34	1100.47
654.69	1100.92
655.03	1099.14
655.37	1097.43
655.71	1096.03
656.05	1094.67
656.40	1091.56
656.74	1089.43
657.08	1091.95
657.42	1092.77
657.76	1093.45
658.11	1094.76
658.45	1098.06
658.79	1098.23
659.13	1099.09
659.47	1099.33
659.82	1096.19
660.16	1096.75
660.50	1098.30
660.84	1094.48
661.18	1094.65
661.52	1096.96
661.87	1094.81
662.21	1092.84
662.55	1094.08
662.89	1095.89
663.23	1094.48
663.57	1094.74
663.91	1095.79
664.25	1097.97
664.60	1097.69
664.94	1096.31
665.28	1097.83
665.62	1099.00
665.96	1097.50
666.30	1096.73
666.64	1097.71
666.98	1096.03
667.32	1092.09
667.66	1091.30
668.01	1090.76
668.35	1092.09
668.69	1091.20
669.03	1091.30
669.37	1090.55
669.71	1089.68
670.05	1088.72
670.39	1090.36
670.73	1094.08
671.07	1092.00
671.41	1091.81
671.75	1093.85
672.09	1093.01
672.43	1090.32
672.77	1091.67
673.11	1092.37
673.45	1090.24
673.79	1089.00
674.13	1089.45
674.47	1089.29
674.81	1090.13
675.15	1091.91
675.49	1092.47
675.83	1093.71
676.17	1095.96
676.51	1097.45
676.85	1097.38
677.19	1096.70
677.53	1093.92
677.87	1092.09
678.21	1088.30
678.55	1085.19
678.89	1085.00
679.23	1086.69
679.57	1087.23
679.90	1090.34
680.24	1091.46
680.58	1091.70
680.92	1089.87
681.26	1089.00
681.60	1086.27
681.94	1088.79
682.28	1092.59
682.62	1094.25
682.96	1098.09
683.29	1098.72
683.63	1095.93
683.97	1090.67
684.31	1092.00
684.65	1090.39
684.99	1087.53
685.33	1086.34
685.67	1091.25
686.00	1090.34
686.34	1085.84
686.68	1088.98
687.02	1090.36
687.36	1087.25
687.70	1085.10
688.03	1088.33
688.37	1090.03
688.71	1090.08
689.05	1089.61
689.39	1091.67
689.72	1092.14
690.06	1092.28
690.40	1091.44
690.74	1092.05
691.08	1091.63
691.41	1091.70
691.75	1088.98
692.09	1088.75
692.43	1088.72
692.76	1087.44
693.10	1086.50
693.44	1086.27
693.78	1086.06
694.11	1083.95
694.45	1083.27
694.79	1084.18
695.13	1081.96
695.46	1084.65
695.80	1087.65
696.14	1086.36
696.48	1084.79
696.81	1087.30
697.15	1086.27
697.49	1085.99
697.82	1087.25
698.16	1086.22
698.50	1088.16
698.83	1089.17
699.17	1090.01
699.51	1091.18
699.84	1094.67
700.18	1093.69
700.52	1090.41
700.85	1090.81
701.19	1089.10
701.53	1087.27
701.86	1083.79
702.20	1084.25
702.54	1083.67
702.87	1088.00
703.21	1086.83
703.55	1088.72
703.88	1090.71
704.22	1090.48
704.55	1091.63
704.89	1092.19
705.23	1096.85
705.56	1098.32
705.90	1096.56
706.23	1094.53
706.57	1093.85
706.91	1087.97
707.24	1086.10
707.58	1086.97
707.91	1085.99
708.25	1086.92
708.58	1088.89
708.92	1087.79
709.26	1088.33
709.59	1087.46
709.93	1090.10
710.26	1089.17
710.60	1087.62
710.93	1088.77
711.27	1089.43
711.60	1087.13
711.94	1089.92
712.27	1094.65
712.61	1095.02
712.94	1095.49
713.28	1096.10
713.61	1092.00
713.95	1088.79
714.28	1087.62
714.62	1083.20
714.95	1081.33
715.29	1087.20
715.62	1089.22
715.96	1089.00
716.29	1093.15
716.63	1094.46
716.96	1089.61
717.29	1087.51
717.63	1086.97
717.96	1086.45
718.30	1083.76
718.63	1083.01
718.97	1080.48
719.30	1081.12
719.63	1082.36
719.97	1085.66
720.30	1085.66
720.64	1088.51
720.97	1090.01
721.30	1092.05
721.64	1093.76
721.97	1095.65
722.31	1091.84
722.64	1088.89
722.97	1087.06
723.31	1081.66
723.64	1082.33
723.97	1088.84
724.31	1088.86
724.64	1084.28
724.98	1087.53
725.31	1086.71
725.64	1082.71
725.98	1083.81
726.31	1089.29
726.64	1087.48
726.97	1088.33
727.31	1091.81
727.64	1088.42
727.97	1087.79
728.31	1088.98
728.64	1087.86
728.97	1085.26
729.31	1088.21
729.64	1086.52
729.97	1087.74
730.30	1088.09
730.64	1086.27
730.97	1089.33
731.30	1092.28
731.63	1090.60
731.97	1089.99
732.30	1094.72
732.63	1094.55
732.96	1091.39
733.30	1092.23
733.63	1091.16
733.96	1090.83
734.29	1087.13
734.63	1087.06
734.96	1088.26
735.29	1086.17
735.62	1085.91
735.95	1087.90
736.29	1085.84
736.62	1085.42
736.95	1090.81
737.28	1090.97
737.61	1090.34
737.94	1090.46
738.28	1087.95
738.61	1087.93
738.94	1086.10
739.27	1083.83
739.60	1089.38
739.93	1092.89
740.27	1090.69
740.60	1090.27
740.93	1090.13
741.26	1088.44
741.59	1087.09
741.92	1087.20
742.25	1084.65
742.58	1086.73
742.91	1085.66
743.25	1085.26
743.58	1086.01
743.91	1088.72
744.24	1088.84
744.57	1090.69
744.90	1090.50
745.23	1087.88
745.56	1087.25
745.89	1087.60
746.22	1084.35
746.55	1083.34
746.88	1085.61
747.21	1084.56
747.54	1085.63
747.87	1086.66
748.20	1087.53
748.53	1087.27
748.87	1087.69
749.20	1084.58
749.53	1083.55
749.86	1082.78
750.19	1084.39
750.52	1084.07
750.85	1084.39
751.18	1084.39
751.51	1084.86
751.84	1081.21
752.16	1082.47
752.49	1081.63
752.82	1080.06
753.15	1078.78
753.48	1079.48
753.81	1079.41
754.14	1081.89
754.47	1084.98
754.80	1088.54
755.13	1090.22
755.46	1090.53
755.79	1090.67
756.12	1091.84
756.45	1089.87
756.78	1089.54
757.11	1088.77
757.43	1086.29
757.76	1083.79
758.09	1083.48
758.42	1082.97
758.75	1083.71
759.08	1086.78
759.41	1090.69
759.74	1091.63
760.07	1094.39
760.39	1093.31
760.72	1091.79
761.05	1089.59
761.38	1088.63
761.71	1086.92
762.04	1087.16
762.36	1085.03
762.69	1084.18
763.02	1085.91
763.35	1082.36
