SpectraSuite Data File
++++++++++++++++++++++++++++++++++++
Date: Mon Aug 26 10:26:20 PDT 2019
User: corrico
Dark Spectrum Present: No
Reference Spectrum Present: No
Number of Sampled Component Spectra: 1
Spectrometers: USB2+H06089
Integration Time (usec): 10000 (USB2+H06089)
Spectra Averaged: 20 (USB2+H06089)
Boxcar Smoothing: 2 (USB2+H06089)
Correct for Electrical Dark: No (USB2+H06089)
Strobe/Lamp Enabled: No (USB2+H06089)
Correct for Detector Non-linearity: No (USB2+H06089)
Correct for Stray Light: No (USB2+H06089)
Number of Pixels in Processed Spectrum: 2048
>>>>>Begin Processed Spectral Data<<<<<
339.70	1040.95
340.07	1040.95
340.45	1000.72
340.82	974.51
341.19	949.44
341.57	920.79
341.94	910.61
342.31	905.67
342.69	904.31
343.06	900.38
343.43	900.90
343.81	902.56
344.18	905.30
344.55	909.58
344.93	916.74
345.30	925.24
345.67	931.21
346.04	937.10
346.42	942.58
346.79	951.99
347.16	959.25
347.54	970.34
347.91	978.86
348.28	991.08
348.65	999.03
349.03	1006.55
349.40	1014.06
349.77	1026.07
350.14	1032.97
350.52	1041.26
350.89	1047.60
351.26	1055.07
351.63	1057.69
352.01	1061.90
352.38	1065.04
352.75	1071.08
353.12	1070.84
353.50	1074.75
353.87	1078.40
354.24	1079.92
354.61	1079.60
354.98	1082.97
355.36	1081.30
355.73	1080.74
356.10	1079.71
356.47	1082.12
356.84	1081.94
357.22	1083.22
357.59	1085.24
357.96	1088.70
358.33	1089.43
358.70	1087.53
359.08	1088.23
359.45	1082.92
359.82	1080.81
360.19	1083.86
360.56	1088.19
360.94	1089.22
361.31	1089.89
361.68	1089.94
362.05	1083.15
362.42	1080.93
362.79	1079.95
363.16	1082.83
363.54	1083.32
363.91	1088.33
364.28	1088.65
364.65	1089.03
365.02	1087.81
365.39	1082.66
365.76	1080.70
366.14	1081.77
366.51	1078.99
366.88	1079.74
367.25	1081.33
367.62	1080.27
367.99	1075.57
368.36	1076.25
368.73	1075.64
369.10	1079.03
369.48	1078.85
369.85	1082.40
370.22	1081.84
370.59	1082.05
370.96	1080.46
371.33	1081.77
371.70	1083.32
372.07	1082.36
372.44	1082.87
372.81	1082.94
373.18	1081.66
373.55	1079.55
373.93	1083.76
374.30	1083.83
374.67	1084.46
375.04	1083.32
375.41	1085.47
375.78	1082.54
376.15	1086.50
376.52	1087.13
376.89	1090.27
377.26	1089.78
377.63	1093.50
378.00	1089.96
378.37	1088.44
378.74	1088.19
379.11	1088.44
379.48	1086.34
379.85	1085.52
380.22	1090.62
380.59	1086.64
380.96	1084.21
381.33	1081.51
381.70	1082.90
382.07	1082.08
382.44	1086.97
382.81	1090.60
383.18	1090.90
383.55	1091.81
383.92	1088.42
384.29	1084.35
384.66	1085.73
385.03	1087.95
385.40	1085.19
385.77	1086.31
386.14	1087.46
386.51	1085.56
386.88	1084.44
387.25	1087.06
387.62	1088.40
387.99	1086.27
388.36	1085.77
388.73	1087.46
389.10	1089.03
389.46	1087.53
389.83	1090.46
390.20	1089.85
390.57	1091.93
390.94	1090.55
391.31	1091.34
391.68	1091.95
392.05	1093.08
392.42	1090.34
392.79	1090.92
393.16	1090.81
393.53	1089.43
393.89	1088.68
394.26	1087.02
394.63	1087.69
395.00	1087.83
395.37	1091.06
395.74	1093.10
396.11	1096.14
396.48	1093.17
396.84	1092.75
397.21	1093.26
397.58	1093.85
397.95	1095.67
398.32	1096.52
398.69	1096.24
399.06	1092.02
399.42	1091.70
399.79	1091.84
400.16	1093.19
400.53	1093.24
400.90	1097.34
401.27	1097.24
401.64	1096.07
402.00	1094.08
402.37	1095.56
402.74	1093.69
403.11	1092.87
403.48	1092.47
403.84	1095.37
404.21	1095.44
404.58	1096.21
404.95	1092.82
405.32	1093.47
405.68	1090.71
406.05	1091.04
406.42	1088.86
406.79	1090.46
407.16	1093.57
407.52	1098.04
407.89	1099.63
408.26	1103.19
408.63	1102.95
408.99	1098.72
409.36	1097.71
409.73	1098.86
410.10	1097.57
410.47	1100.78
410.83	1106.11
411.20	1105.58
411.57	1103.91
411.94	1104.64
412.30	1104.12
412.67	1100.80
413.04	1098.79
413.40	1097.34
413.77	1094.74
414.14	1095.32
414.51	1096.87
414.87	1100.87
415.24	1102.81
415.61	1105.36
415.97	1105.88
416.34	1106.32
416.71	1104.03
417.08	1101.97
417.44	1103.07
417.81	1104.36
418.18	1104.90
418.54	1107.71
418.91	1111.66
419.28	1111.71
419.64	1111.85
420.01	1114.47
420.38	1115.83
420.74	1115.85
421.11	1117.07
421.48	1116.83
421.84	1114.12
422.21	1111.59
422.58	1112.32
422.94	1110.33
423.31	1111.87
423.68	1112.74
424.04	1114.00
424.41	1113.67
424.77	1114.94
425.14	1113.77
425.51	1114.52
425.87	1115.55
426.24	1115.29
426.61	1117.84
426.97	1121.02
427.34	1120.98
427.70	1116.81
428.07	1117.82
428.44	1116.06
428.80	1113.37
429.17	1112.69
429.53	1116.46
429.90	1116.01
430.27	1116.18
430.63	1114.12
431.00	1111.64
431.36	1111.87
431.73	1114.33
432.09	1116.65
432.46	1122.75
432.83	1125.66
433.19	1125.07
433.56	1123.74
433.92	1121.96
434.29	1115.43
434.65	1118.05
435.02	1120.09
435.38	1118.61
435.75	1120.27
436.11	1123.06
436.48	1123.62
436.84	1118.94
437.21	1119.03
437.57	1117.77
437.94	1118.35
438.30	1113.88
438.67	1117.23
439.03	1115.15
439.40	1112.32
439.76	1110.05
440.13	1111.36
440.49	1112.29
440.86	1113.79
441.22	1116.39
441.59	1118.07
441.95	1117.75
442.32	1115.62
442.68	1114.47
443.05	1114.84
443.41	1116.32
443.78	1114.45
444.14	1115.22
444.51	1113.58
444.87	1113.88
445.24	1112.67
445.60	1115.97
445.96	1113.58
446.33	1118.07
446.69	1117.70
447.06	1113.91
447.42	1113.65
447.79	1117.07
448.15	1114.91
448.51	1114.42
448.88	1121.42
449.24	1118.50
449.61	1116.48
449.97	1119.22
450.33	1117.70
450.70	1112.64
451.06	1110.79
451.43	1107.45
451.79	1105.83
452.15	1105.74
452.52	1107.64
452.88	1110.05
453.24	1112.62
453.61	1112.06
453.97	1111.38
454.34	1111.97
454.70	1116.32
455.06	1116.27
455.43	1117.93
455.79	1120.46
456.15	1120.70
456.52	1116.58
456.88	1118.28
457.24	1118.00
457.61	1119.41
457.97	1115.27
458.33	1113.77
458.70	1120.20
459.06	1118.75
459.42	1120.46
459.79	1123.04
460.15	1126.38
460.51	1122.38
460.88	1122.75
461.24	1120.20
461.60	1123.81
461.96	1124.98
462.33	1125.05
462.69	1126.15
463.05	1127.93
463.42	1128.96
463.78	1129.03
464.14	1131.44
464.50	1131.41
464.87	1133.12
465.23	1133.03
465.59	1132.28
465.95	1131.74
466.32	1135.67
466.68	1137.22
467.04	1133.29
467.40	1135.46
467.77	1135.14
468.13	1135.98
468.49	1136.45
468.85	1142.70
469.22	1146.58
469.58	1148.99
469.94	1150.84
470.30	1156.25
470.66	1159.99
471.03	1162.59
471.39	1163.43
471.75	1162.22
472.11	1161.84
472.47	1161.49
472.84	1164.25
473.20	1169.07
473.56	1172.26
473.92	1172.73
474.28	1179.30
474.65	1180.87
475.01	1183.96
475.37	1188.64
475.73	1196.18
476.09	1198.82
476.45	1201.33
476.81	1206.17
477.18	1214.27
477.54	1216.40
477.90	1224.57
478.26	1234.45
478.62	1243.55
478.98	1253.29
479.34	1266.07
479.71	1273.18
480.07	1285.07
480.43	1295.58
480.79	1304.99
481.15	1313.93
481.51	1328.07
481.87	1339.96
482.23	1351.24
482.59	1368.07
482.96	1386.46
483.32	1399.66
483.68	1418.11
484.04	1439.20
484.40	1455.13
484.76	1473.06
485.12	1495.16
485.48	1519.24
485.84	1541.10
486.20	1567.48
486.56	1595.00
486.92	1621.92
487.28	1646.43
487.64	1676.78
488.00	1710.11
488.37	1748.33
488.73	1785.81
489.09	1829.20
489.45	1875.14
489.81	1918.00
490.17	1960.97
490.53	2012.06
490.89	2061.92
491.25	2108.66
491.61	2165.93
491.97	2221.87
492.33	2278.84
492.69	2334.24
493.05	2401.72
493.41	2472.28
493.77	2547.58
494.13	2630.74
494.49	2712.59
494.85	2799.05
495.21	2887.12
495.57	2978.43
495.93	3077.20
496.29	3178.21
496.64	3299.01
497.00	3415.40
497.36	3541.00
497.72	3670.03
498.08	3819.85
498.44	3956.91
498.80	4112.79
499.16	4274.73
499.52	4449.05
499.88	4623.56
500.24	4808.14
500.60	4988.50
500.96	5180.05
501.32	5367.67
501.68	5560.11
502.03	5772.28
502.39	6001.13
502.75	6244.15
503.11	6510.06
503.47	6797.48
503.83	7091.40
504.19	7388.04
504.55	7728.05
504.91	8058.75
505.26	8383.54
505.62	8770.27
505.98	9197.37
506.34	9587.09
506.70	10020.40
507.06	10516.28
507.42	10975.10
507.78	11441.94
508.13	11974.02
508.49	12515.08
508.85	13075.80
509.21	13658.15
509.57	14245.83
509.93	14856.46
510.28	15503.05
510.64	16206.85
511.00	16901.38
511.36	17647.69
511.72	18446.25
512.07	19286.25
512.43	20093.69
512.79	21021.80
513.15	21929.16
513.51	22714.71
513.86	23531.30
514.22	24451.39
514.58	25368.86
514.94	26281.41
515.30	27360.82
515.65	28477.32
516.01	29488.27
516.37	30441.01
516.73	31464.20
517.08	32360.71
517.44	33140.79
517.80	34003.21
518.16	34958.80
518.51	35919.87
518.87	36866.97
519.23	37915.51
519.59	38925.54
519.94	39897.12
520.30	40830.04
520.66	41678.22
521.01	42494.46
521.37	43309.06
521.73	43952.92
522.09	44529.39
522.44	45283.00
522.80	45845.10
523.16	46187.08
523.51	46535.94
523.87	46912.34
524.23	47209.07
524.58	47465.29
524.94	47860.16
525.30	48168.69
525.65	48300.02
526.01	48258.43
526.37	48416.02
526.72	48515.98
527.08	48501.68
527.44	48404.20
527.79	48316.66
528.15	48116.31
528.51	47790.30
528.86	47539.63
529.22	47211.18
529.58	46861.78
529.93	46405.85
530.29	45870.57
530.65	45379.73
531.00	44968.55
531.36	44355.02
531.71	43766.45
532.07	43321.75
532.43	42594.24
532.78	41820.79
533.14	41214.31
533.49	40543.65
533.85	39772.07
534.21	39234.92
534.56	38715.78
534.92	38082.01
535.27	37412.18
535.63	36625.71
535.98	35832.34
536.34	35052.24
536.69	34303.13
537.05	33593.59
537.41	33029.69
537.76	32399.71
538.12	31673.86
538.47	31078.38
538.83	30536.13
539.18	29931.22
539.54	29362.35
539.89	28908.78
540.25	28409.17
540.60	27858.62
540.96	27275.04
541.31	26749.33
541.67	26319.98
542.02	25843.45
542.38	25397.20
542.73	24940.33
543.09	24457.47
543.44	23922.94
543.80	23454.09
544.15	22948.32
544.51	22597.29
544.86	22195.35
545.22	21839.52
545.57	21460.09
545.93	21039.66
546.28	20589.20
546.64	20220.08
546.99	19808.28
547.35	19411.54
547.70	19070.54
548.05	18693.13
548.41	18279.26
548.76	17830.72
549.12	17409.68
549.47	17033.34
549.83	16694.39
550.18	16332.33
550.53	15972.92
550.89	15596.25
551.24	15201.83
551.60	14856.88
551.95	14561.29
552.30	14296.69
552.66	14068.07
553.01	13854.17
553.37	13598.93
553.72	13319.90
554.07	13039.12
554.43	12749.02
554.78	12424.48
555.13	12118.87
555.49	11796.79
555.84	11519.63
556.19	11238.13
556.55	10960.40
556.90	10677.99
557.26	10472.68
557.61	10257.54
557.96	10023.81
558.32	9823.04
558.67	9611.69
559.02	9377.54
559.37	9169.45
559.73	9003.95
560.08	8813.03
560.43	8616.45
560.79	8423.59
561.14	8205.38
561.49	7977.51
561.85	7776.43
562.20	7612.08
562.55	7464.39
562.90	7314.24
563.26	7172.81
563.61	7034.97
563.96	6866.92
564.32	6690.68
564.67	6540.53
565.02	6415.92
565.37	6293.30
565.73	6157.69
566.08	6031.94
566.43	5912.64
566.78	5768.02
567.14	5623.02
567.49	5515.57
567.84	5402.94
568.19	5281.33
568.54	5177.01
568.90	5081.58
569.25	4997.72
569.60	4908.92
569.95	4833.49
570.31	4755.99
570.66	4676.25
571.01	4569.10
571.36	4476.44
571.71	4387.38
572.06	4302.35
572.42	4208.12
572.77	4127.18
573.12	4055.00
573.47	3978.11
573.82	3911.50
574.18	3849.60
574.53	3785.14
574.88	3719.46
575.23	3651.75
575.58	3573.32
575.93	3504.37
576.28	3443.93
576.64	3386.15
576.99	3325.97
577.34	3271.48
577.69	3215.10
578.04	3154.74
578.39	3096.58
578.74	3033.03
579.09	2971.05
579.44	2914.72
579.80	2868.21
580.15	2816.98
580.50	2777.96
580.85	2734.12
581.20	2692.34
581.55	2649.93
581.90	2607.87
582.25	2567.01
582.60	2525.48
582.95	2489.72
583.30	2453.16
583.65	2420.54
584.00	2382.99
584.35	2352.78
584.71	2315.87
585.06	2288.51
585.41	2256.58
585.76	2232.82
586.11	2203.54
586.46	2177.66
586.81	2142.25
587.16	2111.87
587.51	2081.49
587.86	2061.68
588.21	2040.46
588.56	2017.17
588.91	2000.32
589.26	1975.93
589.61	1949.06
589.96	1925.68
590.31	1903.84
590.66	1876.01
591.01	1861.55
591.36	1839.59
591.71	1813.75
592.06	1794.28
592.41	1780.42
592.76	1758.66
593.10	1742.55
593.45	1727.48
593.80	1712.13
594.15	1695.81
594.50	1686.03
594.85	1675.92
595.20	1666.98
595.55	1654.50
595.90	1638.12
596.25	1620.49
596.60	1603.31
596.95	1587.14
597.30	1573.71
597.64	1619.60
597.99	1614.41
598.34	1605.16
598.69	1595.00
599.04	1585.24
599.39	1519.05
599.74	1501.06
600.09	1489.45
600.44	1477.58
600.78	1469.36
601.13	1464.10
601.48	1460.03
601.83	1453.64
602.18	1446.83
602.53	1434.61
602.88	1424.33
603.22	1411.44
603.57	1404.32
603.92	1396.13
604.27	1392.01
604.62	1387.61
604.97	1384.99
605.31	1377.24
605.66	1373.94
606.01	1369.00
606.36	1361.04
606.71	1355.36
607.05	1345.46
607.40	1336.09
607.75	1327.79
608.10	1320.86
608.44	1312.17
608.79	1309.04
609.14	1302.04
609.49	1297.85
609.84	1293.57
610.18	1292.30
610.53	1287.25
610.88	1285.33
611.23	1281.61
611.57	1276.79
611.92	1270.82
612.27	1270.28
612.62	1262.58
612.96	1257.78
613.31	1251.44
613.66	1247.81
614.00	1244.84
614.35	1244.63
614.70	1241.28
615.05	1241.58
615.39	1234.89
615.74	1227.61
616.09	1224.50
616.43	1218.81
616.78	1214.11
617.13	1211.60
617.47	1209.52
617.82	1206.17
618.17	1204.84
618.51	1199.31
618.86	1198.99
619.21	1198.38
619.55	1195.26
619.90	1195.15
620.25	1193.18
620.59	1190.63
620.94	1187.82
621.29	1186.56
621.63	1183.23
621.98	1183.87
622.32	1179.68
622.67	1173.40
623.02	1172.12
623.36	1166.15
623.71	1164.21
624.05	1165.33
624.40	1166.45
624.75	1162.54
625.09	1163.71
625.44	1159.31
625.78	1158.92
626.13	1159.03
626.48	1158.05
626.82	1158.75
627.17	1160.23
627.51	1152.69
627.86	1147.45
628.20	1144.73
628.55	1141.85
628.89	1135.82
629.24	1135.77
629.58	1138.88
629.93	1137.59
630.28	1137.41
630.62	1142.79
630.97	1146.09
631.31	1142.53
631.66	1144.05
632.00	1147.63
632.35	1144.05
632.69	1141.69
633.04	1139.40
633.38	1137.01
633.73	1131.58
634.07	1131.67
634.42	1131.11
634.76	1131.16
635.11	1129.85
635.45	1128.96
635.79	1125.80
636.14	1127.72
636.48	1127.13
636.83	1128.16
637.17	1124.39
637.52	1124.14
637.86	1121.82
638.21	1120.32
638.55	1116.53
638.89	1119.90
639.24	1122.01
639.58	1120.58
639.93	1120.67
640.27	1123.55
640.61	1121.77
640.96	1121.96
641.30	1122.83
641.65	1123.36
641.99	1121.00
642.33	1117.02
642.68	1110.09
643.02	1109.09
643.37	1108.10
643.71	1105.18
644.05	1108.22
644.40	1112.78
644.74	1111.38
645.08	1111.12
645.43	1111.26
645.77	1108.83
646.11	1106.72
646.46	1104.85
646.80	1102.25
647.14	1104.33
647.49	1103.82
647.83	1104.90
648.17	1106.42
648.52	1110.89
648.86	1110.33
649.20	1112.27
649.55	1110.40
649.89	1107.80
650.23	1102.63
650.57	1104.03
650.92	1100.66
651.26	1102.63
651.60	1102.35
651.95	1103.63
652.29	1101.67
652.63	1106.28
652.97	1105.60
653.32	1106.98
653.66	1105.46
654.00	1106.11
654.34	1102.58
654.69	1100.12
655.03	1099.02
655.37	1099.58
655.71	1099.16
656.05	1101.76
656.40	1100.73
656.74	1099.96
657.08	1097.36
657.42	1098.65
657.76	1097.15
658.11	1098.11
658.45	1099.35
658.79	1101.20
659.13	1101.06
659.47	1100.71
659.82	1100.94
660.16	1099.16
660.50	1100.45
660.84	1098.86
661.18	1098.02
661.52	1098.90
661.87	1100.24
662.21	1099.33
662.55	1098.67
662.89	1097.69
663.23	1097.36
663.57	1095.44
663.91	1097.20
664.25	1097.10
664.60	1096.89
664.94	1093.99
665.28	1096.82
665.62	1093.78
665.96	1096.99
666.30	1097.31
666.64	1101.64
666.98	1101.60
667.32	1102.23
667.66	1098.74
668.01	1098.58
668.35	1096.28
668.69	1095.75
669.03	1095.39
669.37	1095.11
669.71	1097.13
670.05	1096.33
670.39	1097.99
670.73	1096.99
671.07	1097.03
671.41	1092.91
671.75	1095.98
672.09	1092.77
672.43	1093.45
672.77	1093.97
673.11	1094.01
673.45	1090.06
673.79	1088.96
674.13	1087.11
674.47	1087.30
674.81	1086.76
675.15	1088.37
675.49	1089.82
675.83	1092.68
676.17	1092.56
676.51	1097.59
676.85	1097.34
677.19	1095.11
677.53	1098.65
677.87	1099.77
678.21	1099.65
678.55	1098.93
678.89	1098.34
679.23	1094.95
679.57	1094.74
679.90	1090.41
680.24	1092.21
680.58	1092.28
680.92	1090.71
681.26	1085.77
681.60	1088.65
681.94	1088.23
682.28	1092.00
682.62	1094.41
682.96	1094.76
683.29	1096.17
683.63	1093.94
683.97	1089.43
684.31	1089.61
684.65	1092.63
684.99	1089.87
685.33	1091.93
685.67	1094.39
686.00	1094.41
686.34	1094.81
686.68	1093.38
687.02	1092.37
687.36	1091.91
687.70	1094.08
688.03	1090.06
688.37	1090.27
688.71	1089.52
689.05	1088.47
689.39	1085.94
689.72	1090.60
690.06	1094.88
690.40	1096.80
690.74	1095.58
691.08	1094.20
691.41	1090.90
691.75	1088.14
692.09	1087.55
692.43	1089.64
692.76	1089.05
693.10	1093.03
693.44	1092.45
693.78	1093.85
694.11	1096.21
694.45	1095.60
694.79	1093.55
695.13	1094.41
695.46	1092.12
695.80	1090.01
696.14	1091.93
696.48	1091.88
696.81	1092.05
697.15	1095.56
697.49	1096.26
697.82	1091.79
698.16	1094.01
698.50	1093.80
698.83	1090.46
699.17	1086.80
699.51	1092.52
699.84	1088.91
700.18	1087.25
700.52	1088.35
700.85	1091.30
701.19	1087.90
701.53	1090.36
701.86	1090.27
702.20	1085.00
702.54	1084.72
702.87	1085.31
703.21	1085.96
703.55	1089.00
703.88	1091.37
704.22	1091.88
704.55	1092.45
704.89	1090.32
705.23	1088.89
705.56	1089.99
705.90	1092.02
706.23	1091.39
706.57	1087.69
706.91	1088.65
707.24	1089.89
707.58	1089.12
707.91	1086.99
708.25	1090.36
708.58	1087.34
708.92	1084.28
709.26	1082.17
709.59	1085.89
709.93	1087.60
710.26	1090.39
710.60	1092.96
710.93	1094.36
711.27	1093.31
711.60	1091.98
711.94	1088.72
712.27	1088.75
712.61	1086.87
712.94	1087.79
713.28	1088.82
713.61	1091.53
713.95	1089.87
714.28	1089.73
714.62	1089.29
714.95	1084.63
715.29	1081.84
715.62	1085.05
715.96	1088.14
716.29	1089.29
716.63	1094.67
716.96	1096.05
717.29	1095.28
717.63	1092.75
717.96	1091.88
718.30	1088.86
718.63	1088.54
718.97	1088.30
719.30	1090.08
719.63	1091.27
719.97	1089.92
720.30	1089.94
720.64	1089.24
720.97	1087.23
721.30	1086.17
721.64	1089.47
721.97	1092.40
722.31	1093.90
722.64	1095.82
722.97	1095.28
723.31	1097.24
723.64	1093.33
723.97	1091.13
724.31	1091.34
724.64	1088.09
724.98	1083.46
725.31	1084.44
725.64	1083.76
725.98	1082.15
726.31	1082.03
726.64	1083.18
726.97	1084.72
727.31	1086.73
727.64	1086.76
727.97	1090.92
728.31	1095.53
728.64	1095.72
728.97	1094.67
729.31	1092.37
729.64	1091.39
729.97	1087.76
730.30	1086.29
730.64	1084.81
730.97	1085.84
731.30	1086.01
731.63	1084.77
731.97	1085.19
732.30	1087.93
732.63	1089.99
732.96	1089.71
733.30	1091.86
733.63	1089.36
733.96	1088.56
734.29	1086.36
734.63	1086.38
734.96	1086.92
735.29	1089.03
735.62	1090.01
735.95	1091.23
736.29	1092.28
736.62	1090.99
736.95	1087.48
737.28	1083.90
737.61	1083.93
737.94	1084.60
738.28	1083.27
738.61	1087.86
738.94	1094.55
739.27	1094.01
739.60	1088.30
739.93	1088.84
740.27	1087.20
740.60	1084.02
740.93	1081.70
741.26	1089.12
741.59	1087.90
741.92	1091.53
742.25	1089.64
742.58	1093.45
742.91	1089.78
743.25	1091.53
743.58	1090.17
743.91	1090.97
744.24	1092.05
744.57	1093.12
744.90	1091.93
745.23	1091.11
745.56	1090.48
745.89	1092.45
746.22	1093.62
746.55	1093.40
746.88	1094.69
747.21	1093.85
747.54	1089.03
747.87	1084.25
748.20	1082.33
748.53	1081.80
748.87	1082.87
749.20	1083.48
749.53	1085.47
749.86	1087.76
750.19	1084.72
750.52	1083.79
750.85	1082.17
751.18	1080.91
751.51	1081.12
751.84	1078.38
752.16	1079.20
752.49	1080.30
752.82	1081.23
753.15	1083.41
753.48	1086.41
753.81	1087.27
754.14	1085.75
754.47	1087.06
754.80	1084.42
755.13	1088.07
755.46	1087.62
755.79	1089.36
756.12	1092.84
756.45	1091.13
756.78	1087.06
757.11	1086.15
757.43	1087.04
757.76	1082.05
758.09	1083.64
758.42	1084.96
758.75	1084.07
759.08	1084.16
759.41	1083.15
759.74	1086.03
760.07	1085.42
760.39	1087.20
760.72	1082.83
761.05	1083.86
761.38	1080.27
761.71	1084.00
762.04	1083.36
762.36	1088.16
762.69	1088.21
763.02	1089.07
763.35	1087.25
