SpectraSuite Data File
++++++++++++++++++++++++++++++++++++
Date: Mon Aug 26 10:26:35 PDT 2019
User: corrico
Dark Spectrum Present: No
Reference Spectrum Present: No
Number of Sampled Component Spectra: 1
Spectrometers: USB2+H06089
Integration Time (usec): 10000 (USB2+H06089)
Spectra Averaged: 20 (USB2+H06089)
Boxcar Smoothing: 2 (USB2+H06089)
Correct for Electrical Dark: No (USB2+H06089)
Strobe/Lamp Enabled: No (USB2+H06089)
Correct for Detector Non-linearity: No (USB2+H06089)
Correct for Stray Light: No (USB2+H06089)
Number of Pixels in Processed Spectrum: 2048
>>>>>Begin Processed Spectral Data<<<<<
339.70	1033.46
340.07	1033.46
340.45	995.43
340.82	973.71
341.19	953.46
341.57	928.21
341.94	919.15
342.31	913.89
342.69	908.88
343.06	900.12
343.43	900.52
343.81	903.47
344.18	899.91
344.55	903.70
344.93	912.55
345.30	920.91
345.67	925.05
346.04	939.75
346.42	948.97
346.79	954.84
347.16	958.54
347.54	968.65
347.91	971.44
348.28	980.94
348.65	991.52
349.03	1003.74
349.40	1014.72
349.77	1027.31
350.14	1034.12
350.52	1041.56
350.89	1045.82
351.26	1048.98
351.63	1055.96
352.01	1059.00
352.38	1061.13
352.75	1063.91
353.12	1068.41
353.50	1067.24
353.87	1070.65
354.24	1076.41
354.61	1080.58
354.98	1082.94
355.36	1090.36
355.73	1094.81
356.10	1095.21
356.47	1094.08
356.84	1095.07
357.22	1093.22
357.59	1089.92
357.96	1091.02
358.33	1093.62
358.70	1094.25
359.08	1093.87
359.45	1093.15
359.82	1091.58
360.19	1090.10
360.56	1088.35
360.94	1085.59
361.31	1082.78
361.68	1082.26
362.05	1079.20
362.42	1078.82
362.79	1078.66
363.16	1084.96
363.54	1083.79
363.91	1084.30
364.28	1082.78
364.65	1083.15
365.02	1078.17
365.39	1079.83
365.76	1083.20
366.14	1082.38
366.51	1081.54
366.88	1080.70
367.25	1080.09
367.62	1077.25
367.99	1077.91
368.36	1078.52
368.73	1080.74
369.10	1077.25
369.48	1077.54
369.85	1077.21
370.22	1075.80
370.59	1079.24
370.96	1080.63
371.33	1081.42
371.70	1084.89
372.07	1084.98
372.44	1082.83
372.81	1083.93
373.18	1083.29
373.55	1078.85
373.93	1077.37
374.30	1075.71
374.67	1075.99
375.04	1074.91
375.41	1077.04
375.78	1079.48
376.15	1077.84
376.52	1076.86
376.89	1076.88
377.26	1079.57
377.63	1079.67
378.00	1082.05
378.37	1081.07
378.74	1080.79
379.11	1078.64
379.48	1079.55
379.85	1078.52
380.22	1079.31
380.59	1081.82
380.96	1082.05
381.33	1083.27
381.70	1087.81
382.07	1088.42
382.44	1088.04
382.81	1086.78
383.18	1084.79
383.55	1081.82
383.92	1083.04
384.29	1081.00
384.66	1083.83
385.03	1083.76
385.40	1082.08
385.77	1080.02
386.14	1082.17
386.51	1079.34
386.88	1080.46
387.25	1084.60
387.62	1083.15
387.99	1082.54
388.36	1082.45
388.73	1078.87
389.10	1076.97
389.46	1081.49
389.83	1083.36
390.20	1085.24
390.57	1086.83
390.94	1082.87
391.31	1081.66
391.68	1082.45
392.05	1085.33
392.42	1085.42
392.79	1090.76
393.16	1092.40
393.53	1090.20
393.89	1088.07
394.26	1089.80
394.63	1089.00
395.00	1088.19
395.37	1089.17
395.74	1091.70
396.11	1091.32
396.48	1088.09
396.84	1087.11
397.21	1085.66
397.58	1082.45
397.95	1081.87
398.32	1082.80
398.69	1083.32
399.06	1086.94
399.42	1089.99
399.79	1088.47
400.16	1091.81
400.53	1093.64
400.90	1092.73
401.27	1092.28
401.64	1094.83
402.00	1095.42
402.37	1093.55
402.74	1093.50
403.11	1090.08
403.48	1093.50
403.84	1092.28
404.21	1095.63
404.58	1097.52
404.95	1100.45
405.32	1099.07
405.68	1098.58
406.05	1096.42
406.42	1095.28
406.79	1098.55
407.16	1099.30
407.52	1099.40
407.89	1101.97
408.26	1099.82
408.63	1095.25
408.99	1093.47
409.36	1093.90
409.73	1091.88
410.10	1096.07
410.47	1099.75
410.83	1098.76
411.20	1098.76
411.57	1098.58
411.94	1101.85
412.30	1098.69
412.67	1101.83
413.04	1103.54
413.40	1105.34
413.77	1102.81
414.14	1105.83
414.51	1102.72
414.87	1103.38
415.24	1102.93
415.61	1099.96
415.97	1099.54
416.34	1102.21
416.71	1100.94
417.08	1099.82
417.44	1101.15
417.81	1101.67
418.18	1099.96
418.54	1100.47
418.91	1099.79
419.28	1101.11
419.64	1101.25
420.01	1103.09
420.38	1102.77
420.74	1108.45
421.11	1109.09
421.48	1110.47
421.84	1109.48
422.21	1112.18
422.58	1106.75
422.94	1104.80
423.31	1103.05
423.68	1104.64
424.04	1108.13
424.41	1113.93
424.77	1117.37
425.14	1120.02
425.51	1120.41
425.87	1117.14
426.24	1114.35
426.61	1112.64
426.97	1108.95
427.34	1112.08
427.70	1110.89
428.07	1110.19
428.44	1110.94
428.80	1111.31
429.17	1108.92
429.53	1109.04
429.90	1110.02
430.27	1109.23
430.63	1109.25
431.00	1106.46
431.36	1104.03
431.73	1105.08
432.09	1107.92
432.46	1109.16
432.83	1112.81
433.19	1116.25
433.56	1116.13
433.92	1114.94
434.29	1114.61
434.65	1114.52
435.02	1117.00
435.38	1114.24
435.75	1113.30
436.11	1112.90
436.48	1114.98
436.84	1112.71
437.21	1112.46
437.57	1111.80
437.94	1116.41
438.30	1113.60
438.67	1113.74
439.03	1117.47
439.40	1115.97
439.76	1115.12
440.13	1116.32
440.49	1114.63
440.86	1112.29
441.22	1113.74
441.59	1110.00
441.95	1106.79
442.32	1108.78
442.68	1107.45
443.05	1106.14
443.41	1108.92
443.78	1109.37
444.14	1106.79
444.51	1108.95
444.87	1108.83
445.24	1106.96
445.60	1109.16
445.96	1108.03
446.33	1106.09
446.69	1108.01
447.06	1107.45
447.42	1109.69
447.79	1111.22
448.15	1111.87
448.51	1109.93
448.88	1110.56
449.24	1108.71
449.61	1107.80
449.97	1110.05
450.33	1108.90
450.70	1106.44
451.06	1104.48
451.43	1108.01
451.79	1107.42
452.15	1108.64
452.52	1109.67
452.88	1110.42
453.24	1107.66
453.61	1104.69
453.97	1101.81
454.34	1104.22
454.70	1101.69
455.06	1103.02
455.43	1103.33
455.79	1108.64
456.15	1110.84
456.52	1114.77
456.88	1115.90
457.24	1120.86
457.61	1121.47
457.97	1119.50
458.33	1118.00
458.70	1115.69
459.06	1111.68
459.42	1111.03
459.79	1111.80
460.15	1112.60
460.51	1117.30
460.88	1120.93
461.24	1121.82
461.60	1121.80
461.96	1123.53
462.33	1121.82
462.69	1120.25
463.05	1118.14
463.42	1119.92
463.78	1119.45
464.14	1118.05
464.50	1120.06
464.87	1123.01
465.23	1121.42
465.59	1124.00
465.95	1126.36
466.32	1126.57
466.68	1126.73
467.04	1128.40
467.40	1126.22
467.77	1127.04
468.13	1126.20
468.49	1125.31
468.85	1124.77
469.22	1129.40
469.58	1132.35
469.94	1136.00
470.30	1141.60
470.66	1145.50
471.03	1147.24
471.39	1148.45
471.75	1150.51
472.11	1148.64
472.47	1150.33
472.84	1152.85
473.20	1154.12
473.56	1157.32
473.92	1160.25
474.28	1160.95
474.65	1162.05
475.01	1164.79
475.37	1164.28
475.73	1169.43
476.09	1172.58
476.45	1174.86
476.81	1180.00
477.18	1187.21
477.54	1193.04
477.90	1202.99
478.26	1214.18
478.62	1221.92
478.98	1231.75
479.34	1240.27
479.71	1246.38
480.07	1253.33
480.43	1265.29
480.79	1271.33
481.15	1282.99
481.51	1290.59
481.87	1295.74
482.23	1305.08
482.59	1320.48
482.96	1330.83
483.32	1351.47
483.68	1367.32
484.04	1382.27
484.40	1396.57
484.76	1415.67
485.12	1430.00
485.48	1449.61
485.84	1466.63
486.20	1486.68
486.56	1506.79
486.92	1533.43
487.28	1562.14
487.64	1588.59
488.00	1619.56
488.37	1642.66
488.73	1670.25
489.09	1704.40
489.45	1740.70
489.81	1772.00
490.17	1818.50
490.53	1855.83
490.89	1895.37
491.25	1941.69
491.61	1990.58
491.97	2038.56
492.33	2094.66
492.69	2145.57
493.05	2195.14
493.41	2255.27
493.77	2313.76
494.13	2378.83
494.49	2451.24
494.85	2524.83
495.21	2593.66
495.57	2673.22
495.93	2753.10
496.29	2837.01
496.64	2936.48
497.00	3035.51
497.36	3136.25
497.72	3240.26
498.08	3346.01
498.44	3459.12
498.80	3586.82
499.16	3718.76
499.52	3860.48
499.88	4016.34
500.24	4172.08
500.60	4322.15
500.96	4486.25
501.32	4657.78
501.68	4826.33
502.03	5011.72
502.39	5221.74
502.75	5437.63
503.11	5664.66
503.47	5900.33
503.83	6144.73
504.19	6398.56
504.55	6676.40
504.91	6950.85
505.26	7243.02
505.62	7549.30
505.98	7874.71
506.34	8195.20
506.70	8554.61
507.06	8929.94
507.42	9337.50
507.78	9742.29
508.13	10173.09
508.49	10611.71
508.85	11085.92
509.21	11563.84
509.57	12087.81
509.93	12639.69
510.28	13231.10
510.64	13847.62
511.00	14467.20
511.36	15048.31
511.72	15633.94
512.07	16293.34
512.43	16912.50
512.79	17583.84
513.15	18322.58
513.51	19079.81
513.86	19803.04
514.22	20630.02
514.58	21426.29
514.94	22267.53
515.30	23109.54
515.65	23925.38
516.01	24781.71
516.37	25653.61
516.73	26440.99
517.08	27327.49
517.44	28190.70
517.80	28995.42
518.16	29847.00
518.51	30675.41
518.87	31413.78
519.23	32288.49
519.59	33179.27
519.94	34016.06
520.30	34888.80
520.66	35677.42
521.01	36463.00
521.37	37135.50
521.73	37750.55
522.09	38344.34
522.44	38995.10
522.80	39392.97
523.16	39742.79
523.51	39996.20
523.87	40300.09
524.23	40552.05
524.58	40847.38
524.94	41229.78
525.30	41588.98
525.65	41770.93
526.01	41808.80
526.37	41804.05
526.72	41708.74
527.08	41554.32
527.44	41383.29
527.79	41226.85
528.15	41092.11
528.51	40848.20
528.86	40631.47
529.22	40388.31
529.58	40134.15
529.93	39748.19
530.29	39333.24
530.65	38955.55
531.00	38597.54
531.36	38150.59
531.71	37702.10
532.07	37218.08
532.43	36632.19
532.78	35955.17
533.14	35376.42
533.49	34793.89
533.85	34176.15
534.21	33561.78
534.56	33030.01
534.92	32431.73
535.27	31825.48
535.63	31204.21
535.98	30583.41
536.34	29935.40
536.69	29281.01
537.05	28651.57
537.41	28140.61
537.76	27637.54
538.12	27089.45
538.47	26613.08
538.83	26150.81
539.18	25680.05
539.54	25185.71
539.89	24714.21
540.25	24171.41
540.60	23699.05
540.96	23195.60
541.31	22725.22
541.67	22326.93
542.02	21955.82
542.38	21522.72
542.73	21064.47
543.09	20653.26
543.44	20262.20
543.80	19925.50
544.15	19509.96
544.51	19209.99
544.86	18908.88
545.22	18555.09
545.57	18144.77
545.93	17797.39
546.28	17460.82
546.64	17132.72
546.99	16786.42
547.35	16466.58
547.70	16164.25
548.05	15842.64
548.41	15524.40
548.76	15232.32
549.12	14941.98
549.47	14658.96
549.83	14395.75
550.18	14077.39
550.53	13756.43
550.89	13481.28
551.24	13216.33
551.60	12904.31
551.95	12660.05
552.30	12410.90
552.66	12172.31
553.01	11921.75
553.37	11660.50
553.72	11385.75
554.07	11130.93
554.43	10840.66
554.78	10553.24
555.13	10287.73
555.49	10059.58
555.84	9852.09
556.19	9662.60
556.55	9472.08
556.90	9294.74
557.26	9088.49
557.61	8874.12
557.96	8635.08
558.32	8432.67
558.67	8227.83
559.02	8013.08
559.37	7826.24
559.73	7674.66
560.08	7516.96
560.43	7369.20
560.79	7247.14
561.14	7096.93
561.49	6941.84
561.85	6778.47
562.20	6621.47
562.55	6481.62
562.90	6353.88
563.26	6226.62
563.61	6118.21
563.96	6000.24
564.32	5876.01
564.67	5747.21
565.02	5625.17
565.37	5513.79
565.73	5412.02
566.08	5305.88
566.43	5199.85
566.78	5092.35
567.14	4978.65
567.49	4869.34
567.84	4767.69
568.19	4661.25
568.54	4570.81
568.90	4489.57
569.25	4409.69
569.60	4332.50
569.95	4260.85
570.31	4185.37
570.66	4098.82
571.01	4002.67
571.36	3909.05
571.71	3833.94
572.06	3759.93
572.42	3698.68
572.77	3653.32
573.12	3605.06
573.47	3547.78
573.82	3492.69
574.18	3424.13
574.53	3361.76
574.88	3305.07
575.23	3254.23
575.58	3206.32
575.93	3161.69
576.28	3107.76
576.64	3049.79
576.99	2989.31
577.34	2928.69
577.69	2874.08
578.04	2823.36
578.39	2777.30
578.74	2740.88
579.09	2699.78
579.44	2659.36
579.80	2620.44
580.15	2576.60
580.50	2534.36
580.85	2495.08
581.20	2462.83
581.55	2429.08
581.90	2400.29
582.25	2367.62
582.60	2336.51
582.95	2300.70
583.30	2263.72
583.65	2228.12
584.00	2198.84
584.35	2167.64
584.71	2136.89
585.06	2111.80
585.41	2081.06
585.76	2048.18
586.11	2022.62
586.46	2000.67
586.81	1978.95
587.16	1959.19
587.51	1945.03
587.86	1928.16
588.21	1908.12
588.56	1883.83
588.91	1862.11
589.26	1834.04
589.61	1813.56
589.96	1792.08
590.31	1775.20
590.66	1762.87
591.01	1750.74
591.36	1733.73
591.71	1715.59
592.06	1699.49
592.41	1683.34
592.76	1666.65
593.10	1649.42
593.45	1637.06
593.80	1620.94
594.15	1603.08
594.50	1589.48
594.85	1572.98
595.20	1561.86
595.55	1551.59
595.90	1537.99
596.25	1522.78
596.60	1513.51
596.95	1502.18
597.30	1493.36
597.64	1537.76
597.99	1531.69
598.34	1524.79
598.69	1518.19
599.04	1507.68
599.39	1451.02
599.74	1446.12
600.09	1436.13
600.44	1424.54
600.78	1417.94
601.13	1406.36
601.48	1396.86
601.83	1391.75
602.18	1386.95
602.53	1379.32
602.88	1374.25
603.22	1369.07
603.57	1361.98
603.92	1355.73
604.27	1348.87
604.62	1342.04
604.97	1333.59
605.31	1328.89
605.66	1318.03
606.01	1313.63
606.36	1307.59
606.71	1301.06
607.05	1296.12
607.40	1290.48
607.75	1284.74
608.10	1280.62
608.44	1275.50
608.79	1269.62
609.14	1267.40
609.49	1265.50
609.84	1264.31
610.18	1262.79
610.53	1261.90
610.88	1265.04
611.23	1260.59
611.57	1255.58
611.92	1253.38
612.27	1247.53
612.62	1239.29
612.96	1234.68
613.31	1230.30
613.66	1223.80
614.00	1220.21
614.35	1218.23
614.70	1214.18
615.05	1210.88
615.39	1208.28
615.74	1203.74
616.09	1199.36
616.43	1197.46
616.78	1197.30
617.13	1199.20
617.47	1198.94
617.82	1196.29
618.17	1194.02
618.51	1187.00
618.86	1179.77
619.21	1179.23
619.55	1178.86
619.90	1175.93
620.25	1174.90
620.59	1174.01
620.94	1170.43
621.29	1170.64
621.63	1169.50
621.98	1169.80
622.32	1167.58
622.67	1166.17
623.02	1159.78
623.36	1159.38
623.71	1157.98
624.05	1158.14
624.40	1155.52
624.75	1157.54
625.09	1153.09
625.44	1153.32
625.78	1151.03
626.13	1152.48
626.48	1150.75
626.82	1151.80
627.17	1149.41
627.51	1148.88
627.86	1140.54
628.20	1138.90
628.55	1138.69
628.89	1138.62
629.24	1137.43
629.58	1141.27
629.93	1141.60
630.28	1139.75
630.62	1137.50
630.97	1140.52
631.31	1138.95
631.66	1134.72
632.00	1132.02
632.35	1128.51
632.69	1124.25
633.04	1122.80
633.38	1122.12
633.73	1123.55
634.07	1121.87
634.42	1117.61
634.76	1117.58
635.11	1116.15
635.45	1113.46
635.79	1114.47
636.14	1116.76
636.48	1116.18
636.83	1115.52
637.17	1113.32
637.52	1112.78
637.86	1110.28
638.21	1112.13
638.55	1111.97
638.89	1114.26
639.24	1116.32
639.58	1117.23
639.93	1111.92
640.27	1113.11
640.61	1112.36
640.96	1109.55
641.30	1106.72
641.65	1108.13
641.99	1106.68
642.33	1107.54
642.68	1107.35
643.02	1108.50
643.37	1109.13
643.71	1110.98
644.05	1110.28
644.40	1110.51
644.74	1108.74
645.08	1109.65
645.43	1106.91
645.77	1104.43
646.11	1105.04
646.46	1104.64
646.80	1099.42
647.14	1098.16
647.49	1099.98
647.83	1098.13
648.17	1098.83
648.52	1100.19
648.86	1101.60
649.20	1102.06
649.55	1102.30
649.89	1102.21
650.23	1103.82
650.57	1103.14
650.92	1101.55
651.26	1098.98
651.60	1100.24
651.95	1100.22
652.29	1100.19
652.63	1099.07
652.97	1100.29
653.32	1097.43
653.66	1096.63
654.00	1097.57
654.34	1098.09
654.69	1099.96
655.03	1101.48
655.37	1100.64
655.71	1099.12
656.05	1100.99
656.40	1100.24
656.74	1098.72
657.08	1095.79
657.42	1096.92
657.76	1093.66
658.11	1094.72
658.45	1094.39
658.79	1095.86
659.13	1093.85
659.47	1093.47
659.82	1089.99
660.16	1090.55
660.50	1089.24
660.84	1087.90
661.18	1088.26
661.52	1090.48
661.87	1088.89
662.21	1090.43
662.55	1091.23
662.89	1092.00
663.23	1089.57
663.57	1087.46
663.91	1088.19
664.25	1086.78
664.60	1085.91
664.94	1088.65
665.28	1091.20
665.62	1089.68
665.96	1092.12
666.30	1092.30
666.64	1090.67
666.98	1091.42
667.32	1096.14
667.66	1094.67
668.01	1094.43
668.35	1091.65
668.69	1094.15
669.03	1089.52
669.37	1089.89
669.71	1090.62
670.05	1095.37
670.39	1095.77
670.73	1096.19
671.07	1096.96
671.41	1094.04
671.75	1091.42
672.09	1086.20
672.43	1086.69
672.77	1087.06
673.11	1088.79
673.45	1088.02
673.79	1090.29
674.13	1090.97
674.47	1088.49
674.81	1089.71
675.15	1091.06
675.49	1090.85
675.83	1087.46
676.17	1088.33
676.51	1086.31
676.85	1087.16
677.19	1085.45
677.53	1090.08
677.87	1092.00
678.21	1092.82
678.55	1091.16
678.89	1095.93
679.23	1094.20
679.57	1092.75
679.90	1090.08
680.24	1093.69
680.58	1090.83
680.92	1091.84
681.26	1095.28
681.60	1100.17
681.94	1097.90
682.28	1100.08
682.62	1099.49
682.96	1096.19
683.29	1091.77
683.63	1092.02
683.97	1092.70
684.31	1090.36
684.65	1090.10
684.99	1092.59
685.33	1091.42
685.67	1088.12
686.00	1089.10
686.34	1090.83
686.68	1088.91
687.02	1089.59
687.36	1090.17
687.70	1088.61
688.03	1088.21
688.37	1089.85
688.71	1087.76
689.05	1088.33
689.39	1088.44
689.72	1086.10
690.06	1085.89
690.40	1084.58
690.74	1085.24
691.08	1086.85
691.41	1086.99
691.75	1089.43
692.09	1091.84
692.43	1091.18
692.76	1089.26
693.10	1091.46
693.44	1089.87
693.78	1089.50
694.11	1089.33
694.45	1092.28
694.79	1090.74
695.13	1090.92
695.46	1090.81
695.80	1091.98
696.14	1090.99
696.48	1092.30
696.81	1089.50
697.15	1093.62
697.49	1092.70
697.82	1091.95
698.16	1093.29
698.50	1093.19
698.83	1087.11
699.17	1087.90
699.51	1088.07
699.84	1087.81
700.18	1090.53
700.52	1093.17
700.85	1091.39
701.19	1093.55
701.53	1088.56
701.86	1086.01
702.20	1084.32
702.54	1085.03
702.87	1083.22
703.21	1088.26
703.55	1088.89
703.88	1089.82
704.22	1092.12
704.55	1090.29
704.89	1089.68
705.23	1091.34
705.56	1091.09
705.90	1087.27
706.23	1093.10
706.57	1093.52
706.91	1094.81
707.24	1094.65
707.58	1096.12
707.91	1093.73
708.25	1091.25
708.58	1092.26
708.92	1092.05
709.26	1091.74
709.59	1089.99
709.93	1091.53
710.26	1089.82
710.60	1089.47
710.93	1090.24
711.27	1087.79
711.60	1086.27
711.94	1085.42
712.27	1086.38
712.61	1083.95
712.94	1090.03
713.28	1091.58
713.61	1091.74
713.95	1094.83
714.28	1094.53
714.62	1094.74
714.95	1095.44
715.29	1097.10
715.62	1093.40
715.96	1096.63
716.29	1093.62
716.63	1094.15
716.96	1091.30
717.29	1090.60
717.63	1089.85
717.96	1088.91
718.30	1085.35
718.63	1086.31
718.97	1091.02
719.30	1092.42
719.63	1094.43
719.97	1094.67
720.30	1092.40
720.64	1086.97
720.97	1084.74
721.30	1082.03
721.64	1084.56
721.97	1086.10
722.31	1087.34
722.64	1084.89
722.97	1087.06
723.31	1083.48
723.64	1084.37
723.97	1087.27
724.31	1087.16
724.64	1087.46
724.98	1087.13
725.31	1087.46
725.64	1082.94
725.98	1085.10
726.31	1083.90
726.64	1086.20
726.97	1085.31
727.31	1086.24
727.64	1086.13
727.97	1084.89
728.31	1087.06
728.64	1089.61
728.97	1091.23
729.31	1092.30
729.64	1093.26
729.97	1088.47
730.30	1086.43
730.64	1084.74
730.97	1086.48
731.30	1084.81
731.63	1085.24
731.97	1087.34
732.30	1090.62
732.63	1087.55
732.96	1088.93
733.30	1089.40
733.63	1087.27
733.96	1086.15
734.29	1086.52
734.63	1085.33
734.96	1086.76
735.29	1084.63
735.62	1085.63
735.95	1087.04
736.29	1090.43
736.62	1089.33
736.95	1089.26
737.28	1089.00
737.61	1089.17
737.94	1085.82
738.28	1087.60
738.61	1092.54
738.94	1091.02
739.27	1089.26
739.60	1089.40
739.93	1089.24
740.27	1087.55
740.60	1086.73
740.93	1087.06
741.26	1088.07
741.59	1086.13
741.92	1082.78
742.25	1084.60
742.58	1083.90
742.91	1085.56
743.25	1084.65
743.58	1086.34
743.91	1086.36
744.24	1087.55
744.57	1088.21
744.90	1092.56
745.23	1090.62
745.56	1088.72
745.89	1089.00
746.22	1086.08
746.55	1084.18
746.88	1085.80
747.21	1086.24
747.54	1086.17
747.87	1086.31
748.20	1085.56
748.53	1085.73
748.87	1085.59
749.20	1083.93
749.53	1083.60
749.86	1083.22
750.19	1081.68
750.52	1081.66
750.85	1082.78
751.18	1083.57
751.51	1085.03
751.84	1087.18
752.16	1091.70
752.49	1091.16
752.82	1090.08
753.15	1089.19
753.48	1089.26
753.81	1087.18
754.14	1089.10
754.47	1092.80
754.80	1093.31
755.13	1091.98
755.46	1089.00
755.79	1089.57
756.12	1089.85
756.45	1086.06
756.78	1085.17
757.11	1087.25
757.43	1085.73
757.76	1084.79
758.09	1087.20
758.42	1088.77
758.75	1089.36
759.08	1091.53
759.41	1087.34
759.74	1089.03
760.07	1089.99
760.39	1087.79
760.72	1085.84
761.05	1085.89
761.38	1087.65
761.71	1087.25
762.04	1085.45
762.36	1086.36
762.69	1086.43
763.02	1087.90
763.35	1088.96
