SpectraSuite Data File
++++++++++++++++++++++++++++++++++++
Date: Mon Aug 26 10:26:23 PDT 2019
User: corrico
Dark Spectrum Present: No
Reference Spectrum Present: No
Number of Sampled Component Spectra: 1
Spectrometers: USB2+H06089
Integration Time (usec): 10000 (USB2+H06089)
Spectra Averaged: 20 (USB2+H06089)
Boxcar Smoothing: 2 (USB2+H06089)
Correct for Electrical Dark: No (USB2+H06089)
Strobe/Lamp Enabled: No (USB2+H06089)
Correct for Detector Non-linearity: No (USB2+H06089)
Correct for Stray Light: No (USB2+H06089)
Number of Pixels in Processed Spectrum: 2048
>>>>>Begin Processed Spectral Data<<<<<
339.70	1024.57
340.07	1024.57
340.45	995.78
340.82	974.97
341.19	954.99
341.57	931.56
341.94	920.77
342.31	912.81
342.69	908.83
343.06	903.94
343.43	902.25
343.81	902.49
344.18	904.17
344.55	905.20
344.93	909.25
345.30	914.42
345.67	918.85
346.04	926.20
346.42	937.50
346.79	946.96
347.16	956.79
347.54	967.55
347.91	973.31
348.28	984.55
348.65	992.93
349.03	1005.61
349.40	1019.56
349.77	1027.78
350.14	1032.86
350.52	1043.67
350.89	1045.63
351.26	1047.37
351.63	1057.22
352.01	1062.09
352.38	1064.85
352.75	1070.75
353.12	1073.67
353.50	1076.88
353.87	1081.19
354.24	1083.83
354.61	1086.92
354.98	1089.10
355.36	1089.47
355.73	1087.97
356.10	1089.71
356.47	1090.39
356.84	1091.25
357.22	1091.04
357.59	1093.08
357.96	1090.85
358.33	1086.43
358.70	1085.10
359.08	1084.84
359.45	1083.93
359.82	1084.09
360.19	1087.74
360.56	1089.75
360.94	1089.71
361.31	1091.02
361.68	1087.74
362.05	1084.67
362.42	1084.70
362.79	1082.99
363.16	1080.02
363.54	1083.71
363.91	1082.97
364.28	1080.44
364.65	1081.16
365.02	1078.52
365.39	1075.83
365.76	1077.02
366.14	1075.10
366.51	1075.05
366.88	1077.72
367.25	1077.70
367.62	1078.73
367.99	1079.85
368.36	1080.70
368.73	1079.38
369.10	1078.40
369.48	1076.06
369.85	1077.51
370.22	1076.30
370.59	1078.61
370.96	1078.03
371.33	1079.03
371.70	1081.91
372.07	1081.44
372.44	1081.73
372.81	1084.63
373.18	1084.21
373.55	1079.81
373.93	1081.51
374.30	1083.11
374.67	1081.30
375.04	1081.12
375.41	1082.29
375.78	1081.94
376.15	1079.01
376.52	1078.89
376.89	1081.47
377.26	1082.78
377.63	1082.29
378.00	1083.22
378.37	1084.98
378.74	1083.83
379.11	1083.39
379.48	1084.37
379.85	1084.00
380.22	1084.21
380.59	1085.63
380.96	1086.36
381.33	1085.40
381.70	1082.45
382.07	1081.35
382.44	1083.55
382.81	1082.90
383.18	1082.80
383.55	1086.36
383.92	1089.00
384.29	1088.56
384.66	1089.40
385.03	1090.50
385.40	1091.02
385.77	1087.76
386.14	1081.96
386.51	1082.12
386.88	1081.05
387.25	1078.52
387.62	1082.52
387.99	1086.99
388.36	1084.86
388.73	1085.45
389.10	1087.34
389.46	1085.17
389.83	1084.51
390.20	1083.39
390.57	1084.44
390.94	1089.07
391.31	1089.50
391.68	1090.50
392.05	1092.94
392.42	1092.14
392.79	1087.53
393.16	1087.27
393.53	1085.73
393.89	1087.09
394.26	1086.64
394.63	1087.69
395.00	1087.44
395.37	1090.64
395.74	1089.12
396.11	1090.64
396.48	1088.77
396.84	1089.14
397.21	1085.73
397.58	1086.43
397.95	1087.20
398.32	1088.63
398.69	1089.54
399.06	1091.20
399.42	1090.55
399.79	1090.20
400.16	1089.99
400.53	1090.99
400.90	1091.77
401.27	1092.52
401.64	1088.70
402.00	1092.61
402.37	1092.23
402.74	1092.30
403.11	1090.48
403.48	1095.00
403.84	1092.26
404.21	1093.64
404.58	1091.81
404.95	1092.94
405.32	1093.62
405.68	1093.83
406.05	1093.05
406.42	1093.78
406.79	1095.16
407.16	1092.94
407.52	1092.68
407.89	1093.76
408.26	1099.07
408.63	1098.60
408.99	1101.25
409.36	1102.06
409.73	1104.69
410.10	1100.17
410.47	1100.59
410.83	1099.49
411.20	1100.45
411.57	1097.52
411.94	1100.22
412.30	1101.64
412.67	1100.15
413.04	1102.04
413.40	1103.35
413.77	1103.40
414.14	1101.95
414.51	1103.94
414.87	1102.16
415.24	1099.86
415.61	1094.08
415.97	1093.24
416.34	1096.75
416.71	1098.98
417.08	1104.19
417.44	1110.65
417.81	1114.66
418.18	1111.85
418.54	1106.82
418.91	1101.92
419.28	1103.38
419.64	1105.11
420.01	1106.54
420.38	1108.99
420.74	1109.74
421.11	1109.91
421.48	1107.94
421.84	1108.45
422.21	1108.36
422.58	1110.77
422.94	1107.75
423.31	1111.59
423.68	1111.24
424.04	1112.69
424.41	1112.27
424.77	1113.81
425.14	1112.97
425.51	1114.33
425.87	1115.71
426.24	1115.59
426.61	1115.64
426.97	1117.02
427.34	1116.93
427.70	1116.72
428.07	1119.99
428.44	1121.21
428.80	1117.18
429.17	1115.08
429.53	1113.39
429.90	1111.05
430.27	1109.67
430.63	1108.71
431.00	1111.17
431.36	1109.98
431.73	1111.33
432.09	1111.85
432.46	1112.92
432.83	1114.42
433.19	1119.10
433.56	1119.01
433.92	1119.71
434.29	1121.77
434.65	1120.04
435.02	1119.99
435.38	1118.14
435.75	1115.92
436.11	1113.49
436.48	1115.20
436.84	1111.15
437.21	1111.64
437.57	1114.73
437.94	1115.97
438.30	1112.15
438.67	1117.37
439.03	1116.04
439.40	1115.05
439.76	1114.26
440.13	1114.73
440.49	1111.64
440.86	1110.26
441.22	1108.57
441.59	1108.41
441.95	1108.90
442.32	1109.11
442.68	1111.40
443.05	1112.69
443.41	1115.34
443.78	1116.15
444.14	1115.15
444.51	1113.81
444.87	1113.07
445.24	1110.98
445.60	1107.24
445.96	1108.55
446.33	1111.24
446.69	1110.63
447.06	1109.41
447.42	1111.33
447.79	1108.34
448.15	1107.54
448.51	1107.71
448.88	1110.44
449.24	1113.04
449.61	1116.83
449.97	1116.60
450.33	1115.78
450.70	1117.14
451.06	1116.97
451.43	1114.40
451.79	1114.26
452.15	1117.28
452.52	1114.35
452.88	1110.98
453.24	1113.11
453.61	1113.46
453.97	1111.17
454.34	1113.79
454.70	1118.89
455.06	1118.40
455.43	1117.00
455.79	1118.03
456.15	1113.14
456.52	1110.82
456.88	1110.91
457.24	1112.25
457.61	1113.32
457.97	1115.34
458.33	1114.66
458.70	1115.08
459.06	1115.43
459.42	1115.41
459.79	1113.67
460.15	1115.01
460.51	1116.97
460.88	1117.47
461.24	1116.93
461.60	1117.61
461.96	1117.09
462.33	1116.44
462.69	1118.10
463.05	1119.57
463.42	1121.91
463.78	1122.12
464.14	1124.30
464.50	1122.33
464.87	1127.51
465.23	1129.80
465.59	1132.07
465.95	1131.37
466.32	1133.92
466.68	1128.02
467.04	1127.88
467.40	1126.10
467.77	1126.06
468.13	1127.93
468.49	1132.28
468.85	1135.18
469.22	1140.66
469.58	1142.60
469.94	1139.58
470.30	1140.50
470.66	1140.78
471.03	1139.49
471.39	1141.10
471.75	1147.99
472.11	1150.42
472.47	1151.99
472.84	1158.78
473.20	1162.71
473.56	1163.60
473.92	1170.60
474.28	1174.20
474.65	1175.63
475.01	1177.87
475.37	1182.42
475.73	1179.61
476.09	1184.12
476.45	1188.95
476.81	1195.45
477.18	1198.94
477.54	1206.76
477.90	1216.00
478.26	1220.40
478.62	1225.22
478.98	1234.70
479.34	1242.38
479.71	1250.90
480.07	1260.40
480.43	1273.88
480.79	1286.92
481.15	1298.20
481.51	1303.51
481.87	1314.28
482.23	1324.28
482.59	1335.95
482.96	1348.05
483.32	1368.00
483.68	1387.42
484.04	1401.79
484.40	1417.92
484.76	1439.48
485.12	1458.69
485.48	1480.04
485.84	1506.18
486.20	1532.18
486.56	1559.50
486.92	1582.48
487.28	1606.12
487.64	1633.74
488.00	1663.54
488.37	1691.43
488.73	1731.32
489.09	1768.25
489.45	1806.00
489.81	1848.67
490.17	1890.10
490.53	1930.82
490.89	1976.75
491.25	2021.31
491.61	2066.20
491.97	2119.05
492.33	2172.77
492.69	2226.25
493.05	2285.49
493.41	2346.01
493.77	2416.14
494.13	2488.11
494.49	2560.43
494.85	2635.21
495.21	2721.90
495.57	2811.08
495.93	2894.70
496.29	2990.41
496.64	3101.00
497.00	3203.84
497.36	3306.22
497.72	3429.45
498.08	3554.43
498.44	3680.87
498.80	3809.50
499.16	3957.24
499.52	4111.31
499.88	4269.56
500.24	4435.03
500.60	4619.19
500.96	4792.01
501.32	4964.88
501.68	5135.44
502.03	5318.10
502.39	5511.07
502.75	5730.61
503.11	5976.77
503.47	6243.64
503.83	6530.66
504.19	6820.91
504.55	7126.39
504.91	7417.58
505.26	7714.48
505.62	8045.36
505.98	8417.13
506.34	8780.59
506.70	9176.51
507.06	9624.28
507.42	10061.19
507.78	10471.37
508.13	10917.50
508.49	11394.24
508.85	11904.41
509.21	12399.69
509.57	12929.87
509.93	13473.95
510.28	14051.71
510.64	14657.56
511.00	15289.34
511.36	15958.08
511.72	16689.52
512.07	17471.14
512.43	18198.58
512.79	19012.22
513.15	19822.93
513.51	20538.65
513.86	21268.57
514.22	22116.89
514.58	22947.27
514.94	23764.23
515.30	24703.75
515.65	25689.46
516.01	26582.26
516.37	27423.87
516.73	28311.89
517.08	29101.82
517.44	29741.75
517.80	30507.88
518.16	31386.91
518.51	32250.80
518.87	33163.12
519.23	34180.34
519.59	35132.26
519.94	36053.47
520.30	36949.97
520.66	37742.33
521.01	38488.24
521.37	39167.48
521.73	39728.49
522.09	40233.04
522.44	40880.80
522.80	41414.33
523.16	41817.91
523.51	42151.39
523.87	42547.38
524.23	42792.58
524.58	42999.97
524.94	43418.48
525.30	43728.23
525.65	43787.49
526.01	43769.14
526.37	43890.19
526.72	43874.18
527.08	43794.89
527.44	43732.14
527.79	43652.65
528.15	43435.43
528.51	43133.85
528.86	42895.21
529.22	42617.57
529.58	42342.05
529.93	41952.44
530.29	41415.48
530.65	40955.56
531.00	40531.53
531.36	39930.43
531.71	39383.31
532.07	39011.72
532.43	38411.63
532.78	37766.77
533.14	37219.04
533.49	36647.45
533.85	35955.73
534.21	35390.02
534.56	34872.25
534.92	34319.86
535.27	33709.14
535.63	33002.16
535.98	32316.85
536.34	31634.52
536.69	30929.62
537.05	30301.25
537.41	29804.10
537.76	29214.82
538.12	28554.30
538.47	28053.22
538.83	27557.26
539.18	27004.38
539.54	26554.24
539.89	26134.80
540.25	25640.08
540.60	25133.14
540.96	24594.51
541.31	24120.70
541.67	23727.04
542.02	23311.64
542.38	22910.19
542.73	22505.00
543.09	22070.18
543.44	21626.71
543.80	21196.08
544.15	20747.35
544.51	20422.67
544.86	20059.44
545.22	19694.06
545.57	19357.10
545.93	18983.62
546.28	18606.11
546.64	18266.15
546.99	17921.29
547.35	17597.36
547.70	17304.40
548.05	16969.26
548.41	16592.74
548.76	16179.87
549.12	15792.11
549.47	15427.99
549.83	15105.09
550.18	14793.87
550.53	14479.65
550.89	14118.56
551.24	13781.07
551.60	13496.37
551.95	13232.43
552.30	13014.50
552.66	12837.74
553.01	12647.95
553.37	12404.77
553.72	12134.23
554.07	11860.27
554.43	11584.67
554.78	11296.03
555.13	11029.94
555.49	10773.25
555.84	10525.06
556.19	10277.55
556.55	10017.00
556.90	9759.68
557.26	9565.82
557.61	9383.25
557.96	9184.15
558.32	9001.14
558.67	8818.79
559.02	8586.89
559.37	8401.26
559.73	8225.77
560.08	8056.62
560.43	7861.88
560.79	7687.14
561.14	7492.17
561.49	7311.88
561.85	7133.58
562.20	6982.12
562.55	6852.46
562.90	6716.31
563.26	6579.97
563.61	6456.58
563.96	6321.86
564.32	6174.87
564.67	6041.93
565.02	5928.53
565.37	5822.88
565.73	5690.71
566.08	5585.34
566.43	5472.85
566.78	5346.51
567.14	5218.58
567.49	5125.14
567.84	5015.63
568.19	4913.14
568.54	4815.56
568.90	4722.12
569.25	4635.88
569.60	4550.73
569.95	4465.74
570.31	4397.96
570.66	4321.31
571.01	4233.77
571.36	4154.29
571.71	4073.70
572.06	3983.33
572.42	3903.50
572.77	3834.31
573.12	3756.65
573.47	3691.26
573.82	3636.49
574.18	3583.78
574.53	3520.94
574.88	3470.10
575.23	3411.38
575.58	3352.21
575.93	3294.68
576.28	3241.83
576.64	3186.92
576.99	3129.93
577.34	3076.07
577.69	3017.04
578.04	2961.92
578.39	2907.88
578.74	2853.58
579.09	2797.24
579.44	2748.44
579.80	2705.85
580.15	2664.30
580.50	2631.00
580.85	2597.67
581.20	2559.40
581.55	2515.82
581.90	2479.24
582.25	2436.97
582.60	2390.58
582.95	2351.23
583.30	2316.33
583.65	2285.98
584.00	2252.09
584.35	2229.03
584.71	2200.01
585.06	2176.02
585.41	2142.29
585.76	2119.52
586.11	2089.19
586.46	2063.49
586.81	2029.71
587.16	2001.49
587.51	1976.79
587.86	1954.37
588.21	1934.22
588.56	1915.54
588.91	1899.91
589.26	1884.13
589.61	1862.69
589.96	1840.76
590.31	1822.60
590.66	1803.03
591.01	1777.87
591.36	1764.13
591.71	1749.48
592.06	1733.28
592.41	1720.06
592.76	1707.96
593.10	1688.53
593.45	1674.00
593.80	1659.02
594.15	1642.31
594.50	1631.05
594.85	1617.29
595.20	1605.72
595.55	1596.27
595.90	1585.13
596.25	1571.95
596.60	1564.27
596.95	1551.82
597.30	1540.73
597.64	1580.89
597.99	1571.04
598.34	1562.07
598.69	1549.04
599.04	1539.25
599.39	1478.07
599.74	1464.75
600.09	1454.55
600.44	1448.79
600.78	1438.91
601.13	1430.25
601.48	1424.05
601.83	1413.61
602.18	1401.82
602.53	1393.32
602.88	1386.32
603.22	1380.61
603.57	1374.62
603.92	1369.10
604.27	1361.44
604.62	1355.31
604.97	1347.91
605.31	1346.74
605.66	1343.12
606.01	1341.55
606.36	1334.55
606.71	1328.02
607.05	1318.07
607.40	1315.50
607.75	1308.90
608.10	1305.46
608.44	1300.54
608.79	1295.77
609.14	1287.53
609.49	1282.17
609.84	1276.83
610.18	1274.66
610.53	1271.31
610.88	1266.96
611.23	1263.09
611.57	1260.92
611.92	1257.22
612.27	1251.51
612.62	1244.28
612.96	1239.97
613.31	1231.73
613.66	1228.31
614.00	1224.45
614.35	1226.60
614.70	1223.30
615.05	1222.88
615.39	1217.03
615.74	1214.06
616.09	1210.08
616.43	1204.30
616.78	1200.84
617.13	1197.18
617.47	1195.52
617.82	1191.17
618.17	1190.79
618.51	1191.08
618.86	1193.23
619.21	1191.31
619.55	1190.35
619.90	1188.27
620.25	1182.98
620.59	1176.33
620.94	1173.12
621.29	1170.10
621.63	1169.47
621.98	1168.89
622.32	1166.38
622.67	1164.56
623.02	1161.37
623.36	1159.06
623.71	1156.86
624.05	1158.47
624.40	1158.12
624.75	1157.54
625.09	1157.16
625.44	1154.33
625.78	1150.68
626.13	1148.59
626.48	1146.02
626.82	1142.91
627.17	1142.20
627.51	1139.89
627.86	1140.57
628.20	1142.95
628.55	1141.92
628.89	1139.75
629.24	1137.55
629.58	1137.85
629.93	1138.32
630.28	1137.62
630.62	1140.22
630.97	1142.13
631.31	1138.20
631.66	1135.79
632.00	1134.22
632.35	1129.59
632.69	1129.10
633.04	1127.79
633.38	1125.00
633.73	1124.88
634.07	1124.88
634.42	1125.42
634.76	1124.00
635.11	1121.96
635.45	1121.12
635.79	1120.44
636.14	1115.59
636.48	1118.47
636.83	1120.13
637.17	1117.79
637.52	1119.10
637.86	1119.95
638.21	1116.51
638.55	1114.68
638.89	1116.06
639.24	1112.88
639.58	1114.28
639.93	1112.74
640.27	1111.99
640.61	1112.36
640.96	1114.45
641.30	1114.12
641.65	1112.55
641.99	1111.43
642.33	1108.36
642.68	1106.56
643.02	1106.49
643.37	1107.07
643.71	1106.14
644.05	1106.98
644.40	1105.20
644.74	1101.46
645.08	1102.70
645.43	1103.21
645.77	1104.69
646.11	1105.67
646.46	1106.28
646.80	1105.81
647.14	1106.49
647.49	1103.56
647.83	1104.33
648.17	1108.31
648.52	1108.62
648.86	1111.54
649.20	1111.45
649.55	1110.51
649.89	1108.03
650.23	1107.54
650.57	1104.12
650.92	1107.12
651.26	1106.75
651.60	1105.29
651.95	1105.39
652.29	1108.27
652.63	1107.40
652.97	1106.70
653.32	1108.85
653.66	1106.00
654.00	1101.22
654.34	1098.30
654.69	1099.33
655.03	1097.22
655.37	1098.79
655.71	1097.69
656.05	1098.72
656.40	1098.39
656.74	1097.78
657.08	1099.23
657.42	1100.59
657.76	1098.60
658.11	1095.35
658.45	1093.64
658.79	1090.67
659.13	1089.03
659.47	1092.30
659.82	1093.15
660.16	1094.83
660.50	1095.28
660.84	1094.48
661.18	1092.05
661.52	1092.63
661.87	1091.02
662.21	1090.24
662.55	1094.93
662.89	1094.50
663.23	1096.52
663.57	1096.63
663.91	1095.79
664.25	1093.36
664.60	1093.10
664.94	1091.23
665.28	1090.20
665.62	1092.33
665.96	1090.36
666.30	1091.79
666.64	1094.04
666.98	1097.03
667.32	1095.75
667.66	1097.92
668.01	1096.87
668.35	1093.80
668.69	1094.13
669.03	1095.21
669.37	1094.79
669.71	1095.82
670.05	1097.57
670.39	1095.70
670.73	1094.08
671.07	1096.05
671.41	1095.84
671.75	1093.47
672.09	1090.92
672.43	1091.79
672.77	1090.20
673.11	1089.82
673.45	1090.08
673.79	1090.60
674.13	1092.07
674.47	1093.59
674.81	1089.80
675.15	1090.29
675.49	1091.25
675.83	1089.24
676.17	1086.78
676.51	1091.16
676.85	1090.22
677.19	1087.74
677.53	1089.00
677.87	1087.37
678.21	1084.89
678.55	1085.17
678.89	1086.57
679.23	1083.71
679.57	1084.28
679.90	1084.21
680.24	1084.18
680.58	1089.33
680.92	1090.81
681.26	1089.64
681.60	1092.40
681.94	1094.60
682.28	1091.32
682.62	1090.71
682.96	1091.98
683.29	1089.07
683.63	1085.68
683.97	1084.93
684.31	1087.90
684.65	1090.39
684.99	1092.40
685.33	1092.84
685.67	1092.56
686.00	1092.05
686.34	1090.20
686.68	1088.63
687.02	1091.30
687.36	1093.38
687.70	1091.37
688.03	1091.63
688.37	1090.41
688.71	1088.63
689.05	1087.06
689.39	1089.17
689.72	1089.26
690.06	1091.16
690.40	1090.60
690.74	1089.92
691.08	1088.86
691.41	1090.46
691.75	1090.78
692.09	1089.99
692.43	1089.24
692.76	1090.03
693.10	1091.95
693.44	1093.71
693.78	1093.76
694.11	1092.35
694.45	1091.02
694.79	1087.86
695.13	1089.68
695.46	1090.24
695.80	1090.95
696.14	1088.63
696.48	1088.51
696.81	1086.59
697.15	1085.89
697.49	1086.43
697.82	1088.30
698.16	1088.47
698.50	1084.28
698.83	1087.32
699.17	1087.93
699.51	1088.33
699.84	1086.64
700.18	1087.16
700.52	1083.69
700.85	1084.39
701.19	1084.28
701.53	1085.42
701.86	1087.81
702.20	1091.58
702.54	1090.97
702.87	1089.96
703.21	1091.25
703.55	1089.36
703.88	1088.63
704.22	1088.82
704.55	1089.87
704.89	1088.28
705.23	1089.82
705.56	1088.28
705.90	1088.28
706.23	1088.00
706.57	1086.99
706.91	1084.72
707.24	1086.48
707.58	1087.51
707.91	1090.08
708.25	1089.26
708.58	1090.69
708.92	1088.96
709.26	1086.76
709.59	1086.90
709.93	1087.09
710.26	1086.66
710.60	1086.48
710.93	1084.84
711.27	1082.97
711.60	1085.40
711.94	1085.68
712.27	1084.56
712.61	1087.25
712.94	1084.21
713.28	1082.76
713.61	1084.72
713.95	1084.65
714.28	1085.03
714.62	1087.79
714.95	1086.90
715.29	1086.08
715.62	1085.61
715.96	1084.23
716.29	1083.06
716.63	1086.76
716.96	1087.23
717.29	1090.83
717.63	1091.91
717.96	1092.70
718.30	1089.38
718.63	1088.93
718.97	1087.44
719.30	1088.44
719.63	1088.68
719.97	1090.10
720.30	1088.30
720.64	1089.68
720.97	1086.78
721.30	1082.57
721.64	1081.63
721.97	1081.61
722.31	1080.60
722.64	1082.22
722.97	1085.21
723.31	1086.36
723.64	1089.87
723.97	1092.07
724.31	1091.72
724.64	1093.66
724.98	1091.02
725.31	1087.06
725.64	1082.66
725.98	1083.27
726.31	1077.84
726.64	1075.64
726.97	1076.46
727.31	1079.41
727.64	1082.19
727.97	1084.51
728.31	1090.13
728.64	1091.79
728.97	1090.88
729.31	1086.15
729.64	1091.39
729.97	1089.68
730.30	1088.30
730.64	1088.12
730.97	1089.19
731.30	1084.35
731.63	1082.73
731.97	1082.52
732.30	1080.06
732.63	1082.01
732.96	1085.80
733.30	1089.61
733.63	1089.24
733.96	1091.37
734.29	1092.12
734.63	1089.64
734.96	1086.08
735.29	1086.87
735.62	1084.42
735.95	1082.38
736.29	1082.71
736.62	1084.25
736.95	1083.50
737.28	1089.19
737.61	1089.82
737.94	1089.10
738.28	1086.22
738.61	1085.77
738.94	1084.58
739.27	1084.81
739.60	1080.72
739.93	1083.20
740.27	1082.76
740.60	1082.08
740.93	1079.71
741.26	1085.03
741.59	1086.78
741.92	1088.40
742.25	1088.75
742.58	1091.44
742.91	1088.14
743.25	1085.24
743.58	1085.49
743.91	1083.46
744.24	1085.66
744.57	1090.50
744.90	1093.71
745.23	1094.41
745.56	1096.35
745.89	1097.08
746.22	1096.26
746.55	1093.40
746.88	1093.66
747.21	1093.12
747.54	1088.47
747.87	1086.50
748.20	1087.93
748.53	1085.47
748.87	1084.58
749.20	1087.90
749.53	1091.16
749.86	1091.67
750.19	1093.97
750.52	1094.86
750.85	1090.53
751.18	1088.14
751.51	1088.00
751.84	1087.55
752.16	1087.32
752.49	1090.46
752.82	1088.12
753.15	1085.80
753.48	1085.68
753.81	1084.51
754.14	1083.93
754.47	1086.80
754.80	1086.83
755.13	1085.54
755.46	1086.01
755.79	1084.53
756.12	1084.42
756.45	1085.03
756.78	1088.70
757.11	1091.63
757.43	1091.79
757.76	1092.00
758.09	1092.56
758.42	1087.93
758.75	1082.71
759.08	1083.04
759.41	1083.81
759.74	1082.47
760.07	1084.93
760.39	1087.48
760.72	1086.15
761.05	1085.31
761.38	1088.23
761.71	1088.09
762.04	1088.79
762.36	1088.42
762.69	1088.54
763.02	1087.74
763.35	1086.41
