SpectraSuite Data File
++++++++++++++++++++++++++++++++++++
Date: Mon Aug 26 10:26:35 PDT 2019
User: corrico
Dark Spectrum Present: No
Reference Spectrum Present: No
Number of Sampled Component Spectra: 1
Spectrometers: USB2+H06089
Integration Time (usec): 10000 (USB2+H06089)
Spectra Averaged: 20 (USB2+H06089)
Boxcar Smoothing: 2 (USB2+H06089)
Correct for Electrical Dark: No (USB2+H06089)
Strobe/Lamp Enabled: No (USB2+H06089)
Correct for Detector Non-linearity: No (USB2+H06089)
Correct for Stray Light: No (USB2+H06089)
Number of Pixels in Processed Spectrum: 2048
>>>>>Begin Processed Spectral Data<<<<<
339.70	1036.27
340.07	1036.27
340.45	1000.25
340.82	976.35
341.19	952.32
341.57	927.51
341.94	918.82
342.31	909.44
342.69	907.19
343.06	902.70
343.43	900.38
343.81	899.82
344.18	904.36
344.55	907.75
344.93	914.59
345.30	921.82
345.67	931.32
346.04	938.46
346.42	947.61
346.79	957.44
347.16	966.36
347.54	975.91
347.91	984.85
348.28	993.96
348.65	1002.36
349.03	1009.71
349.40	1015.96
349.77	1024.62
350.14	1030.07
350.52	1038.10
350.89	1043.22
351.26	1051.18
351.63	1053.43
352.01	1061.15
352.38	1062.25
352.75	1069.23
353.12	1070.00
353.50	1076.39
353.87	1074.07
354.24	1078.64
354.61	1081.12
354.98	1086.52
355.36	1091.11
355.73	1097.92
356.10	1098.18
356.47	1094.67
356.84	1092.37
357.22	1090.88
357.59	1086.22
357.96	1085.14
358.33	1086.57
358.70	1086.97
359.08	1081.44
359.45	1085.00
359.82	1086.13
360.19	1087.44
360.56	1087.34
360.94	1090.69
361.31	1087.25
361.68	1086.10
362.05	1084.77
362.42	1084.11
362.79	1083.88
363.16	1085.91
363.54	1086.59
363.91	1087.67
364.28	1088.23
364.65	1087.46
365.02	1087.79
365.39	1085.80
365.76	1085.52
366.14	1082.85
366.51	1080.58
366.88	1077.58
367.25	1079.22
367.62	1077.77
367.99	1077.98
368.36	1078.12
368.73	1079.24
369.10	1079.83
369.48	1079.97
369.85	1080.23
370.22	1080.81
370.59	1081.66
370.96	1081.66
371.33	1083.08
371.70	1082.17
372.07	1082.76
372.44	1082.29
372.81	1081.28
373.18	1079.17
373.55	1078.07
373.93	1076.15
374.30	1075.08
374.67	1072.18
375.04	1077.98
375.41	1079.22
375.78	1083.46
376.15	1083.67
376.52	1084.91
376.89	1079.78
377.26	1080.63
377.63	1079.29
378.00	1082.05
378.37	1084.96
378.74	1084.98
379.11	1084.09
379.48	1081.91
379.85	1079.50
380.22	1077.91
380.59	1082.01
380.96	1086.17
381.33	1085.80
381.70	1086.15
382.07	1082.26
382.44	1081.35
382.81	1079.24
383.18	1081.21
383.55	1083.64
383.92	1090.34
384.29	1089.24
384.66	1089.05
385.03	1092.00
385.40	1092.61
385.77	1093.78
386.14	1093.36
386.51	1095.51
386.88	1094.65
387.25	1089.47
387.62	1086.55
387.99	1087.67
388.36	1083.53
388.73	1082.59
389.10	1084.70
389.46	1086.80
389.83	1086.08
390.20	1087.90
390.57	1087.20
390.94	1085.63
391.31	1083.74
391.68	1084.39
392.05	1084.28
392.42	1088.84
392.79	1093.15
393.16	1092.45
393.53	1093.64
393.89	1096.03
394.26	1091.09
394.63	1087.93
395.00	1086.29
395.37	1085.49
395.74	1081.94
396.11	1082.87
396.48	1085.12
396.84	1088.77
397.21	1088.51
397.58	1091.46
397.95	1094.32
398.32	1092.84
398.69	1093.01
399.06	1093.47
399.42	1092.68
399.79	1091.56
400.16	1095.32
400.53	1094.46
400.90	1096.47
401.27	1094.15
401.64	1092.16
402.00	1088.19
402.37	1090.13
402.74	1088.28
403.11	1092.23
403.48	1095.72
403.84	1098.20
404.21	1098.13
404.58	1096.54
404.95	1096.63
405.32	1096.14
405.68	1095.35
406.05	1094.86
406.42	1097.64
406.79	1100.47
407.16	1099.47
407.52	1101.25
407.89	1099.12
408.26	1098.23
408.63	1094.79
408.99	1095.28
409.36	1092.07
409.73	1094.08
410.10	1093.12
410.47	1096.85
410.83	1096.42
411.20	1099.26
411.57	1101.20
411.94	1104.33
412.30	1101.78
412.67	1100.75
413.04	1098.79
413.40	1097.59
413.77	1096.52
414.14	1101.20
414.51	1103.14
414.87	1108.03
415.24	1106.58
415.61	1105.13
415.97	1102.86
416.34	1102.09
416.71	1100.03
417.08	1100.99
417.44	1101.03
417.81	1100.87
418.18	1100.87
418.54	1102.37
418.91	1102.49
419.28	1105.34
419.64	1103.23
420.01	1106.07
420.38	1105.04
420.74	1105.97
421.11	1105.46
421.48	1106.04
421.84	1104.36
422.21	1105.46
422.58	1107.21
422.94	1107.38
423.31	1107.85
423.68	1108.17
424.04	1107.05
424.41	1103.94
424.77	1103.84
425.14	1103.47
425.51	1108.29
425.87	1111.05
426.24	1112.78
426.61	1111.73
426.97	1114.52
427.34	1111.64
427.70	1112.62
428.07	1115.38
428.44	1116.69
428.80	1111.78
429.17	1114.82
429.53	1112.04
429.90	1108.88
430.27	1108.97
430.63	1113.95
431.00	1111.87
431.36	1114.02
431.73	1115.27
432.09	1116.53
432.46	1116.97
432.83	1115.62
433.19	1114.70
433.56	1115.24
433.92	1116.15
434.29	1113.44
434.65	1113.63
435.02	1115.05
435.38	1116.27
435.75	1115.90
436.11	1114.84
436.48	1116.22
436.84	1112.99
437.21	1112.81
437.57	1115.03
437.94	1119.38
438.30	1116.95
438.67	1116.46
439.03	1115.12
439.40	1109.93
439.76	1107.38
440.13	1108.66
440.49	1110.56
440.86	1108.69
441.22	1110.00
441.59	1110.26
441.95	1111.43
442.32	1112.15
442.68	1113.58
443.05	1116.74
443.41	1115.20
443.78	1114.87
444.14	1115.20
444.51	1117.23
444.87	1116.81
445.24	1120.44
445.60	1119.60
445.96	1118.73
446.33	1115.36
446.69	1112.34
447.06	1111.47
447.42	1111.92
447.79	1109.74
448.15	1111.24
448.51	1110.82
448.88	1108.08
449.24	1107.35
449.61	1108.41
449.97	1107.59
450.33	1107.33
450.70	1110.26
451.06	1110.07
451.43	1109.53
451.79	1109.09
452.15	1108.10
452.52	1106.21
452.88	1106.82
453.24	1106.02
453.61	1108.85
453.97	1109.62
454.34	1111.52
454.70	1111.85
455.06	1113.91
455.43	1112.22
455.79	1114.42
456.15	1111.10
456.52	1109.30
456.88	1109.27
457.24	1111.33
457.61	1113.02
457.97	1117.32
458.33	1119.50
458.70	1122.61
459.06	1124.84
459.42	1124.23
459.79	1123.27
460.15	1123.86
460.51	1119.27
460.88	1119.22
461.24	1119.71
461.60	1121.23
461.96	1121.05
462.33	1122.50
462.69	1117.75
463.05	1114.12
463.42	1111.85
463.78	1112.18
464.14	1113.07
464.50	1117.02
464.87	1118.57
465.23	1119.67
465.59	1119.90
465.95	1123.15
466.32	1122.54
466.68	1124.86
467.04	1127.88
467.40	1128.49
467.77	1128.33
468.13	1132.05
468.49	1134.34
468.85	1135.44
469.22	1138.58
469.58	1140.26
469.94	1139.47
470.30	1142.70
470.66	1142.23
471.03	1143.61
471.39	1146.82
471.75	1149.23
472.11	1149.13
472.47	1153.56
472.84	1156.29
473.20	1156.04
473.56	1158.42
473.92	1160.84
474.28	1163.85
474.65	1167.95
475.01	1170.62
475.37	1174.22
475.73	1181.13
476.09	1184.10
476.45	1188.64
476.81	1192.92
477.18	1196.32
477.54	1202.22
477.90	1206.52
478.26	1209.87
478.62	1218.90
478.98	1224.54
479.34	1227.63
479.71	1236.97
480.07	1248.86
480.43	1259.00
480.79	1269.55
481.15	1282.12
481.51	1292.98
481.87	1300.80
482.23	1307.33
482.59	1321.91
482.96	1331.81
483.32	1346.72
483.68	1363.62
484.04	1385.27
484.40	1401.14
484.76	1419.21
485.12	1435.36
485.48	1452.77
485.84	1464.45
486.20	1483.57
486.56	1506.35
486.92	1532.30
487.28	1555.96
487.64	1584.57
488.00	1612.77
488.37	1644.37
488.73	1674.86
489.09	1710.77
489.45	1746.34
489.81	1785.06
490.17	1819.58
490.53	1852.96
490.89	1892.72
491.25	1934.99
491.61	1979.79
491.97	2025.71
492.33	2081.77
492.69	2135.69
493.05	2191.94
493.41	2250.92
493.77	2321.30
494.13	2387.16
494.49	2456.49
494.85	2533.91
495.21	2606.72
495.57	2679.68
495.93	2761.25
496.29	2841.97
496.64	2935.13
497.00	3031.67
497.36	3134.75
497.72	3238.97
498.08	3350.31
498.44	3462.42
498.80	3590.66
499.16	3722.62
499.52	3862.84
499.88	4015.05
500.24	4169.38
500.60	4313.61
500.96	4470.47
501.32	4639.69
501.68	4809.10
502.03	4995.94
502.39	5213.68
502.75	5433.37
503.11	5663.65
503.47	5901.40
503.83	6144.14
504.19	6396.80
504.55	6674.88
504.91	6949.80
505.26	7240.63
505.62	7545.16
505.98	7867.66
506.34	8191.80
506.70	8561.77
507.06	8947.54
507.42	9365.33
507.78	9770.89
508.13	10190.97
508.49	10620.46
508.85	11092.43
509.21	11563.09
509.57	12087.95
509.93	12648.33
510.28	13251.08
510.64	13868.49
511.00	14485.25
511.36	15066.15
511.72	15651.35
512.07	16297.48
512.43	16904.54
512.79	17576.11
513.15	18316.94
513.51	19067.90
513.86	19796.30
514.22	20624.89
514.58	21419.51
514.94	22246.16
515.30	23105.60
515.65	23923.69
516.01	24770.92
516.37	25641.69
516.73	26426.08
517.08	27285.45
517.44	28132.05
517.80	28934.59
518.16	29773.93
518.51	30601.90
518.87	31348.29
519.23	32202.10
519.59	33090.35
519.94	33928.83
520.30	34815.84
520.66	35616.12
521.01	36421.54
521.37	37088.57
521.73	37711.62
522.09	38300.74
522.44	38936.36
522.80	39358.45
523.16	39708.12
523.51	39955.45
523.87	40246.35
524.23	40509.97
524.58	40781.38
524.94	41177.86
525.30	41515.39
525.65	41708.02
526.01	41745.14
526.37	41734.16
526.72	41645.34
527.08	41527.21
527.44	41359.28
527.79	41207.73
528.15	41099.39
528.51	40856.81
528.86	40650.12
529.22	40403.92
529.58	40147.54
529.93	39735.51
530.29	39300.47
530.65	38921.68
531.00	38568.10
531.36	38108.65
531.71	37680.78
532.07	37200.73
532.43	36598.61
532.78	35923.38
533.14	35346.14
533.49	34748.11
533.85	34124.94
534.21	33519.98
534.56	32965.11
534.92	32373.42
535.27	31756.79
535.63	31175.09
535.98	30537.23
536.34	29909.00
536.69	29256.77
537.05	28638.58
537.41	28101.50
537.76	27629.06
538.12	27077.00
538.47	26615.24
538.83	26170.93
539.18	25706.67
539.54	25222.76
539.89	24765.30
540.25	24206.85
540.60	23715.67
540.96	23216.10
541.31	22708.04
541.67	22282.65
542.02	21903.81
542.38	21469.52
542.73	21014.13
543.09	20622.06
543.44	20260.80
543.80	19922.48
544.15	19523.60
544.51	19191.46
544.86	18874.20
545.22	18502.29
545.57	18118.06
545.93	17761.39
546.28	17439.03
546.64	17118.44
546.99	16769.14
547.35	16433.65
547.70	16141.67
548.05	15812.31
548.41	15496.85
548.76	15211.14
549.12	14928.29
549.47	14655.78
549.83	14407.17
550.18	14089.67
550.53	13769.16
550.89	13496.98
551.24	13216.30
551.60	12913.18
551.95	12660.14
552.30	12420.52
552.66	12164.86
553.01	11919.97
553.37	11662.68
553.72	11383.55
554.07	11121.92
554.43	10836.00
554.78	10538.73
555.13	10280.34
555.49	10063.37
555.84	9867.65
556.19	9682.61
556.55	9490.61
556.90	9295.23
557.26	9088.82
557.61	8863.87
557.96	8622.93
558.32	8420.08
558.67	8212.59
559.02	7999.74
559.37	7815.77
559.73	7663.12
560.08	7506.29
560.43	7357.52
560.79	7228.18
561.14	7077.90
561.49	6920.99
561.85	6767.61
562.20	6617.47
562.55	6485.11
562.90	6357.27
563.26	6235.14
563.61	6120.85
563.96	6017.68
564.32	5892.09
564.67	5768.74
565.02	5639.36
565.37	5526.29
565.73	5403.59
566.08	5297.90
566.43	5187.19
566.78	5092.49
567.14	4979.26
567.49	4871.17
567.84	4765.45
568.19	4662.67
568.54	4568.87
568.90	4483.41
569.25	4405.10
569.60	4331.84
569.95	4263.17
570.31	4183.73
570.66	4105.60
571.01	4012.90
571.36	3916.40
571.71	3836.72
572.06	3764.03
572.42	3704.93
572.77	3659.26
573.12	3614.77
573.47	3556.70
573.82	3492.64
574.18	3416.92
574.53	3346.73
574.88	3280.87
575.23	3227.53
575.58	3185.87
575.93	3142.38
576.28	3094.33
576.64	3046.16
576.99	2985.99
577.34	2928.24
577.69	2871.79
578.04	2823.27
578.39	2771.90
578.74	2733.04
579.09	2693.68
579.44	2658.29
579.80	2621.10
580.15	2577.02
580.50	2535.10
580.85	2498.76
581.20	2463.18
581.55	2430.76
581.90	2411.06
582.25	2385.38
582.60	2348.77
582.95	2314.51
583.30	2271.84
583.65	2231.47
584.00	2189.71
584.35	2152.57
584.71	2124.60
585.06	2099.41
585.41	2067.25
585.76	2043.08
586.11	2022.55
586.46	1994.14
586.81	1971.22
587.16	1954.53
587.51	1937.47
587.86	1917.86
588.21	1902.48
588.56	1884.53
588.91	1866.76
589.26	1845.84
589.61	1825.01
589.96	1804.76
590.31	1785.24
590.66	1768.60
591.01	1747.47
591.36	1730.99
591.71	1710.49
592.06	1691.39
592.41	1674.63
592.76	1661.80
593.10	1644.06
593.45	1630.67
593.80	1616.07
594.15	1598.82
594.50	1584.75
594.85	1573.07
595.20	1560.06
595.55	1549.95
595.90	1543.12
596.25	1532.77
596.60	1523.24
596.95	1515.50
597.30	1508.97
597.64	1544.96
597.99	1540.77
598.34	1533.40
598.69	1523.34
599.04	1512.69
599.39	1453.59
599.74	1440.69
600.09	1429.69
600.44	1424.24
600.78	1417.64
601.13	1413.33
601.48	1406.92
601.83	1398.73
602.18	1389.34
602.53	1382.06
602.88	1375.70
603.22	1367.65
603.57	1364.77
603.92	1357.04
604.27	1350.84
604.62	1344.68
604.97	1337.31
605.31	1330.83
605.66	1326.31
606.01	1317.56
606.36	1309.44
606.71	1304.64
607.05	1296.70
607.40	1288.18
607.75	1285.77
608.10	1283.74
608.44	1278.28
608.79	1275.43
609.14	1276.06
609.49	1267.66
609.84	1261.50
610.18	1262.46
610.53	1258.74
610.88	1253.12
611.23	1256.54
611.57	1253.92
611.92	1245.89
612.27	1243.92
612.62	1240.74
612.96	1233.88
613.31	1230.09
613.66	1228.01
614.00	1222.30
614.35	1220.10
614.70	1217.15
615.05	1211.30
615.39	1208.40
615.74	1209.57
616.09	1206.20
616.43	1199.71
616.78	1200.27
617.13	1198.26
617.47	1194.56
617.82	1193.84
618.17	1194.47
618.51	1189.39
618.86	1183.52
619.21	1179.40
619.55	1174.95
619.90	1174.93
620.25	1174.13
620.59	1175.81
620.94	1172.16
621.29	1171.48
621.63	1170.20
621.98	1168.77
622.32	1162.57
622.67	1165.68
623.02	1166.15
623.36	1162.82
623.71	1161.00
624.05	1162.15
624.40	1159.48
624.75	1156.62
625.09	1156.25
625.44	1156.48
625.78	1156.06
626.13	1151.22
626.48	1147.49
626.82	1145.88
627.17	1146.56
627.51	1146.61
627.86	1145.36
628.20	1144.94
628.55	1141.83
628.89	1135.04
629.24	1130.95
629.58	1135.91
629.93	1132.23
630.28	1130.85
630.62	1134.83
630.97	1135.79
631.31	1129.07
631.66	1129.24
632.00	1127.13
632.35	1125.35
632.69	1122.57
633.04	1121.98
633.38	1122.24
633.73	1120.11
634.07	1118.19
634.42	1119.95
634.76	1120.06
635.11	1117.82
635.45	1120.93
635.79	1119.13
636.14	1116.74
636.48	1117.93
636.83	1119.53
637.17	1117.61
637.52	1115.85
637.86	1114.82
638.21	1112.06
638.55	1108.85
638.89	1106.82
639.24	1109.13
639.58	1110.47
639.93	1110.91
640.27	1111.12
640.61	1115.66
640.96	1113.04
641.30	1112.76
641.65	1112.48
641.99	1116.25
642.33	1110.05
642.68	1109.93
643.02	1110.21
643.37	1110.30
643.71	1108.06
644.05	1112.60
644.40	1111.22
644.74	1108.59
645.08	1106.68
645.43	1105.83
645.77	1102.21
646.11	1101.74
646.46	1104.08
646.80	1104.26
647.14	1104.19
647.49	1109.18
647.83	1111.10
648.17	1109.18
648.52	1106.18
648.86	1104.26
649.20	1101.99
649.55	1098.86
649.89	1095.86
650.23	1098.72
650.57	1099.61
650.92	1096.73
651.26	1099.61
651.60	1099.37
651.95	1098.48
652.29	1097.06
652.63	1094.93
652.97	1093.24
653.32	1091.98
653.66	1092.94
654.00	1091.63
654.34	1094.83
654.69	1093.90
655.03	1094.74
655.37	1094.86
655.71	1097.69
656.05	1096.35
656.40	1096.14
656.74	1097.92
657.08	1094.90
657.42	1090.71
657.76	1090.71
658.11	1091.42
658.45	1093.85
658.79	1092.52
659.13	1094.93
659.47	1095.58
659.82	1094.83
660.16	1095.60
660.50	1100.05
660.84	1096.35
661.18	1094.86
661.52	1094.67
661.87	1090.20
662.21	1087.23
662.55	1092.56
662.89	1094.50
663.23	1093.31
663.57	1090.95
663.91	1089.61
664.25	1089.43
664.60	1088.49
664.94	1092.54
665.28	1095.96
665.62	1096.99
665.96	1093.83
666.30	1093.22
666.64	1090.99
666.98	1093.26
667.32	1091.39
667.66	1093.17
668.01	1094.39
668.35	1094.62
668.69	1093.66
669.03	1095.72
669.37	1095.65
669.71	1093.85
670.05	1093.71
670.39	1090.53
670.73	1091.37
671.07	1090.10
671.41	1092.21
671.75	1091.86
672.09	1092.80
672.43	1091.20
672.77	1091.27
673.11	1088.89
673.45	1086.08
673.79	1082.52
674.13	1083.57
674.47	1083.43
674.81	1083.18
675.15	1086.62
675.49	1090.57
675.83	1091.51
676.17	1092.47
676.51	1095.23
676.85	1092.73
677.19	1091.39
677.53	1090.34
677.87	1089.00
678.21	1089.94
678.55	1092.52
678.89	1093.66
679.23	1094.06
679.57	1096.05
679.90	1089.00
680.24	1087.34
680.58	1087.97
680.92	1088.07
681.26	1086.36
681.60	1086.64
681.94	1085.38
682.28	1085.75
682.62	1084.91
682.96	1086.97
683.29	1090.34
683.63	1091.79
683.97	1089.89
684.31	1089.82
684.65	1088.28
684.99	1086.76
685.33	1088.56
685.67	1089.96
686.00	1094.11
686.34	1093.69
686.68	1091.91
687.02	1092.63
687.36	1091.16
687.70	1087.53
688.03	1090.53
688.37	1094.95
688.71	1093.85
689.05	1093.76
689.39	1091.67
689.72	1090.76
690.06	1089.87
690.40	1089.00
690.74	1090.03
691.08	1091.39
691.41	1093.29
691.75	1095.79
692.09	1091.81
692.43	1092.66
692.76	1092.94
693.10	1087.53
693.44	1084.96
693.78	1090.74
694.11	1088.30
694.45	1088.54
694.79	1088.86
695.13	1089.57
695.46	1086.76
695.80	1089.71
696.14	1089.38
696.48	1088.40
696.81	1087.48
697.15	1086.22
697.49	1086.20
697.82	1087.46
698.16	1090.27
698.50	1091.70
698.83	1095.77
699.17	1095.91
699.51	1094.72
699.84	1093.43
700.18	1092.16
700.52	1089.50
700.85	1087.93
701.19	1084.18
701.53	1087.16
701.86	1085.45
702.20	1085.56
702.54	1088.00
702.87	1090.83
703.21	1090.10
703.55	1093.69
703.88	1095.96
704.22	1091.23
704.55	1090.97
704.89	1090.39
705.23	1087.34
705.56	1083.46
705.90	1085.24
706.23	1084.37
706.57	1083.36
706.91	1084.00
707.24	1085.89
707.58	1086.31
707.91	1087.27
708.25	1087.09
708.58	1086.41
708.92	1087.32
709.26	1085.03
709.59	1084.32
709.93	1087.18
710.26	1088.54
710.60	1087.55
710.93	1090.20
711.27	1088.75
711.60	1087.30
711.94	1088.28
712.27	1087.83
712.61	1086.73
712.94	1092.19
713.28	1091.09
713.61	1088.68
713.95	1087.81
714.28	1089.14
714.62	1089.05
714.95	1091.46
715.29	1092.52
715.62	1096.38
715.96	1094.01
716.29	1090.03
716.63	1086.73
716.96	1087.90
717.29	1086.57
717.63	1088.51
717.96	1088.79
718.30	1088.21
718.63	1086.52
718.97	1085.75
719.30	1086.27
719.63	1087.30
719.97	1086.13
720.30	1085.84
720.64	1085.24
720.97	1081.98
721.30	1082.97
721.64	1083.25
721.97	1082.78
722.31	1082.15
722.64	1086.66
722.97	1086.38
723.31	1087.72
723.64	1087.04
723.97	1086.13
724.31	1081.40
724.64	1081.30
724.98	1083.25
725.31	1082.85
725.64	1086.01
725.98	1089.50
726.31	1089.73
726.64	1087.51
726.97	1087.79
727.31	1087.06
727.64	1084.98
727.97	1083.53
728.31	1085.24
728.64	1088.14
728.97	1087.90
729.31	1090.22
729.64	1089.78
729.97	1087.39
730.30	1087.58
730.64	1089.03
730.97	1088.30
731.30	1088.19
731.63	1091.86
731.97	1089.19
732.30	1085.70
732.63	1082.26
732.96	1083.83
733.30	1081.37
733.63	1082.83
733.96	1085.87
734.29	1087.60
734.63	1084.89
734.96	1084.14
735.29	1083.95
735.62	1083.15
735.95	1084.07
736.29	1089.03
736.62	1091.56
736.95	1093.87
737.28	1094.11
737.61	1094.97
737.94	1092.49
738.28	1089.71
738.61	1089.24
738.94	1088.00
739.27	1087.86
739.60	1085.84
739.93	1086.69
740.27	1085.94
740.60	1086.87
740.93	1087.72
741.26	1087.60
741.59	1089.43
741.92	1087.86
742.25	1084.89
742.58	1083.81
742.91	1087.23
743.25	1085.59
743.58	1085.66
743.91	1085.17
744.24	1081.42
744.57	1077.65
744.90	1078.43
745.23	1077.63
745.56	1077.11
745.89	1081.82
746.22	1084.16
746.55	1083.55
746.88	1085.54
747.21	1091.63
747.54	1089.96
747.87	1089.12
748.20	1091.18
748.53	1090.24
748.87	1086.43
749.20	1085.26
749.53	1086.08
749.86	1080.98
750.19	1081.80
750.52	1082.43
750.85	1084.09
751.18	1084.89
751.51	1087.04
751.84	1085.07
752.16	1081.54
752.49	1082.43
752.82	1081.58
753.15	1081.23
753.48	1081.91
753.81	1085.77
754.14	1084.72
754.47	1082.97
754.80	1084.81
755.13	1086.43
755.46	1084.56
755.79	1084.16
756.12	1090.24
756.45	1090.78
756.78	1088.44
757.11	1091.04
757.43	1092.80
757.76	1091.09
758.09	1090.78
758.42	1091.49
758.75	1088.33
759.08	1085.40
759.41	1081.94
759.74	1082.36
760.07	1082.90
760.39	1085.33
760.72	1087.44
761.05	1088.70
761.38	1087.67
761.71	1086.43
762.04	1084.56
762.36	1084.18
762.69	1084.32
763.02	1084.56
763.35	1087.11
