SpectraSuite Data File
++++++++++++++++++++++++++++++++++++
Date: Mon Aug 26 10:26:19 PDT 2019
User: corrico
Dark Spectrum Present: No
Reference Spectrum Present: No
Number of Sampled Component Spectra: 1
Spectrometers: USB2+H06089
Integration Time (usec): 10000 (USB2+H06089)
Spectra Averaged: 20 (USB2+H06089)
Boxcar Smoothing: 2 (USB2+H06089)
Correct for Electrical Dark: No (USB2+H06089)
Strobe/Lamp Enabled: No (USB2+H06089)
Correct for Detector Non-linearity: No (USB2+H06089)
Correct for Stray Light: No (USB2+H06089)
Number of Pixels in Processed Spectrum: 2048
>>>>>Begin Processed Spectral Data<<<<<
339.70	1029.48
340.07	1029.48
340.45	997.70
340.82	978.20
341.19	953.46
341.57	929.17
341.94	918.33
342.31	910.84
342.69	903.94
343.06	902.49
343.43	902.28
343.81	901.93
344.18	904.43
344.55	908.69
344.93	914.56
345.30	918.36
345.67	925.85
346.04	934.13
346.42	942.04
346.79	951.62
347.16	964.04
347.54	972.82
347.91	981.43
348.28	992.88
348.65	1002.10
349.03	1012.47
349.40	1024.27
349.77	1034.66
350.14	1041.14
350.52	1046.95
350.89	1048.98
351.26	1050.10
351.63	1049.68
352.01	1053.97
352.38	1059.02
352.75	1063.63
353.12	1069.11
353.50	1075.85
353.87	1077.89
354.24	1081.09
354.61	1084.23
354.98	1087.23
355.36	1090.32
355.73	1092.21
356.10	1090.50
356.47	1088.68
356.84	1091.63
357.22	1089.12
357.59	1088.28
357.96	1089.82
358.33	1093.43
358.70	1088.56
359.08	1089.75
359.45	1090.60
359.82	1093.12
360.19	1090.81
360.56	1092.00
360.94	1090.50
361.31	1090.22
361.68	1086.90
362.05	1085.59
362.42	1086.29
362.79	1087.20
363.16	1087.41
363.54	1087.04
363.91	1086.17
364.28	1084.63
364.65	1086.27
365.02	1083.50
365.39	1081.77
365.76	1081.94
366.14	1082.05
366.51	1081.33
366.88	1081.30
367.25	1078.71
367.62	1079.17
367.99	1078.14
368.36	1075.08
368.73	1078.94
369.10	1084.91
369.48	1085.87
369.85	1088.93
370.22	1090.78
370.59	1090.10
370.96	1088.21
371.33	1086.71
371.70	1085.56
372.07	1082.01
372.44	1078.82
372.81	1079.27
373.18	1079.78
373.55	1077.02
373.93	1076.95
374.30	1077.91
374.67	1078.87
375.04	1080.84
375.41	1084.65
375.78	1088.70
376.15	1089.61
376.52	1088.04
376.89	1088.23
377.26	1084.74
377.63	1081.73
378.00	1082.83
378.37	1082.78
378.74	1080.58
379.11	1081.21
379.48	1084.11
379.85	1083.69
380.22	1085.28
380.59	1084.93
380.96	1085.89
381.33	1086.31
381.70	1086.29
382.07	1085.52
382.44	1088.19
382.81	1087.97
383.18	1086.52
383.55	1084.81
383.92	1085.59
384.29	1088.04
384.66	1089.59
385.03	1091.98
385.40	1094.88
385.77	1091.81
386.14	1088.77
386.51	1089.52
386.88	1086.55
387.25	1085.38
387.62	1087.69
387.99	1087.81
388.36	1084.49
388.73	1087.18
389.10	1084.63
389.46	1083.79
389.83	1083.11
390.20	1084.51
390.57	1083.08
390.94	1085.56
391.31	1088.77
391.68	1090.83
392.05	1091.79
392.42	1091.81
392.79	1091.88
393.16	1090.50
393.53	1090.95
393.89	1093.19
394.26	1093.47
394.63	1093.92
395.00	1090.29
395.37	1088.65
395.74	1086.34
396.11	1086.57
396.48	1084.14
396.84	1091.11
397.21	1094.34
397.58	1095.00
397.95	1092.05
398.32	1093.92
398.69	1089.47
399.06	1086.34
399.42	1085.17
399.79	1089.36
400.16	1090.71
400.53	1092.35
400.90	1093.50
401.27	1094.39
401.64	1092.35
402.00	1092.59
402.37	1091.67
402.74	1090.39
403.11	1088.82
403.48	1089.66
403.84	1088.68
404.21	1092.21
404.58	1093.40
404.95	1097.80
405.32	1100.66
405.68	1103.14
406.05	1101.67
406.42	1103.66
406.79	1102.44
407.16	1101.25
407.52	1102.06
407.89	1102.91
408.26	1103.42
408.63	1105.55
408.99	1105.15
409.36	1103.82
409.73	1103.87
410.10	1103.31
410.47	1102.09
410.83	1101.60
411.20	1102.06
411.57	1100.54
411.94	1101.03
412.30	1100.36
412.67	1103.47
413.04	1101.97
413.40	1101.25
413.77	1100.38
414.14	1101.29
414.51	1103.12
414.87	1104.43
415.24	1104.22
415.61	1101.95
415.97	1101.53
416.34	1101.13
416.71	1103.05
417.08	1106.11
417.44	1112.29
417.81	1113.11
418.18	1111.38
418.54	1112.71
418.91	1113.95
419.28	1110.28
419.64	1113.11
420.01	1115.55
420.38	1112.97
420.74	1112.90
421.11	1116.11
421.48	1116.83
421.84	1113.53
422.21	1114.98
422.58	1112.48
422.94	1112.32
423.31	1109.37
423.68	1113.72
424.04	1115.57
424.41	1117.61
424.77	1117.63
425.14	1118.12
425.51	1114.14
425.87	1113.67
426.24	1115.52
426.61	1112.83
426.97	1112.92
427.34	1116.72
427.70	1115.34
428.07	1113.84
428.44	1117.00
428.80	1117.91
429.17	1117.28
429.53	1115.83
429.90	1117.21
430.27	1113.77
430.63	1114.61
431.00	1113.39
431.36	1117.23
431.73	1114.56
432.09	1114.82
432.46	1110.94
432.83	1113.04
433.19	1110.33
433.56	1111.24
433.92	1114.17
434.29	1117.11
434.65	1116.30
435.02	1118.71
435.38	1122.26
435.75	1124.23
436.11	1124.07
436.48	1122.26
436.84	1119.69
437.21	1119.48
437.57	1117.25
437.94	1119.45
438.30	1121.23
438.67	1121.40
439.03	1115.45
439.40	1114.77
439.76	1113.07
440.13	1112.41
440.49	1111.38
440.86	1116.53
441.22	1113.95
441.59	1114.21
441.95	1113.32
442.32	1117.63
442.68	1115.15
443.05	1117.65
443.41	1115.12
443.78	1116.15
444.14	1113.42
444.51	1111.05
444.87	1110.47
445.24	1112.83
445.60	1113.84
445.96	1113.93
446.33	1115.99
446.69	1115.34
447.06	1113.53
447.42	1111.61
447.79	1110.68
448.15	1111.85
448.51	1111.59
448.88	1112.60
449.24	1114.02
449.61	1114.26
449.97	1114.35
450.33	1114.56
450.70	1115.62
451.06	1115.55
451.43	1115.31
451.79	1117.61
452.15	1117.86
452.52	1116.51
452.88	1117.54
453.24	1121.42
453.61	1119.95
453.97	1121.40
454.34	1118.75
454.70	1117.82
455.06	1118.33
455.43	1115.05
455.79	1113.56
456.15	1117.93
456.52	1117.47
456.88	1114.24
457.24	1118.03
457.61	1121.12
457.97	1118.99
458.33	1119.97
458.70	1120.93
459.06	1118.94
459.42	1120.23
459.79	1122.01
460.15	1122.31
460.51	1123.86
460.88	1125.05
461.24	1123.95
461.60	1122.71
461.96	1123.08
462.33	1128.70
462.69	1130.43
463.05	1126.45
463.42	1128.93
463.78	1125.40
464.14	1120.39
464.50	1122.12
464.87	1126.31
465.23	1129.03
465.59	1133.62
465.95	1135.18
466.32	1134.18
466.68	1137.52
467.04	1136.52
467.40	1137.59
467.77	1135.74
468.13	1137.41
468.49	1137.34
468.85	1139.30
469.22	1142.20
469.58	1146.65
469.94	1148.95
470.30	1153.11
470.66	1153.28
471.03	1154.61
471.39	1157.25
471.75	1157.98
472.11	1157.54
472.47	1161.07
472.84	1167.32
473.20	1169.87
473.56	1174.88
473.92	1179.84
474.28	1183.80
474.65	1182.81
475.01	1187.17
475.37	1189.76
475.73	1193.18
476.09	1198.56
476.45	1206.97
476.81	1213.08
477.18	1221.60
477.54	1230.93
477.90	1240.53
478.26	1248.09
478.62	1253.82
478.98	1261.53
479.34	1269.60
479.71	1275.73
480.07	1279.22
480.43	1292.09
480.79	1303.68
481.15	1311.24
481.51	1325.56
481.87	1344.29
482.23	1356.60
482.59	1372.02
482.96	1394.00
483.32	1412.42
483.68	1426.58
484.04	1444.74
484.40	1462.60
484.76	1481.37
485.12	1499.75
485.48	1525.49
485.84	1550.04
486.20	1573.19
486.56	1598.26
486.92	1628.78
487.28	1661.57
487.64	1690.62
488.00	1728.16
488.37	1763.15
488.73	1799.50
489.09	1834.30
489.45	1876.64
489.81	1918.56
490.17	1961.93
490.53	2009.51
490.89	2058.27
491.25	2114.21
491.61	2171.53
491.97	2233.39
492.33	2289.28
492.69	2352.38
493.05	2415.85
493.41	2485.95
493.77	2556.89
494.13	2635.23
494.49	2713.85
494.85	2802.09
495.21	2887.82
495.57	2984.14
495.93	3089.93
496.29	3198.69
496.64	3312.23
497.00	3434.92
497.36	3555.67
497.72	3683.72
498.08	3820.88
498.44	3965.57
498.80	4105.98
499.16	4275.62
499.52	4447.81
499.88	4624.29
500.24	4798.07
500.60	4992.48
500.96	5186.04
501.32	5370.85
501.68	5567.69
502.03	5789.03
502.39	6017.54
502.75	6254.29
503.11	6534.96
503.47	6819.83
503.83	7124.01
504.19	7434.62
504.55	7772.85
504.91	8103.12
505.26	8433.84
505.62	8805.28
505.98	9221.78
506.34	9620.80
506.70	10052.51
507.06	10548.77
507.42	11027.83
507.78	11496.76
508.13	12031.78
508.49	12562.08
508.85	13124.16
509.21	13693.37
509.57	14285.97
509.93	14888.33
510.28	15554.55
510.64	16263.91
511.00	16988.68
511.36	17734.87
511.72	18547.79
512.07	19390.54
512.43	20207.04
512.79	21136.37
513.15	22074.90
513.51	22868.13
513.86	23693.08
514.22	24621.99
514.58	25541.33
514.94	26425.09
515.30	27496.57
515.65	28606.87
516.01	29625.64
516.37	30577.41
516.73	31625.27
517.08	32552.03
517.44	33335.69
517.80	34214.35
518.16	35183.66
518.51	36117.95
518.87	37084.66
519.23	38163.63
519.59	39158.19
519.94	40140.14
520.30	41113.52
520.66	41944.62
521.01	42749.04
521.37	43583.65
521.73	44216.51
522.09	44822.55
522.44	45586.82
522.80	46155.81
523.16	46493.83
523.51	46849.24
523.87	47206.10
524.23	47506.44
524.58	47767.38
524.94	48186.27
525.30	48492.25
525.65	48630.74
526.01	48609.60
526.37	48780.25
526.72	48899.67
527.08	48917.85
527.44	48840.61
527.79	48738.03
528.15	48559.84
528.51	48230.34
528.86	47978.24
529.22	47655.76
529.58	47291.23
529.93	46823.54
530.29	46265.77
530.65	45773.81
531.00	45322.37
531.36	44726.28
531.71	44124.79
532.07	43699.79
532.43	42970.39
532.78	42235.65
533.14	41653.18
533.49	40988.47
533.85	40200.32
534.21	39649.85
534.56	39102.39
534.92	38451.63
535.27	37773.63
535.63	36994.53
535.98	36217.54
536.34	35434.77
536.69	34699.05
537.05	33992.40
537.41	33421.28
537.76	32790.27
538.12	32082.68
538.47	31441.33
538.83	30870.71
539.18	30274.97
539.54	29686.09
539.89	29183.55
540.25	28687.29
540.60	28167.74
540.96	27557.47
541.31	27042.85
541.67	26640.59
542.02	26174.37
542.38	25719.37
542.73	25276.10
543.09	24780.14
543.44	24237.75
543.80	23744.08
544.15	23241.71
544.51	22869.33
544.86	22434.20
545.22	22071.23
545.57	21707.65
545.93	21266.15
546.28	20821.69
546.64	20466.44
546.99	20061.36
547.35	19657.93
547.70	19320.58
548.05	18933.69
548.41	18532.06
548.76	18071.37
549.12	17639.07
549.47	17247.20
549.83	16915.89
550.18	16543.12
550.53	16193.84
550.89	15809.31
551.24	15408.52
551.60	15051.21
551.95	14753.47
552.30	14485.32
552.66	14269.73
553.01	14068.16
553.37	13792.00
553.72	13502.74
554.07	13206.52
554.43	12888.02
554.78	12552.13
555.13	12258.09
555.49	11935.35
555.84	11644.75
556.19	11383.57
556.55	11101.77
556.90	10813.74
557.26	10599.89
557.61	10394.97
557.96	10157.29
558.32	9948.54
558.67	9733.89
559.02	9494.43
559.37	9271.70
559.73	9081.02
560.08	8896.77
560.43	8701.48
560.79	8507.50
561.14	8297.60
561.49	8089.17
561.85	7868.90
562.20	7692.66
562.55	7553.96
562.90	7400.91
563.26	7255.85
563.61	7127.38
563.96	6962.95
564.32	6775.34
564.67	6621.26
565.02	6480.97
565.37	6355.82
565.73	6219.55
566.08	6101.36
566.43	5981.31
566.78	5838.26
567.14	5697.73
567.49	5582.81
567.84	5455.32
568.19	5333.96
568.54	5235.50
568.90	5140.73
569.25	5043.85
569.60	4960.23
569.95	4874.80
570.31	4793.04
570.66	4706.82
571.01	4613.01
571.36	4516.93
571.71	4423.94
572.06	4334.67
572.42	4253.06
572.77	4173.78
573.12	4097.90
573.47	4029.26
573.82	3962.78
574.18	3889.32
574.53	3825.91
574.88	3768.05
575.23	3692.97
575.58	3617.81
575.93	3547.53
576.28	3481.15
576.64	3419.87
576.99	3365.32
577.34	3308.84
577.69	3247.26
578.04	3178.82
578.39	3114.86
578.74	3054.02
579.09	2995.86
579.44	2936.60
579.80	2894.19
580.15	2847.87
580.50	2802.91
580.85	2756.99
581.20	2718.79
581.55	2677.85
581.90	2632.35
582.25	2586.92
582.60	2542.62
582.95	2504.84
583.30	2468.31
583.65	2432.33
584.00	2402.21
584.35	2376.09
584.71	2343.16
585.06	2309.38
585.41	2276.33
585.76	2242.94
586.11	2208.81
586.46	2177.73
586.81	2145.26
587.16	2117.20
587.51	2093.00
587.86	2069.55
588.21	2051.36
588.56	2036.22
588.91	2018.99
589.26	1999.99
589.61	1976.91
589.96	1952.38
590.31	1923.59
590.66	1900.21
591.01	1876.85
591.36	1860.61
591.71	1837.16
592.06	1817.75
592.41	1798.07
592.76	1775.69
593.10	1752.90
593.45	1740.09
593.80	1725.07
594.15	1707.16
594.50	1699.95
594.85	1689.59
595.20	1675.36
595.55	1664.99
595.90	1651.95
596.25	1633.88
596.60	1617.38
596.95	1603.83
597.30	1590.07
597.64	1633.04
597.99	1624.54
598.34	1614.90
598.69	1603.90
599.04	1591.40
599.39	1528.14
599.74	1514.35
600.09	1503.56
600.44	1493.59
600.78	1485.47
601.13	1477.46
601.48	1468.26
601.83	1454.15
602.18	1441.35
602.53	1428.17
602.88	1419.09
603.22	1408.35
603.57	1406.59
603.92	1399.69
604.27	1395.83
604.62	1390.35
604.97	1384.17
605.31	1378.97
605.66	1375.58
606.01	1369.42
606.36	1360.69
606.71	1358.63
607.05	1349.97
607.40	1344.68
607.75	1337.43
608.10	1330.64
608.44	1325.70
608.79	1323.10
609.14	1315.08
609.49	1314.12
609.84	1308.20
610.18	1303.30
610.53	1296.33
610.88	1293.47
611.23	1287.08
611.57	1285.35
611.92	1279.55
612.27	1272.39
612.62	1267.66
612.96	1258.93
613.31	1250.62
613.66	1246.59
614.00	1244.14
614.35	1239.95
614.70	1239.59
615.05	1239.95
615.39	1236.46
615.74	1233.63
616.09	1231.68
616.43	1228.62
616.78	1222.86
617.13	1218.51
617.47	1214.69
617.82	1209.03
618.17	1204.42
618.51	1203.06
618.86	1199.57
619.21	1197.54
619.55	1195.85
619.90	1192.97
620.25	1189.41
620.59	1188.06
620.94	1184.22
621.29	1182.88
621.63	1184.05
621.98	1182.42
622.32	1179.12
622.67	1179.12
623.02	1177.24
623.36	1170.03
623.71	1170.41
624.05	1172.91
624.40	1169.68
624.75	1164.30
625.09	1165.10
625.44	1164.25
625.78	1159.71
626.13	1161.98
626.48	1163.71
626.82	1164.98
627.17	1163.27
627.51	1162.33
627.86	1156.55
628.20	1155.03
628.55	1151.22
628.89	1150.61
629.24	1146.96
629.58	1147.12
629.93	1145.60
630.28	1145.11
630.62	1143.16
630.97	1142.70
631.31	1140.22
631.66	1139.23
632.00	1137.57
632.35	1133.15
632.69	1132.70
633.04	1134.27
633.38	1130.71
633.73	1129.61
634.07	1129.94
634.42	1130.48
634.76	1129.10
635.11	1129.19
635.45	1127.93
635.79	1127.30
636.14	1127.27
636.48	1125.63
636.83	1126.45
637.17	1126.38
637.52	1126.50
637.86	1122.33
638.21	1121.35
638.55	1119.57
638.89	1120.11
639.24	1120.06
639.58	1122.22
639.93	1121.09
640.27	1122.68
640.61	1119.81
640.96	1117.82
641.30	1117.11
641.65	1116.72
641.99	1114.42
642.33	1115.12
642.68	1115.29
643.02	1111.92
643.37	1112.34
643.71	1110.00
644.05	1110.84
644.40	1111.71
644.74	1113.11
645.08	1110.51
645.43	1114.54
645.77	1111.57
646.11	1107.17
646.46	1107.12
646.80	1106.49
647.14	1103.49
647.49	1103.21
647.83	1104.90
648.17	1103.70
648.52	1103.47
648.86	1105.48
649.20	1107.14
649.55	1106.28
649.89	1105.08
650.23	1107.33
650.57	1104.78
650.92	1101.46
651.26	1100.43
651.60	1101.01
651.95	1099.47
652.29	1099.12
652.63	1101.55
652.97	1101.11
653.32	1100.99
653.66	1101.50
654.00	1102.37
654.34	1101.50
654.69	1104.03
655.03	1104.08
655.37	1101.67
655.71	1104.29
656.05	1105.11
656.40	1104.69
656.74	1102.42
657.08	1100.78
657.42	1097.92
657.76	1097.01
658.11	1096.78
658.45	1096.82
658.79	1101.92
659.13	1099.58
659.47	1098.16
659.82	1098.34
660.16	1100.24
660.50	1094.76
660.84	1094.83
661.18	1096.10
661.52	1093.80
661.87	1095.93
662.21	1099.23
662.55	1099.91
662.89	1098.39
663.23	1098.11
663.57	1096.59
663.91	1094.97
664.25	1094.53
664.60	1094.01
664.94	1096.92
665.28	1097.69
665.62	1096.63
665.96	1094.83
666.30	1092.75
666.64	1088.70
666.98	1086.73
667.32	1087.88
667.66	1090.13
668.01	1090.99
668.35	1092.26
668.69	1091.95
669.03	1092.28
669.37	1092.21
669.71	1095.51
670.05	1095.84
670.39	1098.58
670.73	1099.65
671.07	1101.64
671.41	1098.27
671.75	1102.88
672.09	1100.99
672.43	1100.89
672.77	1096.38
673.11	1096.35
673.45	1092.82
673.79	1090.69
674.13	1089.47
674.47	1095.11
674.81	1099.84
675.15	1097.95
675.49	1097.97
675.83	1096.92
676.17	1090.50
676.51	1089.38
676.85	1090.03
677.19	1089.03
677.53	1092.30
677.87	1094.86
678.21	1093.15
678.55	1095.42
678.89	1097.69
679.23	1094.22
679.57	1092.02
679.90	1090.39
680.24	1086.45
680.58	1086.36
680.92	1089.26
681.26	1092.42
681.60	1093.85
681.94	1094.53
682.28	1094.46
682.62	1093.38
682.96	1092.33
683.29	1090.41
683.63	1089.57
683.97	1090.60
684.31	1089.94
684.65	1088.33
684.99	1088.37
685.33	1090.60
685.67	1089.29
686.00	1087.86
686.34	1090.64
686.68	1093.36
687.02	1090.67
687.36	1091.37
687.70	1091.49
688.03	1091.37
688.37	1089.80
688.71	1092.75
689.05	1092.89
689.39	1095.60
689.72	1096.45
690.06	1096.52
690.40	1097.73
690.74	1095.11
691.08	1095.96
691.41	1093.78
691.75	1092.75
692.09	1091.98
692.43	1093.80
692.76	1094.08
693.10	1098.51
693.44	1100.68
693.78	1103.21
694.11	1102.23
694.45	1102.46
694.79	1097.06
695.13	1098.95
695.46	1094.36
695.80	1094.93
696.14	1091.30
696.48	1093.08
696.81	1089.68
697.15	1090.46
697.49	1091.27
697.82	1091.13
698.16	1089.40
698.50	1091.02
698.83	1092.66
699.17	1088.79
699.51	1090.43
699.84	1090.06
700.18	1089.59
700.52	1089.10
700.85	1093.08
701.19	1090.17
701.53	1095.77
701.86	1092.16
702.20	1093.08
702.54	1089.96
702.87	1092.45
703.21	1089.94
703.55	1093.62
703.88	1090.85
704.22	1095.21
704.55	1094.67
704.89	1093.33
705.23	1089.75
705.56	1091.58
705.90	1091.53
706.23	1093.26
706.57	1091.25
706.91	1097.36
707.24	1096.38
707.58	1096.73
707.91	1093.85
708.25	1097.08
708.58	1094.57
708.92	1092.84
709.26	1091.60
709.59	1093.29
709.93	1092.49
710.26	1095.16
710.60	1095.42
710.93	1094.81
711.27	1091.70
711.60	1092.47
711.94	1089.85
712.27	1091.53
712.61	1089.87
712.94	1091.42
713.28	1091.67
713.61	1090.29
713.95	1088.82
714.28	1091.56
714.62	1090.46
714.95	1087.76
715.29	1086.78
715.62	1083.64
715.96	1083.86
716.29	1083.79
716.63	1085.00
716.96	1085.31
717.29	1089.00
717.63	1089.22
717.96	1091.93
718.30	1090.85
718.63	1093.55
718.97	1092.98
719.30	1091.53
719.63	1091.51
719.97	1093.50
720.30	1091.98
720.64	1092.73
720.97	1093.52
721.30	1092.40
721.64	1090.90
721.97	1089.36
722.31	1088.02
722.64	1087.69
722.97	1095.00
723.31	1094.69
723.64	1096.07
723.97	1096.42
724.31	1094.67
724.64	1087.62
724.98	1089.31
725.31	1087.76
725.64	1087.79
725.98	1088.54
726.31	1086.69
726.64	1085.56
726.97	1087.86
727.31	1093.15
727.64	1092.45
727.97	1095.04
728.31	1094.32
728.64	1094.41
728.97	1090.32
729.31	1090.43
729.64	1091.06
729.97	1091.49
730.30	1092.28
730.64	1092.84
730.97	1096.10
731.30	1094.15
731.63	1091.91
731.97	1091.04
732.30	1089.82
732.63	1087.95
732.96	1085.38
733.30	1087.83
733.63	1086.90
733.96	1085.26
734.29	1085.99
734.63	1089.54
734.96	1092.14
735.29	1089.94
735.62	1094.46
735.95	1092.02
736.29	1090.01
736.62	1086.62
736.95	1087.39
737.28	1085.56
737.61	1085.82
737.94	1085.70
738.28	1082.92
738.61	1085.77
738.94	1087.37
739.27	1086.57
739.60	1090.24
739.93	1092.54
740.27	1087.90
740.60	1086.34
740.93	1086.03
741.26	1083.11
741.59	1081.44
741.92	1081.30
742.25	1081.70
742.58	1083.50
742.91	1087.58
743.25	1090.01
743.58	1095.93
743.91	1095.84
744.24	1095.65
744.57	1093.50
744.90	1094.43
745.23	1095.07
745.56	1093.87
745.89	1095.25
746.22	1094.46
746.55	1089.92
746.88	1083.71
747.21	1081.70
747.54	1079.15
747.87	1080.63
748.20	1080.98
748.53	1080.32
748.87	1082.54
749.20	1082.59
749.53	1080.86
749.86	1088.02
750.19	1090.03
750.52	1091.58
750.85	1091.09
751.18	1091.06
751.51	1085.66
751.84	1088.26
752.16	1085.87
752.49	1084.96
752.82	1084.23
753.15	1086.17
753.48	1082.59
753.81	1083.41
754.14	1084.25
754.47	1086.52
754.80	1084.16
755.13	1087.06
755.46	1085.45
755.79	1085.00
756.12	1085.61
756.45	1089.10
756.78	1089.82
757.11	1088.21
757.43	1092.00
757.76	1084.32
758.09	1084.81
758.42	1084.65
758.75	1085.61
759.08	1085.40
759.41	1094.34
759.74	1092.33
760.07	1092.91
760.39	1096.07
760.72	1096.14
761.05	1093.12
761.38	1093.40
761.71	1095.04
762.04	1094.57
762.36	1091.25
762.69	1089.59
763.02	1091.30
763.35	1087.48
