SpectraSuite Data File
++++++++++++++++++++++++++++++++++++
Date: Mon Aug 26 10:26:22 PDT 2019
User: corrico
Dark Spectrum Present: No
Reference Spectrum Present: No
Number of Sampled Component Spectra: 1
Spectrometers: USB2+H06089
Integration Time (usec): 10000 (USB2+H06089)
Spectra Averaged: 20 (USB2+H06089)
Boxcar Smoothing: 2 (USB2+H06089)
Correct for Electrical Dark: No (USB2+H06089)
Strobe/Lamp Enabled: No (USB2+H06089)
Correct for Detector Non-linearity: No (USB2+H06089)
Correct for Stray Light: No (USB2+H06089)
Number of Pixels in Processed Spectrum: 2048
>>>>>Begin Processed Spectral Data<<<<<
339.70	1047.39
340.07	1047.39
340.45	1008.56
340.82	985.25
341.19	958.38
341.57	929.78
341.94	919.88
342.31	911.66
342.69	903.91
343.06	901.48
343.43	902.16
343.81	897.22
344.18	902.18
344.55	910.07
344.93	915.78
345.30	924.82
345.67	933.43
346.04	937.38
346.42	943.82
346.79	949.98
347.16	954.82
347.54	969.26
347.91	981.36
348.28	990.70
348.65	1000.20
349.03	1011.32
349.40	1017.52
349.77	1025.27
350.14	1033.70
350.52	1042.10
350.89	1045.10
351.26	1051.84
351.63	1057.27
352.01	1062.63
352.38	1067.00
352.75	1073.04
353.12	1076.15
353.50	1077.89
353.87	1077.89
354.24	1078.50
354.61	1083.57
354.98	1085.21
355.36	1087.30
355.73	1091.98
356.10	1095.96
356.47	1092.28
356.84	1091.74
357.22	1092.84
357.59	1089.33
357.96	1087.48
358.33	1088.93
358.70	1088.47
359.08	1089.40
359.45	1090.50
359.82	1090.24
360.19	1089.10
360.56	1089.10
360.94	1084.49
361.31	1082.57
361.68	1083.60
362.05	1080.27
362.42	1078.54
362.79	1081.30
363.16	1081.68
363.54	1080.11
363.91	1082.85
364.28	1080.91
364.65	1079.81
365.02	1079.60
365.39	1078.71
365.76	1075.38
366.14	1077.47
366.51	1078.66
366.88	1080.48
367.25	1082.19
367.62	1084.32
367.99	1084.00
368.36	1081.94
368.73	1078.14
369.10	1076.97
369.48	1077.54
369.85	1077.51
370.22	1077.91
370.59	1079.22
370.96	1080.72
371.33	1079.29
371.70	1079.74
372.07	1079.90
372.44	1080.25
372.81	1077.14
373.18	1077.63
373.55	1077.84
373.93	1078.87
374.30	1076.51
374.67	1080.63
375.04	1081.68
375.41	1083.53
375.78	1083.67
376.15	1083.62
376.52	1081.54
376.89	1082.80
377.26	1082.33
377.63	1081.02
378.00	1084.21
378.37	1083.34
378.74	1081.49
379.11	1081.49
379.48	1085.19
379.85	1088.93
380.22	1090.27
380.59	1090.74
380.96	1092.87
381.33	1089.43
381.70	1086.34
382.07	1087.18
382.44	1085.24
382.81	1083.39
383.18	1083.01
383.55	1082.54
383.92	1082.31
384.29	1084.96
384.66	1085.91
385.03	1089.52
385.40	1091.37
385.77	1087.37
386.14	1090.46
386.51	1088.44
386.88	1087.60
387.25	1091.37
387.62	1098.55
387.99	1095.56
388.36	1094.15
388.73	1092.28
389.10	1086.80
389.46	1087.11
389.83	1090.29
390.20	1093.40
390.57	1093.78
390.94	1094.72
391.31	1094.18
391.68	1091.58
392.05	1088.79
392.42	1090.43
392.79	1093.45
393.16	1087.95
393.53	1089.31
393.89	1087.39
394.26	1086.01
394.63	1082.50
395.00	1082.94
395.37	1084.02
395.74	1089.40
396.11	1090.62
396.48	1089.94
396.84	1090.60
397.21	1090.74
397.58	1091.39
397.95	1093.05
398.32	1095.23
398.69	1097.31
399.06	1097.62
399.42	1093.90
399.79	1093.80
400.16	1093.62
400.53	1094.22
400.90	1091.44
401.27	1094.57
401.64	1093.24
402.00	1095.77
402.37	1097.90
402.74	1100.82
403.11	1103.31
403.48	1104.33
403.84	1104.38
404.21	1104.43
404.58	1104.57
404.95	1101.43
405.32	1100.64
405.68	1098.53
406.05	1095.44
406.42	1093.45
406.79	1093.26
407.16	1092.68
407.52	1091.95
407.89	1095.93
408.26	1100.75
408.63	1102.37
408.99	1102.49
409.36	1105.32
409.73	1104.50
410.10	1100.05
410.47	1100.71
410.83	1102.74
411.20	1101.41
411.57	1100.78
411.94	1104.15
412.30	1106.91
412.67	1110.21
413.04	1109.74
413.40	1110.51
413.77	1110.70
414.14	1109.34
414.51	1105.15
414.87	1104.85
415.24	1106.39
415.61	1105.15
415.97	1105.22
416.34	1106.02
416.71	1108.81
417.08	1109.53
417.44	1111.73
417.81	1111.40
418.18	1111.57
418.54	1109.95
418.91	1107.14
419.28	1107.47
419.64	1108.90
420.01	1110.47
420.38	1112.06
420.74	1111.97
421.11	1110.16
421.48	1110.07
421.84	1110.63
422.21	1109.39
422.58	1109.74
422.94	1111.24
423.31	1107.40
423.68	1107.35
424.04	1110.65
424.41	1110.07
424.77	1110.37
425.14	1112.85
425.51	1112.39
425.87	1110.89
426.24	1115.22
426.61	1116.90
426.97	1119.67
427.34	1122.08
427.70	1120.67
428.07	1117.14
428.44	1115.73
428.80	1115.59
429.17	1115.38
429.53	1118.17
429.90	1118.82
430.27	1118.47
430.63	1118.42
431.00	1117.11
431.36	1116.76
431.73	1118.42
432.09	1118.50
432.46	1117.18
432.83	1118.26
433.19	1116.88
433.56	1117.28
433.92	1117.42
434.29	1117.51
434.65	1113.74
435.02	1114.31
435.38	1115.50
435.75	1113.18
436.11	1111.82
436.48	1114.02
436.84	1114.75
437.21	1110.40
437.57	1109.51
437.94	1109.72
438.30	1111.10
438.67	1109.74
439.03	1112.43
439.40	1112.55
439.76	1111.40
440.13	1112.55
440.49	1114.91
440.86	1113.16
441.22	1116.01
441.59	1120.30
441.95	1118.99
442.32	1115.43
442.68	1115.08
443.05	1111.85
443.41	1109.62
443.78	1109.84
444.14	1114.21
444.51	1114.02
444.87	1116.01
445.24	1114.47
445.60	1110.58
445.96	1106.84
446.33	1110.02
446.69	1109.67
447.06	1110.28
447.42	1115.22
447.79	1116.39
448.15	1116.18
448.51	1115.85
448.88	1118.52
449.24	1115.90
449.61	1118.47
449.97	1116.88
450.33	1115.57
450.70	1114.12
451.06	1115.87
451.43	1114.45
451.79	1114.73
452.15	1115.62
452.52	1114.14
452.88	1112.85
453.24	1108.74
453.61	1110.79
453.97	1114.35
454.34	1117.68
454.70	1118.80
455.06	1120.60
455.43	1118.99
455.79	1119.27
456.15	1115.52
456.52	1111.97
456.88	1114.84
457.24	1116.34
457.61	1112.60
457.97	1112.11
458.33	1114.47
458.70	1114.75
459.06	1114.19
459.42	1116.25
459.79	1119.27
460.15	1119.88
460.51	1117.51
460.88	1116.88
461.24	1119.99
461.60	1120.79
461.96	1122.52
462.33	1126.64
462.69	1129.80
463.05	1130.90
463.42	1131.02
463.78	1131.27
464.14	1128.91
464.50	1125.96
464.87	1121.28
465.23	1121.80
465.59	1120.55
465.95	1124.04
466.32	1124.88
466.68	1128.70
467.04	1132.68
467.40	1139.05
467.77	1140.07
468.13	1142.95
468.49	1145.36
468.85	1143.82
469.22	1140.61
469.58	1140.05
469.94	1142.16
470.30	1142.25
470.66	1145.32
471.03	1147.49
471.39	1150.75
471.75	1152.64
472.11	1151.96
472.47	1152.69
472.84	1155.85
473.20	1157.49
473.56	1160.06
473.92	1166.80
474.28	1174.22
474.65	1176.87
475.01	1179.70
475.37	1185.46
475.73	1191.73
476.09	1196.32
476.45	1202.26
476.81	1210.78
477.18	1214.71
477.54	1217.62
477.90	1222.65
478.26	1227.24
478.62	1232.34
478.98	1242.36
479.34	1252.07
479.71	1258.46
480.07	1274.21
480.43	1284.72
480.79	1293.12
481.15	1303.58
481.51	1317.86
481.87	1325.73
482.23	1341.64
482.59	1358.33
482.96	1377.48
483.32	1392.03
483.68	1410.41
484.04	1424.85
484.40	1444.88
484.76	1463.44
485.12	1483.53
485.48	1503.47
485.84	1526.97
486.20	1550.16
486.56	1573.82
486.92	1605.63
487.28	1635.05
487.64	1667.05
488.00	1698.39
488.37	1735.11
488.73	1767.39
489.09	1805.42
489.45	1844.67
489.81	1888.72
490.17	1932.98
490.53	1982.71
490.89	2031.61
491.25	2077.95
491.61	2129.35
491.97	2182.13
492.33	2235.40
492.69	2291.92
493.05	2357.72
493.41	2424.33
493.77	2496.91
494.13	2577.30
494.49	2661.05
494.85	2744.96
495.21	2832.42
495.57	2923.68
495.93	3015.20
496.29	3113.17
496.64	3221.70
497.00	3330.84
497.36	3439.49
497.72	3563.79
498.08	3694.04
498.44	3835.46
498.80	3974.46
499.16	4135.21
499.52	4289.85
499.88	4457.29
500.24	4628.85
500.60	4820.40
500.96	5007.88
501.32	5193.37
501.68	5387.35
502.03	5581.92
502.39	5797.51
502.75	6024.16
503.11	6285.25
503.47	6552.21
503.83	6858.00
504.19	7154.99
504.55	7480.49
504.91	7792.16
505.26	8105.37
505.62	8452.42
505.98	8845.10
506.34	9219.35
506.70	9632.97
507.06	10102.83
507.42	10558.06
507.78	10999.32
508.13	11494.30
508.49	12007.86
508.85	12538.60
509.21	13079.83
509.57	13640.71
509.93	14217.87
510.28	14855.01
510.64	15525.50
511.00	16197.00
511.36	16903.07
511.72	17664.09
512.07	18456.25
512.43	19230.31
512.79	20120.70
513.15	20987.63
513.51	21767.59
513.86	22554.24
514.22	23449.73
514.58	24318.19
514.94	25187.53
515.30	26192.98
515.65	27243.16
516.01	28208.86
516.37	29099.48
516.73	30086.16
517.08	30930.46
517.44	31631.15
517.80	32446.19
518.16	33380.79
518.51	34281.34
518.87	35205.40
519.23	36266.72
519.59	37233.83
519.94	38191.13
520.30	39131.56
520.66	39974.74
521.01	40744.75
521.37	41526.81
521.73	42124.49
522.09	42637.16
522.44	43331.27
522.80	43881.70
523.16	44233.11
523.51	44576.77
523.87	44973.09
524.23	45228.93
524.58	45465.96
524.94	45874.48
525.30	46200.93
525.65	46289.38
526.01	46306.47
526.37	46471.43
526.72	46542.30
527.08	46456.54
527.44	46381.79
527.79	46265.84
528.15	46055.28
528.51	45740.34
528.86	45503.17
529.22	45197.83
529.58	44883.99
529.93	44453.28
530.29	43916.83
530.65	43470.47
531.00	43060.01
531.36	42454.44
531.71	41902.75
532.07	41484.03
532.43	40790.01
532.78	40070.32
533.14	39519.99
533.49	38869.89
533.85	38155.90
534.21	37624.56
534.56	37111.16
534.92	36494.34
535.27	35842.94
535.63	35047.56
535.98	34314.08
536.34	33569.91
536.69	32830.62
537.05	32146.42
537.41	31607.41
537.76	30963.16
538.12	30253.48
538.47	29699.71
538.83	29183.23
539.18	28616.21
539.54	28123.64
539.89	27702.98
540.25	27203.13
540.60	26688.19
540.96	26110.27
541.31	25596.15
541.67	25184.40
542.02	24743.65
542.38	24312.71
542.73	23892.89
543.09	23425.88
543.44	22929.53
543.80	22462.99
544.15	21989.01
544.51	21641.23
544.86	21231.63
545.22	20857.19
545.57	20495.11
545.93	20073.25
546.28	19664.27
546.64	19332.38
546.99	18975.94
547.35	18622.73
547.70	18320.92
548.05	17940.04
548.41	17526.70
548.76	17073.37
549.12	16659.25
549.47	16265.32
549.83	15949.02
550.18	15622.75
550.53	15282.15
550.89	14918.27
551.24	14558.76
551.60	14223.79
551.95	13943.84
552.30	13697.59
552.66	13498.06
553.01	13302.65
553.37	13045.51
553.72	12760.44
554.07	12491.86
554.43	12202.52
554.78	11900.85
555.13	11638.92
555.49	11359.88
555.84	11090.14
556.19	10813.23
556.55	10540.27
556.90	10267.65
557.26	10048.18
557.61	9847.45
557.96	9638.65
558.32	9440.71
558.67	9241.00
559.02	9018.20
559.37	8813.83
559.73	8642.12
560.08	8457.90
560.43	8256.52
560.79	8074.90
561.14	7874.12
561.49	7666.33
561.85	7480.21
562.20	7322.74
562.55	7191.34
562.90	7057.00
563.26	6919.96
563.61	6781.16
563.96	6631.56
564.32	6455.81
564.67	6305.01
565.02	6188.00
565.37	6077.51
565.73	5939.13
566.08	5821.03
566.43	5705.34
566.78	5565.63
567.14	5430.65
567.49	5334.92
567.84	5220.21
568.19	5107.28
568.54	5011.98
568.90	4919.85
569.25	4835.94
569.60	4761.59
569.95	4680.39
570.31	4600.37
570.66	4519.46
571.01	4421.08
571.36	4329.73
571.71	4245.08
572.06	4158.64
572.42	4073.30
572.77	3992.16
573.12	3915.55
573.47	3839.84
573.82	3776.85
574.18	3714.87
574.53	3651.87
574.88	3596.84
575.23	3536.15
575.58	3465.19
575.93	3406.25
576.28	3348.79
576.64	3289.06
576.99	3230.03
577.34	3183.03
577.69	3120.96
578.04	3060.27
578.39	3002.58
578.74	2950.20
579.09	2887.19
579.44	2830.74
579.80	2787.88
580.15	2747.88
580.50	2704.63
580.85	2665.31
581.20	2629.94
581.55	2592.49
581.90	2541.99
582.25	2501.59
582.60	2459.27
582.95	2419.11
583.30	2377.12
583.65	2349.38
584.00	2314.49
584.35	2287.85
584.71	2258.29
585.06	2227.37
585.41	2204.41
585.76	2176.93
586.11	2147.46
586.46	2122.00
586.81	2091.43
587.16	2055.48
587.51	2032.90
587.86	2013.09
588.21	1992.57
588.56	1978.90
588.91	1962.31
589.26	1941.24
589.61	1917.60
589.96	1893.87
590.31	1871.14
590.66	1850.47
591.01	1833.18
591.36	1815.11
591.71	1792.03
592.06	1776.35
592.41	1757.48
592.76	1732.53
593.10	1712.87
593.45	1699.21
593.80	1685.44
594.15	1671.87
594.50	1663.65
594.85	1651.13
595.20	1638.87
595.55	1624.64
595.90	1608.67
596.25	1598.19
596.60	1586.91
596.95	1578.08
597.30	1568.88
597.64	1608.28
597.99	1599.22
598.34	1589.43
598.69	1576.33
599.04	1557.39
599.39	1496.94
599.74	1482.38
600.09	1472.50
600.44	1458.41
600.78	1456.56
601.13	1449.59
601.48	1442.92
601.83	1431.85
602.18	1425.01
602.53	1416.28
602.88	1408.49
603.22	1398.03
603.57	1395.29
603.92	1388.10
604.27	1380.17
604.62	1371.74
604.97	1365.23
605.31	1357.72
605.66	1356.11
606.01	1350.04
606.36	1345.25
606.71	1341.08
607.05	1334.13
607.40	1331.27
607.75	1324.37
608.10	1319.41
608.44	1314.23
608.79	1310.84
609.14	1302.09
609.49	1295.91
609.84	1291.60
610.18	1283.50
610.53	1278.03
610.88	1272.46
611.23	1268.73
611.57	1265.04
611.92	1260.99
612.27	1255.46
612.62	1251.39
612.96	1249.42
613.31	1245.70
613.66	1244.51
614.00	1242.80
614.35	1239.83
614.70	1234.68
615.05	1230.65
615.39	1227.19
615.74	1222.16
616.09	1220.54
616.43	1221.34
616.78	1218.46
617.13	1217.50
617.47	1213.73
617.82	1207.32
618.17	1202.26
618.51	1200.84
618.86	1195.76
619.21	1193.18
619.55	1192.64
619.90	1188.17
620.25	1184.50
620.59	1182.18
620.94	1182.46
621.29	1180.82
621.63	1180.59
621.98	1176.70
622.32	1174.25
622.67	1170.20
623.02	1167.55
623.36	1168.58
623.71	1171.98
624.05	1170.13
624.40	1171.32
624.75	1169.21
625.09	1163.25
625.44	1158.10
625.78	1157.11
626.13	1154.68
626.48	1155.80
626.82	1155.17
627.17	1151.94
627.51	1151.36
627.86	1148.06
628.20	1144.38
628.55	1142.39
628.89	1140.52
629.24	1138.04
629.58	1135.53
629.93	1134.74
630.28	1136.40
630.62	1136.35
630.97	1136.92
631.31	1137.22
631.66	1135.49
632.00	1131.91
632.35	1129.73
632.69	1130.39
633.04	1132.23
633.38	1133.64
633.73	1131.16
634.07	1131.95
634.42	1127.13
634.76	1124.37
635.11	1122.47
635.45	1123.62
635.79	1122.52
636.14	1122.99
636.48	1121.14
636.83	1119.69
637.17	1122.15
637.52	1122.10
637.86	1118.64
638.21	1119.50
638.55	1120.53
638.89	1119.50
639.24	1119.27
639.58	1122.52
639.93	1122.29
640.27	1117.28
640.61	1116.27
640.96	1116.95
641.30	1114.42
641.65	1112.57
641.99	1114.47
642.33	1111.87
642.68	1112.04
643.02	1110.42
643.37	1110.58
643.71	1109.86
644.05	1109.20
644.40	1110.77
644.74	1111.59
645.08	1110.84
645.43	1111.85
645.77	1110.14
646.11	1104.41
646.46	1104.80
646.80	1103.42
647.14	1102.46
647.49	1102.81
647.83	1104.99
648.17	1106.44
648.52	1110.40
648.86	1108.17
649.20	1112.08
649.55	1107.31
649.89	1107.64
650.23	1105.15
650.57	1106.28
650.92	1103.52
651.26	1106.54
651.60	1101.15
651.95	1099.96
652.29	1099.91
652.63	1097.50
652.97	1095.96
653.32	1098.41
653.66	1099.72
654.00	1099.84
654.34	1101.18
654.69	1103.68
655.03	1104.43
655.37	1104.48
655.71	1106.30
656.05	1103.66
656.40	1102.30
656.74	1101.46
657.08	1099.02
657.42	1096.59
657.76	1099.70
658.11	1098.25
658.45	1097.80
658.79	1097.20
659.13	1096.99
659.47	1095.23
659.82	1096.59
660.16	1098.18
660.50	1100.05
660.84	1098.79
661.18	1099.91
661.52	1098.34
661.87	1096.45
662.21	1094.88
662.55	1096.80
662.89	1093.62
663.23	1092.91
663.57	1092.49
663.91	1090.57
664.25	1089.22
664.60	1091.11
664.94	1092.77
665.28	1091.65
665.62	1093.59
665.96	1092.23
666.30	1093.43
666.64	1091.51
666.98	1091.02
667.32	1091.13
667.66	1093.78
668.01	1093.66
668.35	1095.56
668.69	1095.04
669.03	1094.39
669.37	1092.89
669.71	1093.55
670.05	1093.22
670.39	1094.04
670.73	1095.02
671.07	1095.79
671.41	1092.00
671.75	1093.52
672.09	1092.26
672.43	1093.01
672.77	1090.39
673.11	1092.80
673.45	1090.78
673.79	1090.62
674.13	1090.17
674.47	1089.85
674.81	1088.63
675.15	1089.45
675.49	1092.70
675.83	1092.21
676.17	1094.25
676.51	1096.99
676.85	1098.02
677.19	1098.53
677.53	1098.62
677.87	1102.58
678.21	1097.24
678.55	1097.34
678.89	1096.42
679.23	1092.56
679.57	1089.68
679.90	1090.78
680.24	1088.77
680.58	1088.26
680.92	1091.18
681.26	1093.87
681.60	1097.66
681.94	1096.66
682.28	1096.19
682.62	1097.01
682.96	1095.07
683.29	1095.44
683.63	1097.01
683.97	1097.34
684.31	1095.30
684.65	1091.65
684.99	1090.36
685.33	1088.91
685.67	1088.35
686.00	1091.65
686.34	1094.11
686.68	1095.96
687.02	1096.17
687.36	1095.46
687.70	1092.30
688.03	1091.39
688.37	1086.03
688.71	1089.10
689.05	1088.14
689.39	1088.28
689.72	1086.99
690.06	1090.27
690.40	1087.02
690.74	1089.07
691.08	1093.69
691.41	1097.97
691.75	1097.13
692.09	1096.78
692.43	1096.31
692.76	1092.21
693.10	1090.43
693.44	1091.63
693.78	1094.04
694.11	1094.86
694.45	1094.06
694.79	1097.52
695.13	1097.13
695.46	1093.66
695.80	1092.37
696.14	1089.99
696.48	1084.70
696.81	1086.03
697.15	1085.35
697.49	1085.47
697.82	1087.88
698.16	1087.69
698.50	1088.28
698.83	1090.46
699.17	1091.34
699.51	1092.28
699.84	1092.73
700.18	1088.51
700.52	1090.48
700.85	1092.07
701.19	1092.98
701.53	1094.41
701.86	1096.63
702.20	1094.50
702.54	1092.77
702.87	1092.77
703.21	1091.37
703.55	1087.25
703.88	1091.30
704.22	1091.20
704.55	1091.58
704.89	1093.03
705.23	1092.30
705.56	1091.27
705.90	1093.43
706.23	1092.54
706.57	1090.95
706.91	1093.24
707.24	1092.07
707.58	1088.98
707.91	1090.48
708.25	1092.21
708.58	1094.39
708.92	1091.56
709.26	1092.61
709.59	1092.59
709.93	1091.20
710.26	1087.93
710.60	1089.99
710.93	1086.36
711.27	1082.03
711.60	1085.33
711.94	1087.44
712.27	1087.79
712.61	1092.14
712.94	1093.59
713.28	1091.34
713.61	1089.31
713.95	1088.58
714.28	1086.38
714.62	1085.84
714.95	1083.83
715.29	1087.09
715.62	1085.91
715.96	1086.24
716.29	1086.50
716.63	1088.61
716.96	1085.40
717.29	1086.27
717.63	1086.62
717.96	1085.77
718.30	1082.19
718.63	1084.25
718.97	1081.70
719.30	1083.64
719.63	1087.76
719.97	1090.34
720.30	1088.54
720.64	1089.82
720.97	1086.57
721.30	1084.98
721.64	1085.75
721.97	1088.07
722.31	1092.40
722.64	1093.97
722.97	1094.27
723.31	1096.26
723.64	1097.10
723.97	1093.90
724.31	1093.80
724.64	1089.45
724.98	1087.04
725.31	1084.79
725.64	1085.00
725.98	1083.50
726.31	1087.46
726.64	1089.87
726.97	1090.71
727.31	1084.09
727.64	1088.47
727.97	1085.03
728.31	1081.23
728.64	1081.37
728.97	1090.27
729.31	1086.87
729.64	1092.19
729.97	1093.83
730.30	1092.54
730.64	1093.62
730.97	1096.38
731.30	1094.50
731.63	1093.66
731.97	1096.85
732.30	1094.81
732.63	1092.66
732.96	1090.90
733.30	1090.15
733.63	1088.02
733.96	1086.66
734.29	1086.45
734.63	1090.99
734.96	1092.89
735.29	1094.74
735.62	1094.60
735.95	1095.37
736.29	1091.98
736.62	1089.50
736.95	1087.13
737.28	1087.20
737.61	1088.07
737.94	1086.36
738.28	1089.94
738.61	1091.79
738.94	1089.92
739.27	1090.24
739.60	1090.60
739.93	1091.32
740.27	1087.69
740.60	1088.77
740.93	1085.26
741.26	1087.06
741.59	1082.15
741.92	1084.67
742.25	1087.04
742.58	1087.76
742.91	1088.33
743.25	1089.80
743.58	1089.57
743.91	1087.48
744.24	1090.22
744.57	1090.53
744.90	1091.79
745.23	1089.50
745.56	1090.62
745.89	1087.37
746.22	1083.34
746.55	1082.71
746.88	1087.11
747.21	1085.52
747.54	1087.76
747.87	1092.87
748.20	1090.99
748.53	1089.10
748.87	1088.84
749.20	1090.22
749.53	1088.40
749.86	1089.87
750.19	1090.71
750.52	1091.23
750.85	1089.82
751.18	1088.07
751.51	1089.29
751.84	1089.61
752.16	1093.33
752.49	1092.82
752.82	1093.26
753.15	1093.22
753.48	1088.14
753.81	1083.11
754.14	1082.01
754.47	1081.68
754.80	1084.65
755.13	1087.83
755.46	1088.96
755.79	1093.12
756.12	1095.39
756.45	1092.70
756.78	1091.56
757.11	1094.81
757.43	1093.94
757.76	1091.65
758.09	1085.56
758.42	1087.02
758.75	1084.89
759.08	1079.13
759.41	1081.30
759.74	1088.00
760.07	1088.98
760.39	1089.99
760.72	1091.81
761.05	1092.00
761.38	1091.65
761.71	1090.69
762.04	1085.66
762.36	1084.07
762.69	1082.50
763.02	1082.15
763.35	1083.39
