SpectraSuite Data File
++++++++++++++++++++++++++++++++++++
Date: Mon Aug 26 10:26:26 PDT 2019
User: corrico
Dark Spectrum Present: No
Reference Spectrum Present: No
Number of Sampled Component Spectra: 1
Spectrometers: USB2+H06089
Integration Time (usec): 10000 (USB2+H06089)
Spectra Averaged: 20 (USB2+H06089)
Boxcar Smoothing: 2 (USB2+H06089)
Correct for Electrical Dark: No (USB2+H06089)
Strobe/Lamp Enabled: No (USB2+H06089)
Correct for Detector Non-linearity: No (USB2+H06089)
Correct for Stray Light: No (USB2+H06089)
Number of Pixels in Processed Spectrum: 2048
>>>>>Begin Processed Spectral Data<<<<<
339.70	1030.42
340.07	1030.42
340.45	1002.36
340.82	979.89
341.19	955.41
341.57	929.66
341.94	915.13
342.31	902.63
342.69	899.19
343.06	898.74
343.43	901.55
343.81	905.60
344.18	912.81
344.55	919.83
344.93	924.89
345.30	927.27
345.67	932.77
346.04	938.53
346.42	941.97
346.79	948.60
347.16	959.53
347.54	964.93
347.91	973.92
348.28	985.69
348.65	996.72
349.03	1004.04
349.40	1015.63
349.77	1026.35
350.14	1030.58
350.52	1036.62
350.89	1044.51
351.26	1050.64
351.63	1054.62
352.01	1060.45
352.38	1065.20
352.75	1068.15
353.12	1071.61
353.50	1075.45
353.87	1079.85
354.24	1084.49
354.61	1085.49
354.98	1088.72
355.36	1088.77
355.73	1088.61
356.10	1082.76
356.47	1085.07
356.84	1079.69
357.22	1076.67
357.59	1078.19
357.96	1081.12
358.33	1082.12
358.70	1084.02
359.08	1084.93
359.45	1081.35
359.82	1083.27
360.19	1079.10
360.56	1080.37
360.94	1080.48
361.31	1081.87
361.68	1076.51
362.05	1073.37
362.42	1071.66
362.79	1071.87
363.16	1070.23
363.54	1071.59
363.91	1076.18
364.28	1077.49
364.65	1075.94
365.02	1074.91
365.39	1075.48
365.76	1074.91
366.14	1072.69
366.51	1071.26
366.88	1074.40
367.25	1076.81
367.62	1077.89
367.99	1079.99
368.36	1082.40
368.73	1079.83
369.10	1077.96
369.48	1076.01
369.85	1073.86
370.22	1074.31
370.59	1073.51
370.96	1074.33
371.33	1072.74
371.70	1069.58
372.07	1068.95
372.44	1069.34
372.81	1067.52
373.18	1070.51
373.55	1076.13
373.93	1077.56
374.30	1081.94
374.67	1082.31
375.04	1083.34
375.41	1083.01
375.78	1081.21
376.15	1079.03
376.52	1080.02
376.89	1080.63
377.26	1079.29
377.63	1079.06
378.00	1081.16
378.37	1084.39
378.74	1083.48
379.11	1084.04
379.48	1085.91
379.85	1083.93
380.22	1080.91
380.59	1080.09
380.96	1080.11
381.33	1078.03
381.70	1075.64
382.07	1073.23
382.44	1071.82
382.81	1071.59
383.18	1071.99
383.55	1074.00
383.92	1075.97
384.29	1074.54
384.66	1072.95
385.03	1076.01
385.40	1074.89
385.77	1076.69
386.14	1080.91
386.51	1082.05
386.88	1081.07
387.25	1083.22
387.62	1081.35
387.99	1080.37
388.36	1081.09
388.73	1078.96
389.10	1076.13
389.46	1078.07
389.83	1077.25
390.20	1077.23
390.57	1077.49
390.94	1081.40
391.31	1081.05
391.68	1083.71
392.05	1082.50
392.42	1083.39
392.79	1081.14
393.16	1079.99
393.53	1076.34
393.89	1077.63
394.26	1078.78
394.63	1078.80
395.00	1079.20
395.37	1081.58
395.74	1084.60
396.11	1085.61
396.48	1087.32
396.84	1085.52
397.21	1082.17
397.58	1081.07
397.95	1081.73
398.32	1081.51
398.69	1082.38
399.06	1083.25
399.42	1084.81
399.79	1083.08
400.16	1081.96
400.53	1082.57
400.90	1086.03
401.27	1083.76
401.64	1083.83
402.00	1084.44
402.37	1084.35
402.74	1085.00
403.11	1083.88
403.48	1083.34
403.84	1083.90
404.21	1084.07
404.58	1082.69
404.95	1082.22
405.32	1081.02
405.68	1083.06
406.05	1083.62
406.42	1084.63
406.79	1088.61
407.16	1091.34
407.52	1089.07
407.89	1091.88
408.26	1090.97
408.63	1090.92
408.99	1089.75
409.36	1093.31
409.73	1091.65
410.10	1091.72
410.47	1091.13
410.83	1090.88
411.20	1089.80
411.57	1089.50
411.94	1090.34
412.30	1092.42
412.67	1093.40
413.04	1095.32
413.40	1096.54
413.77	1097.24
414.14	1097.01
414.51	1095.49
414.87	1093.87
415.24	1092.35
415.61	1092.16
415.97	1089.75
416.34	1095.79
416.71	1094.53
417.08	1099.35
417.44	1101.81
417.81	1104.59
418.18	1102.23
418.54	1100.52
418.91	1101.81
419.28	1099.75
419.64	1097.88
420.01	1095.23
420.38	1097.15
420.74	1092.33
421.11	1093.50
421.48	1093.80
421.84	1098.86
422.21	1099.44
422.58	1100.40
422.94	1099.12
423.31	1100.19
423.68	1099.26
424.04	1098.76
424.41	1097.41
424.77	1100.03
425.14	1100.00
425.51	1097.45
425.87	1100.87
426.24	1102.42
426.61	1101.62
426.97	1102.63
427.34	1102.88
427.70	1099.30
428.07	1101.85
428.44	1099.84
428.80	1099.82
429.17	1100.45
429.53	1102.67
429.90	1103.14
430.27	1101.27
430.63	1100.10
431.00	1099.23
431.36	1101.25
431.73	1099.37
432.09	1100.99
432.46	1099.26
432.83	1103.02
433.19	1098.41
433.56	1099.56
433.92	1099.56
434.29	1099.70
434.65	1097.36
435.02	1099.86
435.38	1099.35
435.75	1101.25
436.11	1101.48
436.48	1101.85
436.84	1101.90
437.21	1100.43
437.57	1101.11
437.94	1103.98
438.30	1100.87
438.67	1099.79
439.03	1099.00
439.40	1097.29
439.76	1092.80
440.13	1093.10
440.49	1094.67
440.86	1095.21
441.22	1096.12
441.59	1099.12
441.95	1100.57
442.32	1100.19
442.68	1097.36
443.05	1095.91
443.41	1096.03
443.78	1092.56
444.14	1091.04
444.51	1093.50
444.87	1093.64
445.24	1094.15
445.60	1099.98
445.96	1101.57
446.33	1101.22
446.69	1102.79
447.06	1101.55
447.42	1099.42
447.79	1098.67
448.15	1098.13
448.51	1094.88
448.88	1091.51
449.24	1091.74
449.61	1090.13
449.97	1092.56
450.33	1092.59
450.70	1096.92
451.06	1096.89
451.43	1099.79
451.79	1096.99
452.15	1101.57
452.52	1100.80
452.88	1102.06
453.24	1099.65
453.61	1101.69
453.97	1100.05
454.34	1100.24
454.70	1099.40
455.06	1102.44
455.43	1102.16
455.79	1103.49
456.15	1107.14
456.52	1106.25
456.88	1107.52
457.24	1105.46
457.61	1102.42
457.97	1099.96
458.33	1099.58
458.70	1097.64
459.06	1100.08
459.42	1103.14
459.79	1101.97
460.15	1104.90
460.51	1102.21
460.88	1101.67
461.24	1103.26
461.60	1104.08
461.96	1103.33
462.33	1106.89
462.69	1109.09
463.05	1108.24
463.42	1109.58
463.78	1109.53
464.14	1111.10
464.50	1110.42
464.87	1110.47
465.23	1109.98
465.59	1110.87
465.95	1106.93
466.32	1109.11
466.68	1110.47
467.04	1109.32
467.40	1111.12
467.77	1111.97
468.13	1110.98
468.49	1108.34
468.85	1109.02
469.22	1110.35
469.58	1114.82
469.94	1118.92
470.30	1120.20
470.66	1121.73
471.03	1123.62
471.39	1124.14
471.75	1120.04
472.11	1124.88
472.47	1128.75
472.84	1130.15
473.20	1131.11
473.56	1135.39
473.92	1138.67
474.28	1138.97
474.65	1138.16
475.01	1141.36
475.37	1144.66
475.73	1141.53
476.09	1147.00
476.45	1152.27
476.81	1158.59
477.18	1161.87
477.54	1171.77
477.90	1177.24
478.26	1183.40
478.62	1187.14
478.98	1194.35
479.34	1196.11
479.71	1200.32
480.07	1203.39
480.43	1205.63
480.79	1210.67
481.15	1217.78
481.51	1226.46
481.87	1235.19
482.23	1245.63
482.59	1257.20
482.96	1268.01
483.32	1278.19
483.68	1289.85
484.04	1302.53
484.40	1312.31
484.76	1327.51
485.12	1336.14
485.48	1353.04
485.84	1368.07
486.20	1381.55
486.56	1394.05
486.92	1412.56
487.28	1430.02
487.64	1447.97
488.00	1470.11
488.37	1490.38
488.73	1514.26
489.09	1535.25
489.45	1561.49
489.81	1587.54
490.17	1616.19
490.53	1644.44
490.89	1673.86
491.25	1707.16
491.61	1740.14
491.97	1775.58
492.33	1812.37
492.69	1849.54
493.05	1882.98
493.41	1925.63
493.77	1970.26
494.13	2017.05
494.49	2068.33
494.85	2119.36
495.21	2170.80
495.57	2219.60
495.93	2280.06
496.29	2338.17
496.64	2405.67
497.00	2464.19
497.36	2539.25
497.72	2608.41
498.08	2689.09
498.44	2772.72
498.80	2868.23
499.16	2961.48
499.52	3054.91
499.88	3160.64
500.24	3269.35
500.60	3381.82
500.96	3502.26
501.32	3630.85
501.68	3744.72
502.03	3868.13
502.39	4007.30
502.75	4146.45
503.11	4309.35
503.47	4479.13
503.83	4653.13
504.19	4824.34
504.55	5013.47
504.91	5198.28
505.26	5384.78
505.62	5598.75
505.98	5835.19
506.34	6082.07
506.70	6343.62
507.06	6625.31
507.42	6899.74
507.78	7152.33
508.13	7407.84
508.49	7686.83
508.85	8006.60
509.21	8344.38
509.57	8729.03
509.93	9137.80
510.28	9551.63
510.64	9947.67
511.00	10353.90
511.36	10767.45
511.72	11187.18
512.07	11627.62
512.43	12068.39
512.79	12530.78
513.15	13022.32
513.51	13539.32
513.86	14064.33
514.22	14641.15
514.58	15206.88
514.94	15792.32
515.30	16402.03
515.65	16967.01
516.01	17566.70
516.37	18148.14
516.73	18689.76
517.08	19235.88
517.44	19813.22
517.80	20393.56
518.16	21065.36
518.51	21718.72
518.87	22311.44
519.23	22956.91
519.59	23591.29
519.94	24181.97
520.30	24794.91
520.66	25342.95
521.01	25924.41
521.37	26436.14
521.73	26897.34
522.09	27349.82
522.44	27894.97
522.80	28247.50
523.16	28510.53
523.51	28693.31
523.87	28891.67
524.23	29074.04
524.58	29315.40
524.94	29660.09
525.30	29916.82
525.65	30056.71
526.01	30113.59
526.37	30088.92
526.72	30019.41
527.08	29901.07
527.44	29793.26
527.79	29711.42
528.15	29639.91
528.51	29484.59
528.86	29413.86
529.22	29288.76
529.58	29118.77
529.93	28868.31
530.29	28560.93
530.65	28199.94
531.00	27836.39
531.36	27396.32
531.71	27038.41
532.07	26688.75
532.43	26315.06
532.78	25851.97
533.14	25401.67
533.49	24898.22
533.85	24384.05
534.21	23934.37
534.56	23559.15
534.92	23175.94
535.27	22725.62
535.63	22249.86
535.98	21783.95
536.34	21338.13
536.69	20886.22
537.05	20489.70
537.41	20194.33
537.76	19826.75
538.12	19400.89
538.47	19011.63
538.83	18627.18
539.18	18206.18
539.54	17896.13
539.89	17564.67
540.25	17189.13
540.60	16879.43
540.96	16562.82
541.31	16190.94
541.67	15897.27
542.02	15666.21
542.38	15395.01
542.73	15082.83
543.09	14790.45
543.44	14519.44
543.80	14216.48
544.15	13870.74
544.51	13630.86
544.86	13417.47
545.22	13173.47
545.57	12951.66
545.93	12739.82
546.28	12513.35
546.64	12272.25
546.99	12047.51
547.35	11818.58
547.70	11633.63
548.05	11417.23
548.41	11185.70
548.76	10975.24
549.12	10764.15
549.47	10544.51
549.83	10352.49
550.18	10169.63
550.53	9956.97
550.89	9751.89
551.24	9546.09
551.60	9342.34
551.95	9144.08
552.30	8959.29
552.66	8780.68
553.01	8600.49
553.37	8406.69
553.72	8222.26
554.07	8052.50
554.43	7868.20
554.78	7688.17
555.13	7508.11
555.49	7342.61
555.84	7184.32
556.19	7038.20
556.55	6901.16
556.90	6760.61
557.26	6609.44
557.61	6461.84
557.96	6316.97
558.32	6178.08
558.67	6040.60
559.02	5893.52
559.37	5763.05
559.73	5638.42
560.08	5517.20
560.43	5403.08
560.79	5321.70
561.14	5217.03
561.49	5123.25
561.85	5025.86
562.20	4939.68
562.55	4856.78
562.90	4775.82
563.26	4679.08
563.61	4586.91
563.96	4495.84
564.32	4387.15
564.67	4290.76
565.02	4200.23
565.37	4124.98
565.73	4050.27
566.08	3983.17
566.43	3908.39
566.78	3838.97
567.14	3764.05
567.49	3684.80
567.84	3614.72
568.19	3540.90
568.54	3479.04
568.90	3418.91
569.25	3360.24
569.60	3314.64
569.95	3274.22
570.31	3219.95
570.66	3175.50
571.01	3129.41
571.36	3069.05
571.71	3008.03
572.06	2956.66
572.42	2911.77
572.77	2865.75
573.12	2824.75
573.47	2783.83
573.82	2748.21
574.18	2701.63
574.53	2659.29
574.88	2615.48
575.23	2581.49
575.58	2545.50
575.93	2511.72
576.28	2480.03
576.64	2441.65
576.99	2405.46
577.34	2366.16
577.69	2324.43
578.04	2285.84
578.39	2262.36
578.74	2228.03
579.09	2198.04
579.44	2167.83
579.80	2137.61
580.15	2101.85
580.50	2072.78
580.85	2045.09
581.20	2030.39
581.55	2012.04
581.90	1991.82
582.25	1972.09
582.60	1948.54
582.95	1916.48
583.30	1890.52
583.65	1863.49
584.00	1839.87
584.35	1822.22
584.71	1802.14
585.06	1782.20
585.41	1762.77
585.76	1746.72
586.11	1726.17
586.46	1706.95
586.81	1694.55
587.16	1681.79
587.51	1663.07
587.86	1649.24
588.21	1641.39
588.56	1623.75
588.91	1606.87
589.26	1592.95
589.61	1578.90
589.96	1562.66
590.31	1549.58
590.66	1545.27
591.01	1537.45
591.36	1529.42
591.71	1518.00
592.06	1508.08
592.41	1493.47
592.76	1482.43
593.10	1467.21
593.45	1456.35
593.80	1447.20
594.15	1439.03
594.50	1429.60
594.85	1419.72
595.20	1413.19
595.55	1408.84
595.90	1402.00
596.25	1395.03
596.60	1391.73
596.95	1383.35
597.30	1372.63
597.64	1415.86
597.99	1414.01
598.34	1408.09
598.69	1401.02
599.04	1391.87
599.39	1330.59
599.74	1321.47
600.09	1318.89
600.44	1314.89
600.78	1311.54
601.13	1310.37
601.48	1305.90
601.83	1298.90
602.18	1292.56
602.53	1289.45
602.88	1285.00
603.22	1278.96
603.57	1273.49
603.92	1268.62
604.27	1264.47
604.62	1259.72
604.97	1252.82
605.31	1251.51
605.66	1252.58
606.01	1246.27
606.36	1239.50
606.71	1236.41
607.05	1227.70
607.40	1221.50
607.75	1223.23
608.10	1225.34
608.44	1222.95
608.79	1219.54
609.14	1217.80
609.49	1215.16
609.84	1208.91
610.18	1210.78
610.53	1212.63
610.88	1209.87
611.23	1207.88
611.57	1205.75
611.92	1201.98
612.27	1200.62
612.62	1200.02
612.96	1193.28
613.31	1187.47
613.66	1179.96
614.00	1171.81
614.35	1166.29
614.70	1164.44
615.05	1166.92
615.39	1167.93
615.74	1169.99
616.09	1166.69
616.43	1162.50
616.78	1158.99
617.13	1156.01
617.47	1154.24
617.82	1151.59
618.17	1151.73
618.51	1148.99
618.86	1149.60
619.21	1144.57
619.55	1144.45
619.90	1143.59
620.25	1143.16
620.59	1141.10
620.94	1145.06
621.29	1146.23
621.63	1146.07
621.98	1145.06
622.32	1141.43
622.67	1134.50
623.02	1133.10
623.36	1132.16
623.71	1130.34
624.05	1131.09
624.40	1129.52
624.75	1125.89
625.09	1123.69
625.44	1125.19
625.78	1123.20
626.13	1125.35
626.48	1125.75
626.82	1123.53
627.17	1121.14
627.51	1120.30
627.86	1115.94
628.20	1112.57
628.55	1110.47
628.89	1107.99
629.24	1107.56
629.58	1108.45
629.93	1111.75
630.28	1110.63
630.62	1112.92
630.97	1111.61
631.31	1112.11
631.66	1109.06
632.00	1110.77
632.35	1108.69
632.69	1106.28
633.04	1105.90
633.38	1107.78
633.73	1107.80
634.07	1109.51
634.42	1110.37
634.76	1109.67
635.11	1106.93
635.45	1108.88
635.79	1107.00
636.14	1107.14
636.48	1107.52
636.83	1106.18
637.17	1101.48
637.52	1100.38
637.86	1099.96
638.21	1096.63
638.55	1098.74
638.89	1100.29
639.24	1099.23
639.58	1098.25
639.93	1098.79
640.27	1096.24
640.61	1097.29
640.96	1101.67
641.30	1101.18
641.65	1100.96
641.99	1101.88
642.33	1101.48
642.68	1095.96
643.02	1098.55
643.37	1097.85
643.71	1096.63
644.05	1099.33
644.40	1099.58
644.74	1097.38
645.08	1100.38
645.43	1104.17
645.77	1100.57
646.11	1100.80
646.46	1100.43
646.80	1098.18
647.14	1093.73
647.49	1092.75
647.83	1093.08
648.17	1093.80
648.52	1093.26
648.86	1095.56
649.20	1096.00
649.55	1095.70
649.89	1096.54
650.23	1098.83
650.57	1093.90
650.92	1094.06
651.26	1093.36
651.60	1093.83
651.95	1090.01
652.29	1091.70
652.63	1088.98
652.97	1089.61
653.32	1087.90
653.66	1092.45
654.00	1092.28
654.34	1092.98
654.69	1094.18
655.03	1092.09
655.37	1088.58
655.71	1088.54
656.05	1091.42
656.40	1089.68
656.74	1092.75
657.08	1093.36
657.42	1092.40
657.76	1091.11
658.11	1091.09
658.45	1091.27
658.79	1090.29
659.13	1090.36
659.47	1089.96
659.82	1089.61
660.16	1088.44
660.50	1086.73
660.84	1086.78
661.18	1084.16
661.52	1084.96
661.87	1087.04
662.21	1086.62
662.55	1088.35
662.89	1086.24
663.23	1084.21
663.57	1081.37
663.91	1086.57
664.25	1087.27
664.60	1088.58
664.94	1088.79
665.28	1089.05
665.62	1087.37
665.96	1086.20
666.30	1087.18
666.64	1085.73
666.98	1085.63
667.32	1086.80
667.66	1086.15
668.01	1086.85
668.35	1088.86
668.69	1089.50
669.03	1087.39
669.37	1087.88
669.71	1085.45
670.05	1084.07
670.39	1083.83
670.73	1083.04
671.07	1084.58
671.41	1087.97
671.75	1089.59
672.09	1089.03
672.43	1092.28
672.77	1090.57
673.11	1090.46
673.45	1089.80
673.79	1087.90
674.13	1083.43
674.47	1085.75
674.81	1087.55
675.15	1088.19
675.49	1088.33
675.83	1092.68
676.17	1090.90
676.51	1088.42
676.85	1088.40
677.19	1086.92
677.53	1084.98
677.87	1086.10
678.21	1085.33
678.55	1083.76
678.89	1084.00
679.23	1082.43
679.57	1080.58
679.90	1082.33
680.24	1085.40
680.58	1089.29
680.92	1091.18
681.26	1088.56
681.60	1088.19
681.94	1087.62
682.28	1087.74
682.62	1087.72
682.96	1091.63
683.29	1090.01
683.63	1087.62
683.97	1085.28
684.31	1086.90
684.65	1085.33
684.99	1085.07
685.33	1086.01
685.67	1088.75
686.00	1085.84
686.34	1087.48
686.68	1089.57
687.02	1089.85
687.36	1089.12
687.70	1090.32
688.03	1090.53
688.37	1089.80
688.71	1087.11
689.05	1085.96
689.39	1087.20
689.72	1087.60
690.06	1086.31
690.40	1089.75
690.74	1089.78
691.08	1085.28
691.41	1085.19
691.75	1086.76
692.09	1085.87
692.43	1084.23
692.76	1087.53
693.10	1085.24
693.44	1084.58
693.78	1087.25
694.11	1088.61
694.45	1086.59
694.79	1090.74
695.13	1092.26
695.46	1090.69
695.80	1087.18
696.14	1087.48
696.48	1087.95
696.81	1085.66
697.15	1085.59
697.49	1089.17
697.82	1087.81
698.16	1084.07
698.50	1085.94
698.83	1085.54
699.17	1087.30
699.51	1088.86
699.84	1089.82
700.18	1090.69
700.52	1090.88
700.85	1090.03
701.19	1088.19
701.53	1085.31
701.86	1084.70
702.20	1082.59
702.54	1079.46
702.87	1080.91
703.21	1081.07
703.55	1082.59
703.88	1085.40
704.22	1091.37
704.55	1091.49
704.89	1094.04
705.23	1091.67
705.56	1090.27
705.90	1086.69
706.23	1087.55
706.57	1087.48
706.91	1086.20
707.24	1084.86
707.58	1082.90
707.91	1083.43
708.25	1082.36
708.58	1085.38
708.92	1084.77
709.26	1086.55
709.59	1086.13
709.93	1085.26
710.26	1083.13
710.60	1083.62
710.93	1083.74
711.27	1083.01
711.60	1084.60
711.94	1084.98
712.27	1083.50
712.61	1083.81
712.94	1085.75
713.28	1086.20
713.61	1084.21
713.95	1086.57
714.28	1088.19
714.62	1087.74
714.95	1085.63
715.29	1085.96
715.62	1084.00
715.96	1081.23
716.29	1082.10
716.63	1081.16
716.96	1081.19
717.29	1084.16
717.63	1085.75
717.96	1083.95
718.30	1085.77
718.63	1088.42
718.97	1086.24
719.30	1084.35
719.63	1083.67
719.97	1083.83
720.30	1082.29
720.64	1081.73
720.97	1084.18
721.30	1084.04
721.64	1083.79
721.97	1082.40
722.31	1082.83
722.64	1080.63
722.97	1084.65
723.31	1085.89
723.64	1087.55
723.97	1089.75
724.31	1092.73
724.64	1087.04
724.98	1087.83
725.31	1089.45
725.64	1089.54
725.98	1086.48
726.31	1088.12
726.64	1086.13
726.97	1085.52
727.31	1084.67
727.64	1083.95
727.97	1085.10
728.31	1084.14
728.64	1082.94
728.97	1082.40
729.31	1084.09
729.64	1083.39
729.97	1083.57
730.30	1080.88
730.64	1080.30
730.97	1076.32
731.30	1077.21
731.63	1077.11
731.97	1078.26
732.30	1080.04
732.63	1083.79
732.96	1083.32
733.30	1083.83
733.63	1085.68
733.96	1085.17
734.29	1083.97
734.63	1084.44
734.96	1086.15
735.29	1084.93
735.62	1083.43
735.95	1083.74
736.29	1079.46
736.62	1080.16
736.95	1083.34
737.28	1084.46
737.61	1084.18
737.94	1086.34
738.28	1086.62
738.61	1086.06
738.94	1086.34
739.27	1087.27
739.60	1086.31
739.93	1084.02
740.27	1082.66
740.60	1082.97
740.93	1085.75
741.26	1087.39
741.59	1089.14
741.92	1090.62
742.25	1091.27
742.58	1087.37
742.91	1087.55
743.25	1088.23
743.58	1086.50
743.91	1085.35
744.24	1090.88
744.57	1090.48
744.90	1086.73
745.23	1087.11
745.56	1086.45
745.89	1081.96
746.22	1084.63
746.55	1086.55
746.88	1086.92
747.21	1087.34
747.54	1085.56
747.87	1083.34
748.20	1083.76
748.53	1081.40
748.87	1082.17
749.20	1081.82
749.53	1081.00
749.86	1080.06
750.19	1079.31
750.52	1078.99
750.85	1080.58
751.18	1080.25
751.51	1081.23
751.84	1082.15
752.16	1081.49
752.49	1083.64
752.82	1085.17
753.15	1083.86
753.48	1082.40
753.81	1083.04
754.14	1078.54
754.47	1077.11
754.80	1078.24
755.13	1082.08
755.46	1081.19
755.79	1085.70
756.12	1085.87
756.45	1083.79
756.78	1082.03
757.11	1081.89
757.43	1080.46
757.76	1080.41
758.09	1084.04
758.42	1085.63
758.75	1084.58
759.08	1082.01
759.41	1083.81
759.74	1082.59
760.07	1079.92
760.39	1080.41
760.72	1081.56
761.05	1080.84
761.38	1079.01
761.71	1079.15
762.04	1080.77
762.36	1083.13
762.69	1083.15
763.02	1082.76
763.35	1086.62
763.68	1086.43
764.01	1088.07
