SpectraSuite Data File
++++++++++++++++++++++++++++++++++++
Date: Mon Aug 26 10:26:31 PDT 2019
User: corrico
Dark Spectrum Present: No
Reference Spectrum Present: No
Number of Sampled Component Spectra: 1
Spectrometers: USB2+H06089
Integration Time (usec): 10000 (USB2+H06089)
Spectra Averaged: 20 (USB2+H06089)
Boxcar Smoothing: 2 (USB2+H06089)
Correct for Electrical Dark: No (USB2+H06089)
Strobe/Lamp Enabled: No (USB2+H06089)
Correct for Detector Non-linearity: No (USB2+H06089)
Correct for Stray Light: No (USB2+H06089)
Number of Pixels in Processed Spectrum: 2048
>>>>>Begin Processed Spectral Data<<<<<
339.70	1034.87
340.07	1034.87
340.45	999.81
340.82	979.94
341.19	954.14
341.57	930.36
341.94	921.35
342.31	913.21
342.69	904.38
343.06	900.45
343.43	899.66
343.81	900.76
344.18	901.74
344.55	907.45
344.93	913.21
345.30	917.30
345.67	925.82
346.04	929.45
346.42	938.11
346.79	949.06
347.16	957.00
347.54	965.35
347.91	981.69
348.28	989.70
348.65	1000.84
349.03	1012.52
349.40	1019.00
349.77	1024.36
350.14	1032.22
350.52	1036.79
350.89	1045.31
351.26	1053.31
351.63	1058.79
352.01	1063.73
352.38	1070.09
352.75	1071.03
353.12	1077.07
353.50	1080.91
353.87	1084.14
354.24	1081.91
354.61	1083.13
354.98	1082.85
355.36	1086.43
355.73	1087.79
356.10	1093.47
356.47	1094.90
356.84	1088.35
357.22	1087.39
357.59	1086.15
357.96	1084.23
358.33	1083.01
358.70	1088.09
359.08	1083.60
359.45	1083.79
359.82	1082.94
360.19	1083.64
360.56	1082.59
360.94	1082.61
361.31	1081.80
361.68	1080.06
362.05	1080.04
362.42	1080.65
362.79	1082.01
363.16	1081.47
363.54	1084.32
363.91	1081.37
364.28	1080.25
364.65	1080.72
365.02	1082.01
365.39	1080.67
365.76	1081.77
366.14	1082.99
366.51	1081.80
366.88	1078.14
367.25	1073.70
367.62	1074.38
367.99	1070.61
368.36	1070.51
368.73	1075.38
369.10	1079.34
369.48	1078.17
369.85	1080.51
370.22	1079.31
370.59	1076.88
370.96	1078.03
371.33	1083.04
371.70	1085.87
372.07	1090.17
372.44	1090.69
372.81	1086.69
373.18	1078.68
373.55	1075.62
373.93	1074.98
374.30	1074.63
374.67	1077.09
375.04	1080.53
375.41	1083.43
375.78	1080.02
376.15	1079.57
376.52	1079.57
376.89	1077.84
377.26	1075.94
377.63	1073.77
378.00	1076.72
378.37	1074.40
378.74	1076.97
379.11	1078.26
379.48	1082.31
379.85	1081.66
380.22	1089.45
380.59	1087.62
380.96	1086.78
381.33	1086.48
381.70	1088.09
382.07	1085.00
382.44	1086.52
382.81	1084.32
383.18	1085.35
383.55	1084.53
383.92	1084.98
384.29	1085.70
384.66	1087.81
385.03	1088.51
385.40	1087.65
385.77	1086.64
386.14	1087.51
386.51	1089.05
386.88	1090.76
387.25	1091.02
387.62	1092.26
387.99	1092.68
388.36	1092.84
388.73	1092.49
389.10	1094.27
389.46	1093.59
389.83	1094.18
390.20	1092.09
390.57	1090.88
390.94	1086.34
391.31	1084.44
391.68	1083.36
392.05	1086.59
392.42	1085.33
392.79	1086.10
393.16	1086.43
393.53	1085.24
393.89	1085.03
394.26	1083.55
394.63	1084.53
395.00	1085.94
395.37	1085.80
395.74	1081.98
396.11	1085.63
396.48	1085.75
396.84	1087.16
397.21	1086.59
397.58	1091.46
397.95	1089.45
398.32	1088.04
398.69	1087.34
399.06	1086.27
399.42	1084.96
399.79	1085.42
400.16	1086.76
400.53	1087.11
400.90	1091.25
401.27	1091.09
401.64	1093.43
402.00	1093.43
402.37	1093.10
402.74	1092.02
403.11	1090.50
403.48	1089.92
403.84	1090.10
404.21	1093.59
404.58	1094.72
404.95	1095.30
405.32	1096.38
405.68	1098.23
406.05	1096.78
406.42	1099.16
406.79	1101.48
407.16	1100.17
407.52	1097.41
407.89	1095.44
408.26	1091.65
408.63	1090.15
408.99	1089.22
409.36	1092.56
409.73	1093.59
410.10	1093.99
410.47	1093.94
410.83	1094.50
411.20	1093.85
411.57	1095.86
411.94	1096.87
412.30	1095.70
412.67	1097.22
413.04	1100.24
413.40	1101.76
413.77	1103.02
414.14	1106.23
414.51	1105.83
414.87	1105.25
415.24	1103.70
415.61	1106.35
415.97	1106.98
416.34	1106.04
416.71	1105.95
417.08	1105.25
417.44	1102.91
417.81	1101.36
418.18	1104.48
418.54	1103.87
418.91	1105.11
419.28	1106.16
419.64	1104.97
420.01	1102.98
420.38	1107.92
420.74	1107.45
421.11	1106.14
421.48	1108.31
421.84	1111.05
422.21	1108.41
422.58	1112.13
422.94	1113.63
423.31	1112.25
423.68	1110.51
424.04	1111.19
424.41	1108.64
424.77	1109.51
425.14	1115.27
425.51	1116.72
425.87	1116.88
426.24	1112.76
426.61	1112.60
426.97	1110.58
427.34	1110.37
427.70	1110.47
428.07	1113.60
428.44	1113.98
428.80	1113.74
429.17	1114.19
429.53	1112.85
429.90	1112.71
430.27	1112.90
430.63	1114.14
431.00	1116.83
431.36	1119.48
431.73	1118.92
432.09	1119.24
432.46	1117.70
432.83	1114.17
433.19	1110.70
433.56	1113.81
433.92	1113.51
434.29	1113.49
434.65	1114.52
435.02	1119.06
435.38	1119.50
435.75	1119.53
436.11	1119.53
436.48	1123.06
436.84	1119.27
437.21	1119.29
437.57	1116.37
437.94	1115.99
438.30	1110.82
438.67	1110.12
439.03	1111.19
439.40	1113.09
439.76	1114.02
440.13	1113.88
440.49	1115.92
440.86	1111.85
441.22	1110.47
441.59	1107.28
441.95	1108.64
442.32	1103.96
442.68	1104.90
443.05	1107.42
443.41	1109.58
443.78	1109.02
444.14	1113.93
444.51	1115.08
444.87	1114.56
445.24	1113.49
445.60	1111.73
445.96	1106.72
446.33	1106.04
446.69	1103.84
447.06	1103.61
447.42	1106.09
447.79	1110.42
448.15	1109.46
448.51	1114.02
448.88	1113.72
449.24	1113.44
449.61	1113.79
449.97	1113.39
450.33	1112.60
450.70	1114.26
451.06	1116.48
451.43	1113.44
451.79	1112.39
452.15	1110.23
452.52	1107.68
452.88	1105.15
453.24	1106.77
453.61	1108.03
453.97	1109.84
454.34	1109.95
454.70	1110.28
455.06	1112.76
455.43	1111.36
455.79	1109.16
456.15	1111.57
456.52	1109.34
456.88	1107.89
457.24	1112.22
457.61	1115.43
457.97	1115.78
458.33	1118.35
458.70	1116.34
459.06	1114.28
459.42	1111.85
459.79	1110.61
460.15	1109.53
460.51	1110.51
460.88	1112.27
461.24	1113.74
461.60	1112.92
461.96	1114.35
462.33	1112.69
462.69	1113.72
463.05	1113.21
463.42	1116.27
463.78	1114.61
464.14	1119.01
464.50	1118.68
464.87	1117.63
465.23	1119.50
465.59	1125.96
465.95	1123.53
466.32	1123.67
466.68	1125.31
467.04	1123.97
467.40	1124.53
467.77	1130.27
468.13	1131.67
468.49	1135.63
468.85	1137.99
469.22	1135.51
469.58	1136.03
469.94	1136.56
470.30	1136.12
470.66	1137.15
471.03	1142.11
471.39	1142.77
471.75	1146.37
472.11	1149.69
472.47	1154.89
472.84	1155.78
473.20	1158.52
473.56	1161.16
473.92	1164.77
474.28	1167.13
474.65	1171.63
475.01	1176.61
475.37	1179.00
475.73	1180.14
476.09	1182.27
476.45	1186.25
476.81	1188.99
477.18	1195.99
477.54	1201.54
477.90	1209.52
478.26	1212.12
478.62	1219.04
478.98	1222.11
479.34	1230.56
479.71	1237.53
480.07	1247.90
480.43	1259.30
480.79	1270.72
481.15	1278.78
481.51	1289.73
481.87	1302.55
482.23	1309.62
482.59	1321.86
482.96	1336.42
483.32	1349.67
483.68	1365.89
484.04	1382.98
484.40	1402.00
484.76	1423.77
485.12	1439.73
485.48	1455.02
485.84	1477.72
486.20	1495.53
486.56	1515.03
486.92	1544.33
487.28	1571.86
487.64	1596.48
488.00	1625.06
488.37	1655.48
488.73	1684.79
489.09	1714.84
489.45	1750.58
489.81	1789.29
490.17	1824.80
490.53	1861.19
490.89	1904.26
491.25	1947.37
491.61	1990.93
491.97	2041.13
492.33	2094.22
492.69	2146.27
493.05	2204.04
493.41	2266.97
493.77	2329.77
494.13	2394.88
494.49	2466.08
494.85	2537.02
495.21	2611.76
495.57	2688.34
495.93	2773.28
496.29	2856.81
496.64	2951.39
497.00	3040.52
497.36	3142.85
497.72	3248.78
498.08	3358.34
498.44	3473.61
498.80	3603.23
499.16	3739.78
499.52	3884.14
499.88	4041.15
500.24	4197.28
500.60	4349.04
500.96	4506.98
501.32	4674.00
501.68	4846.83
502.03	5034.70
502.39	5253.03
502.75	5469.79
503.11	5711.96
503.47	5945.22
503.83	6196.33
504.19	6450.54
504.55	6727.12
504.91	7002.11
505.26	7290.32
505.62	7579.82
505.98	7906.91
506.34	8250.32
506.70	8608.65
507.06	8999.45
507.42	9410.83
507.78	9825.17
508.13	10228.19
508.49	10664.35
508.85	11127.12
509.21	11619.52
509.57	12142.42
509.93	12711.66
510.28	13307.68
510.64	13940.63
511.00	14560.52
511.36	15148.93
511.72	15742.02
512.07	16393.02
512.43	17014.38
512.79	17698.34
513.15	18430.95
513.51	19191.74
513.86	19954.21
514.22	20795.19
514.58	21605.63
514.94	22457.11
515.30	23319.51
515.65	24144.57
516.01	24997.16
516.37	25864.86
516.73	26679.42
517.08	27577.69
517.44	28444.79
517.80	29290.35
518.16	30163.96
518.51	30999.13
518.87	31744.08
519.23	32619.11
519.59	33519.14
519.94	34399.56
520.30	35292.91
520.66	36085.00
521.01	36898.26
521.37	37560.64
521.73	38171.87
522.09	38773.99
522.44	39464.83
522.80	39864.10
523.16	40220.28
523.51	40475.63
523.87	40768.79
524.23	41030.18
524.58	41327.75
524.94	41750.55
525.30	42120.80
525.65	42340.83
526.01	42368.61
526.37	42363.74
526.72	42250.74
527.08	42102.19
527.44	41909.05
527.79	41757.08
528.15	41631.02
528.51	41409.90
528.86	41192.19
529.22	40962.00
529.58	40724.69
529.93	40354.32
530.29	39909.79
530.65	39510.02
531.00	39126.48
531.36	38632.37
531.71	38174.79
532.07	37706.29
532.43	37145.57
532.78	36488.32
533.14	35905.62
533.49	35297.39
533.85	34675.01
534.21	34026.40
534.56	33461.12
534.92	32881.06
535.27	32251.86
535.63	31625.93
535.98	30991.41
536.34	30338.61
536.69	29669.54
537.05	29061.00
537.41	28502.27
537.76	28011.98
538.12	27448.35
538.47	26937.44
538.83	26473.07
539.18	26004.36
539.54	25507.28
539.89	25046.31
540.25	24543.44
540.60	24049.54
540.96	23535.19
541.31	23042.93
541.67	22618.00
542.02	22200.47
542.38	21752.05
542.73	21320.10
543.09	20936.23
543.44	20569.92
543.80	20245.61
544.15	19848.28
544.51	19537.36
544.86	19216.20
545.22	18843.04
545.57	18438.53
545.93	18072.82
546.28	17716.40
546.64	17364.43
546.99	17012.28
547.35	16675.38
547.70	16363.25
548.05	16032.81
548.41	15711.29
548.76	15414.56
549.12	15129.22
549.47	14860.95
549.83	14599.47
550.18	14278.44
550.53	13951.25
550.89	13686.28
551.24	13414.97
551.60	13114.44
551.95	12856.33
552.30	12614.15
552.66	12342.21
553.01	12075.08
553.37	11803.84
553.72	11521.94
554.07	11253.88
554.43	10946.47
554.78	10652.11
555.13	10383.39
555.49	10157.25
555.84	9959.71
556.19	9787.75
556.55	9593.60
556.90	9400.55
557.26	9196.60
557.61	8973.08
557.96	8732.73
558.32	8533.15
558.67	8328.05
559.02	8102.56
559.37	7916.93
559.73	7767.16
560.08	7600.96
560.43	7435.51
560.79	7308.63
561.14	7147.34
561.49	6974.26
561.85	6821.30
562.20	6674.72
562.55	6538.87
562.90	6414.43
563.26	6299.72
563.61	6176.56
563.96	6056.46
564.32	5927.50
564.67	5792.85
565.02	5663.84
565.37	5554.04
565.73	5445.70
566.08	5345.71
566.43	5237.37
566.78	5132.56
567.14	5020.19
567.49	4908.85
567.84	4805.87
568.19	4703.77
568.54	4616.19
568.90	4526.67
569.25	4453.59
569.60	4378.53
569.95	4308.08
570.31	4222.89
570.66	4145.21
571.01	4056.27
571.36	3967.37
571.71	3894.18
572.06	3832.02
572.42	3768.73
572.77	3712.56
573.12	3649.90
573.47	3585.00
573.82	3519.11
574.18	3449.81
574.53	3387.79
574.88	3327.80
575.23	3274.76
575.58	3215.17
575.93	3171.29
576.28	3118.69
576.64	3069.57
576.99	3004.94
577.34	2952.47
577.69	2896.44
578.04	2843.33
578.39	2787.86
578.74	2755.56
579.09	2716.19
579.44	2672.80
579.80	2632.03
580.15	2596.03
580.50	2553.78
580.85	2514.98
581.20	2480.36
581.55	2452.23
581.90	2424.40
582.25	2392.50
582.60	2354.91
582.95	2320.34
583.30	2280.10
583.65	2239.78
584.00	2202.75
584.35	2172.88
584.71	2140.98
585.06	2111.54
585.41	2086.28
585.76	2060.09
586.11	2036.13
586.46	2012.88
586.81	1988.21
587.16	1964.58
587.51	1942.62
587.86	1918.68
588.21	1898.01
588.56	1881.44
588.91	1859.53
589.26	1841.16
589.61	1824.35
589.96	1805.54
590.31	1785.20
590.66	1773.45
591.01	1756.57
591.36	1737.80
591.71	1718.75
592.06	1705.13
592.41	1686.87
592.76	1672.45
593.10	1659.42
593.45	1644.23
593.80	1629.36
594.15	1611.74
594.50	1596.55
594.85	1582.37
595.20	1572.65
595.55	1560.29
595.90	1553.16
596.25	1541.31
596.60	1530.64
596.95	1521.79
597.30	1511.40
597.64	1547.77
597.99	1538.95
598.34	1531.81
598.69	1521.51
599.04	1514.40
599.39	1456.70
599.74	1449.56
600.09	1439.41
600.44	1430.89
600.78	1421.06
601.13	1414.46
601.48	1404.18
601.83	1399.62
602.18	1392.69
602.53	1386.77
602.88	1382.53
603.22	1375.74
603.57	1367.43
603.92	1361.75
604.27	1353.39
604.62	1342.55
604.97	1337.03
605.31	1329.59
605.66	1323.48
606.01	1321.12
606.36	1316.97
606.71	1307.82
607.05	1300.31
607.40	1294.01
607.75	1286.62
608.10	1279.83
608.44	1277.82
608.79	1278.07
609.14	1276.48
609.49	1269.95
609.84	1267.26
610.18	1264.59
610.53	1263.12
610.88	1259.79
611.23	1259.35
611.57	1260.05
611.92	1256.98
612.27	1250.13
612.62	1243.69
612.96	1238.26
613.31	1233.93
613.66	1226.21
614.00	1219.51
614.35	1217.41
614.70	1214.25
615.05	1205.96
615.39	1206.12
615.74	1202.64
616.09	1198.61
616.43	1196.55
616.78	1194.52
617.13	1191.85
617.47	1194.61
617.82	1191.68
618.17	1187.80
618.51	1188.36
618.86	1184.50
619.21	1181.15
619.55	1182.86
619.90	1182.98
620.25	1179.47
620.59	1179.07
620.94	1178.65
621.29	1177.43
621.63	1173.52
621.98	1169.85
622.32	1169.47
622.67	1164.86
623.02	1158.57
623.36	1158.78
623.71	1159.83
624.05	1156.29
624.40	1153.04
624.75	1156.48
625.09	1152.20
625.44	1148.92
625.78	1148.15
626.13	1149.39
626.48	1143.70
626.82	1144.83
627.17	1147.92
627.51	1145.04
627.86	1141.99
628.20	1139.35
628.55	1134.62
628.89	1131.84
629.24	1133.19
629.58	1129.71
629.93	1128.84
630.28	1128.61
630.62	1125.66
630.97	1121.87
631.31	1125.28
631.66	1127.72
632.00	1131.93
632.35	1134.27
632.69	1134.79
633.04	1132.47
633.38	1131.65
633.73	1125.35
634.07	1122.17
634.42	1123.48
634.76	1123.67
635.11	1121.91
635.45	1125.56
635.79	1123.22
636.14	1122.97
636.48	1119.78
636.83	1116.39
637.17	1114.61
637.52	1117.65
637.86	1112.67
638.21	1115.01
638.55	1116.76
638.89	1117.18
639.24	1112.18
639.58	1112.18
639.93	1108.55
640.27	1108.66
640.61	1108.83
640.96	1110.40
641.30	1115.24
641.65	1115.73
641.99	1115.55
642.33	1113.21
642.68	1112.50
643.02	1109.25
643.37	1111.36
643.71	1107.94
644.05	1110.91
644.40	1109.20
644.74	1107.61
645.08	1106.30
645.43	1110.02
645.77	1110.02
646.11	1112.74
646.46	1113.91
646.80	1114.31
647.14	1110.12
647.49	1106.00
647.83	1100.24
648.17	1099.91
648.52	1098.11
648.86	1099.56
649.20	1102.06
649.55	1106.28
649.89	1106.65
650.23	1107.00
650.57	1108.15
650.92	1103.19
651.26	1101.76
651.60	1098.25
651.95	1096.99
652.29	1095.67
652.63	1099.26
652.97	1101.01
653.32	1099.65
653.66	1102.35
654.00	1103.28
654.34	1102.77
654.69	1098.06
655.03	1101.74
655.37	1100.43
655.71	1097.64
656.05	1095.84
656.40	1098.27
656.74	1097.66
657.08	1099.42
657.42	1102.53
657.76	1103.49
658.11	1103.23
658.45	1104.24
658.79	1097.52
659.13	1096.40
659.47	1096.66
659.82	1098.44
660.16	1097.85
660.50	1102.11
660.84	1099.33
661.18	1097.45
661.52	1096.45
661.87	1097.95
662.21	1096.12
662.55	1099.47
662.89	1101.85
663.23	1101.01
663.57	1100.57
663.91	1103.16
664.25	1100.38
664.60	1100.73
664.94	1099.14
665.28	1098.53
665.62	1097.55
665.96	1098.72
666.30	1096.78
666.64	1099.37
666.98	1096.61
667.32	1096.73
667.66	1096.75
668.01	1094.95
668.35	1094.90
668.69	1098.55
669.03	1094.88
669.37	1091.23
669.71	1090.55
670.05	1089.99
670.39	1085.45
670.73	1090.41
671.07	1092.07
671.41	1096.99
671.75	1094.06
672.09	1097.17
672.43	1095.67
672.77	1096.00
673.11	1094.34
673.45	1096.89
673.79	1091.77
674.13	1093.73
674.47	1095.51
674.81	1093.92
675.15	1091.67
675.49	1089.43
675.83	1083.88
676.17	1080.60
676.51	1082.52
676.85	1085.89
677.19	1093.55
677.53	1097.95
677.87	1099.37
678.21	1098.02
678.55	1097.06
678.89	1094.90
679.23	1092.40
679.57	1094.18
679.90	1090.46
680.24	1089.89
680.58	1087.25
680.92	1087.86
681.26	1086.50
681.60	1089.64
681.94	1088.47
682.28	1087.67
682.62	1084.32
682.96	1084.25
683.29	1083.34
683.63	1080.56
683.97	1082.61
684.31	1084.74
684.65	1084.49
684.99	1085.80
685.33	1087.93
685.67	1089.78
686.00	1090.64
686.34	1090.20
686.68	1090.81
687.02	1092.70
687.36	1091.11
687.70	1090.43
688.03	1090.06
688.37	1089.45
688.71	1090.32
689.05	1089.89
689.39	1092.33
689.72	1091.60
690.06	1092.82
690.40	1089.99
690.74	1091.79
691.08	1089.92
691.41	1091.16
691.75	1087.41
692.09	1085.05
692.43	1085.42
692.76	1086.69
693.10	1087.39
693.44	1093.12
693.78	1095.39
694.11	1096.85
694.45	1097.85
694.79	1096.68
695.13	1093.31
695.46	1094.62
695.80	1091.81
696.14	1089.54
696.48	1091.91
696.81	1092.61
697.15	1094.15
697.49	1093.69
697.82	1095.42
698.16	1092.42
698.50	1089.14
698.83	1088.84
699.17	1089.87
699.51	1088.91
699.84	1090.22
700.18	1091.16
700.52	1089.40
700.85	1086.97
701.19	1084.44
701.53	1084.28
701.86	1081.98
702.20	1083.32
702.54	1085.12
702.87	1086.62
703.21	1085.19
703.55	1088.42
703.88	1089.36
704.22	1088.26
704.55	1085.35
704.89	1087.37
705.23	1084.51
705.56	1080.13
705.90	1082.26
706.23	1088.44
706.57	1087.86
706.91	1090.69
707.24	1092.87
707.58	1091.37
707.91	1086.52
708.25	1087.25
708.58	1085.42
708.92	1085.49
709.26	1086.15
709.59	1091.18
709.93	1087.86
710.26	1090.27
710.60	1086.80
710.93	1086.13
711.27	1086.06
711.60	1091.51
711.94	1091.46
712.27	1095.77
712.61	1097.31
712.94	1096.47
713.28	1096.47
713.61	1095.72
713.95	1095.42
714.28	1095.35
714.62	1095.56
714.95	1093.97
715.29	1094.22
715.62	1093.01
715.96	1092.52
716.29	1091.11
716.63	1090.90
716.96	1091.06
717.29	1092.80
717.63	1093.05
717.96	1089.82
718.30	1086.17
718.63	1085.82
718.97	1081.89
719.30	1079.78
719.63	1080.58
719.97	1085.14
720.30	1084.72
720.64	1089.47
720.97	1088.37
721.30	1090.81
721.64	1088.16
721.97	1087.79
722.31	1083.08
722.64	1082.94
722.97	1082.05
723.31	1080.79
723.64	1082.03
723.97	1087.69
724.31	1091.23
724.64	1089.78
724.98	1092.09
725.31	1091.20
725.64	1087.83
725.98	1086.48
726.31	1089.52
726.64	1088.63
726.97	1086.80
727.31	1088.35
727.64	1088.72
727.97	1085.49
728.31	1082.92
728.64	1084.56
728.97	1084.77
729.31	1084.81
729.64	1085.33
729.97	1089.17
730.30	1092.02
730.64	1087.86
730.97	1085.59
731.30	1086.45
731.63	1082.83
731.97	1079.48
732.30	1082.05
732.63	1083.15
732.96	1081.89
733.30	1085.96
733.63	1087.30
733.96	1090.55
734.29	1090.36
734.63	1090.78
734.96	1089.82
735.29	1087.27
735.62	1083.90
735.95	1086.80
736.29	1085.75
736.62	1082.59
736.95	1084.91
737.28	1087.23
737.61	1085.31
737.94	1085.40
738.28	1085.82
738.61	1087.30
738.94	1085.45
739.27	1085.59
739.60	1087.37
739.93	1090.08
740.27	1091.74
740.60	1092.09
740.93	1094.95
741.26	1095.11
741.59	1091.88
741.92	1089.12
742.25	1087.30
742.58	1085.38
742.91	1084.23
743.25	1089.57
743.58	1087.27
743.91	1089.94
744.24	1086.48
744.57	1085.31
744.90	1081.09
745.23	1081.54
745.56	1081.47
745.89	1083.64
746.22	1084.67
746.55	1084.74
746.88	1084.98
747.21	1084.65
747.54	1082.61
747.87	1086.57
748.20	1091.51
748.53	1094.01
748.87	1091.44
749.20	1090.60
749.53	1086.41
749.86	1084.72
750.19	1082.76
750.52	1083.50
750.85	1087.51
751.18	1086.34
751.51	1085.63
751.84	1085.61
752.16	1087.86
752.49	1087.48
752.82	1091.63
753.15	1092.59
753.48	1092.09
753.81	1092.89
754.14	1092.19
754.47	1089.66
754.80	1091.39
755.13	1090.64
755.46	1085.40
755.79	1084.02
756.12	1084.72
756.45	1080.20
756.78	1085.17
757.11	1092.40
757.43	1095.25
757.76	1094.83
758.09	1097.31
758.42	1093.03
758.75	1087.32
759.08	1085.94
759.41	1085.47
759.74	1083.11
760.07	1084.72
760.39	1086.85
760.72	1086.59
761.05	1088.79
761.38	1087.32
761.71	1086.17
762.04	1085.66
762.36	1089.54
762.69	1085.56
763.02	1087.39
763.35	1086.80
