SpectraSuite Data File
++++++++++++++++++++++++++++++++++++
Date: Mon Aug 26 10:26:20 PDT 2019
User: corrico
Dark Spectrum Present: No
Reference Spectrum Present: No
Number of Sampled Component Spectra: 1
Spectrometers: USB2+H06089
Integration Time (usec): 10000 (USB2+H06089)
Spectra Averaged: 20 (USB2+H06089)
Boxcar Smoothing: 2 (USB2+H06089)
Correct for Electrical Dark: No (USB2+H06089)
Strobe/Lamp Enabled: No (USB2+H06089)
Correct for Detector Non-linearity: No (USB2+H06089)
Correct for Stray Light: No (USB2+H06089)
Number of Pixels in Processed Spectrum: 2048
>>>>>Begin Processed Spectral Data<<<<<
339.70	1044.35
340.07	1044.35
340.45	1004.63
340.82	979.16
341.19	952.36
341.57	925.03
341.94	913.35
342.31	906.14
342.69	902.18
343.06	901.57
343.43	900.99
343.81	905.27
344.18	909.91
344.55	913.14
344.93	917.65
345.30	923.90
345.67	927.16
346.04	935.72
346.42	946.51
346.79	953.82
347.16	960.37
347.54	971.37
347.91	978.77
348.28	987.31
348.65	999.95
349.03	1014.62
349.40	1024.15
349.77	1033.21
350.14	1041.66
350.52	1043.72
350.89	1043.13
351.26	1046.76
351.63	1050.64
352.01	1051.98
352.38	1059.63
352.75	1065.58
353.12	1069.58
353.50	1072.06
353.87	1079.81
354.24	1085.68
354.61	1090.60
354.98	1092.73
355.36	1094.34
355.73	1093.45
356.10	1089.87
356.47	1086.22
356.84	1087.93
357.22	1086.41
357.59	1084.98
357.96	1083.90
358.33	1085.91
358.70	1081.66
359.08	1083.74
359.45	1083.11
359.82	1084.98
360.19	1084.37
360.56	1087.39
360.94	1086.52
361.31	1086.52
361.68	1083.46
362.05	1082.01
362.42	1082.57
362.79	1085.14
363.16	1084.28
363.54	1087.48
363.91	1089.99
364.28	1089.99
364.65	1085.45
365.02	1082.85
365.39	1082.97
365.76	1081.26
366.14	1077.65
366.51	1078.80
366.88	1083.50
367.25	1080.81
367.62	1081.07
367.99	1081.73
368.36	1083.81
368.73	1084.16
369.10	1083.01
369.48	1081.42
369.85	1082.05
370.22	1080.46
370.59	1079.95
370.96	1082.10
371.33	1083.81
371.70	1082.76
372.07	1082.47
372.44	1080.34
372.81	1081.84
373.18	1082.05
373.55	1081.98
373.93	1081.07
374.30	1081.77
374.67	1079.24
375.04	1076.69
375.41	1078.73
375.78	1078.61
376.15	1075.50
376.52	1074.21
376.89	1076.55
377.26	1075.92
377.63	1076.69
378.00	1079.08
378.37	1080.04
378.74	1082.52
379.11	1083.95
379.48	1085.35
379.85	1090.13
380.22	1091.16
380.59	1092.59
380.96	1091.63
381.33	1093.64
381.70	1091.39
382.07	1091.56
382.44	1088.35
382.81	1086.57
383.18	1086.06
383.55	1084.67
383.92	1085.56
384.29	1084.30
384.66	1087.27
385.03	1088.00
385.40	1090.57
385.77	1092.02
386.14	1092.91
386.51	1091.91
386.88	1090.60
387.25	1087.67
387.62	1084.18
387.99	1086.64
388.36	1086.17
388.73	1085.07
389.10	1089.07
389.46	1090.53
389.83	1089.24
390.20	1089.94
390.57	1091.25
390.94	1087.39
391.31	1086.64
391.68	1087.46
392.05	1089.17
392.42	1089.19
392.79	1086.90
393.16	1085.99
393.53	1081.66
393.89	1080.70
394.26	1079.67
394.63	1082.36
395.00	1082.36
395.37	1087.18
395.74	1087.27
396.11	1090.39
396.48	1089.80
396.84	1092.47
397.21	1092.56
397.58	1090.10
397.95	1085.19
398.32	1089.00
398.69	1089.00
399.06	1087.69
399.42	1089.38
399.79	1091.06
400.16	1088.28
400.53	1088.77
400.90	1092.30
401.27	1093.17
401.64	1094.32
402.00	1097.15
402.37	1097.43
402.74	1096.07
403.11	1095.14
403.48	1097.69
403.84	1097.69
404.21	1097.15
404.58	1096.78
404.95	1099.30
405.32	1097.17
405.68	1098.79
406.05	1103.12
406.42	1104.12
406.79	1107.03
407.16	1109.65
407.52	1106.79
407.89	1102.86
408.26	1102.25
408.63	1098.88
408.99	1098.09
409.36	1099.65
409.73	1103.12
410.10	1103.89
410.47	1103.12
410.83	1102.37
411.20	1101.85
411.57	1101.71
411.94	1100.33
412.30	1101.88
412.67	1099.09
413.04	1101.32
413.40	1098.74
413.77	1100.71
414.14	1103.35
414.51	1103.77
414.87	1102.67
415.24	1101.90
415.61	1102.46
415.97	1104.85
416.34	1107.61
416.71	1108.13
417.08	1110.61
417.44	1109.46
417.81	1107.14
418.18	1107.64
418.54	1108.41
418.91	1109.09
419.28	1109.65
419.64	1109.74
420.01	1112.18
420.38	1110.02
420.74	1112.06
421.11	1111.89
421.48	1110.84
421.84	1110.00
422.21	1113.53
422.58	1111.54
422.94	1115.45
423.31	1117.75
423.68	1115.80
424.04	1116.04
424.41	1119.38
424.77	1119.57
425.14	1121.21
425.51	1123.93
425.87	1123.13
426.24	1121.70
426.61	1118.66
426.97	1115.45
427.34	1113.98
427.70	1116.51
428.07	1114.17
428.44	1116.79
428.80	1115.99
429.17	1116.88
429.53	1116.08
429.90	1117.65
430.27	1117.61
430.63	1118.19
431.00	1117.49
431.36	1117.70
431.73	1120.18
432.09	1118.26
432.46	1119.81
432.83	1118.85
433.19	1118.28
433.56	1115.99
433.92	1119.74
434.29	1123.11
434.65	1127.83
435.02	1128.72
435.38	1127.58
435.75	1126.06
436.11	1121.02
436.48	1120.46
436.84	1118.10
437.21	1118.94
437.57	1118.71
437.94	1121.94
438.30	1120.25
438.67	1119.53
439.03	1119.57
439.40	1118.80
439.76	1115.85
440.13	1115.73
440.49	1117.54
440.86	1118.71
441.22	1121.47
441.59	1124.07
441.95	1126.38
442.32	1126.03
442.68	1124.72
443.05	1122.08
443.41	1121.77
443.78	1117.79
444.14	1116.32
444.51	1115.15
444.87	1114.12
445.24	1111.40
445.60	1112.48
445.96	1112.55
446.33	1112.85
446.69	1113.58
447.06	1112.74
447.42	1112.90
447.79	1110.12
448.15	1111.57
448.51	1111.29
448.88	1114.21
449.24	1116.27
449.61	1118.28
449.97	1117.61
450.33	1116.88
450.70	1115.52
451.06	1111.75
451.43	1113.32
451.79	1112.97
452.15	1112.39
452.52	1112.06
452.88	1115.64
453.24	1119.45
453.61	1120.77
453.97	1121.30
454.34	1120.70
454.70	1119.50
455.06	1113.09
455.43	1113.56
455.79	1111.36
456.15	1113.04
456.52	1111.75
456.88	1116.95
457.24	1114.68
457.61	1116.30
457.97	1114.75
458.33	1115.15
458.70	1112.46
459.06	1113.44
459.42	1116.06
459.79	1117.00
460.15	1119.22
460.51	1119.95
460.88	1124.18
461.24	1124.09
461.60	1124.35
461.96	1122.17
462.33	1123.69
462.69	1118.99
463.05	1123.55
463.42	1124.39
463.78	1128.23
464.14	1129.45
464.50	1129.99
464.87	1129.89
465.23	1132.02
465.59	1131.95
465.95	1133.59
466.32	1135.25
466.68	1132.59
467.04	1136.59
467.40	1134.90
467.77	1135.56
468.13	1138.13
468.49	1136.40
468.85	1132.70
469.22	1137.87
469.58	1138.65
469.94	1142.32
470.30	1147.78
470.66	1152.04
471.03	1154.14
471.39	1158.52
471.75	1158.99
472.11	1161.05
472.47	1162.31
472.84	1163.83
473.20	1164.60
473.56	1167.55
473.92	1172.58
474.28	1180.00
474.65	1184.52
475.01	1187.07
475.37	1191.10
475.73	1195.17
476.09	1193.95
476.45	1196.74
476.81	1205.80
477.18	1213.24
477.54	1216.98
477.90	1228.34
478.26	1236.72
478.62	1242.40
478.98	1250.71
479.34	1262.23
479.71	1269.16
480.07	1277.42
480.43	1288.28
480.79	1297.48
481.15	1307.84
481.51	1319.87
481.87	1334.48
482.23	1346.51
482.59	1361.77
482.96	1376.63
483.32	1393.88
483.68	1412.16
484.04	1432.92
484.40	1455.70
484.76	1475.31
485.12	1496.73
485.48	1521.84
485.84	1541.92
486.20	1562.47
486.56	1589.04
486.92	1621.62
487.28	1645.49
487.64	1678.09
488.00	1713.58
488.37	1748.45
488.73	1782.18
489.09	1824.96
489.45	1866.51
489.81	1910.13
490.17	1954.84
490.53	2005.18
490.89	2052.74
491.25	2101.17
491.61	2155.59
491.97	2215.27
492.33	2268.21
492.69	2325.56
493.05	2390.93
493.41	2463.86
493.77	2533.98
494.13	2617.30
494.49	2703.44
494.85	2791.09
495.21	2878.32
495.57	2978.33
495.93	3076.24
496.29	3177.18
496.64	3287.87
497.00	3401.99
497.36	3518.74
497.72	3646.53
498.08	3787.41
498.44	3939.33
498.80	4087.00
499.16	4250.69
499.52	4417.46
499.88	4600.44
500.24	4769.61
500.60	4958.10
500.96	5148.73
501.32	5337.08
501.68	5524.39
502.03	5732.81
502.39	5961.74
502.75	6209.53
503.11	6478.88
503.47	6757.55
503.83	7065.91
504.19	7375.45
504.55	7709.12
504.91	8039.81
505.26	8370.50
505.62	8748.62
505.98	9154.91
506.34	9534.52
506.70	9965.86
507.06	10457.61
507.42	10918.15
507.78	11387.10
508.13	11923.27
508.49	12455.91
508.85	13009.33
509.21	13575.43
509.57	14161.93
509.93	14756.02
510.28	15421.53
510.64	16124.33
511.00	16825.08
511.36	17550.95
511.72	18342.92
512.07	19161.64
512.43	19957.82
512.79	20870.88
513.15	21767.26
513.51	22567.07
513.86	23380.41
514.22	24319.20
514.58	25247.80
514.94	26172.41
515.30	27231.43
515.65	28342.83
516.01	29325.27
516.37	30264.84
516.73	31283.76
517.08	32196.69
517.44	32941.82
517.80	33827.55
518.16	34761.75
518.51	35707.26
518.87	36660.07
519.23	37748.07
519.59	38734.93
519.94	39720.79
520.30	40650.47
520.66	41487.70
521.01	42281.08
521.37	43067.14
521.73	43707.21
522.09	44301.33
522.44	45026.99
522.80	45593.52
523.16	45950.47
523.51	46309.21
523.87	46677.35
524.23	46973.05
524.58	47193.32
524.94	47610.90
525.30	47934.22
525.65	48052.44
526.01	48015.79
526.37	48189.31
526.72	48264.09
527.08	48218.34
527.44	48146.48
527.79	48073.81
528.15	47892.98
528.51	47584.21
528.86	47343.79
529.22	47008.21
529.58	46628.81
529.93	46179.94
530.29	45629.82
530.65	45146.20
531.00	44721.88
531.36	44157.86
531.71	43578.88
532.07	43174.43
532.43	42434.87
532.78	41680.80
533.14	41060.39
533.49	40378.90
533.85	39561.68
534.21	39012.80
534.56	38482.22
534.92	37837.64
535.27	37172.81
535.63	36427.96
535.98	35662.81
536.34	34909.09
536.69	34178.80
537.05	33455.34
537.41	32872.99
537.76	32236.48
538.12	31498.58
538.47	30905.88
538.83	30359.95
539.18	29739.62
539.54	29190.41
539.89	28724.41
540.25	28202.31
540.60	27671.87
540.96	27113.42
541.31	26586.33
541.67	26176.43
542.02	25718.37
542.38	25276.19
542.73	24821.92
543.09	24338.51
543.44	23815.58
543.80	23332.24
544.15	22857.02
544.51	22495.36
544.86	22084.34
545.22	21699.36
545.57	21344.47
545.93	20896.98
546.28	20477.18
546.64	20134.95
546.99	19754.24
547.35	19370.13
547.70	19028.46
548.05	18633.68
548.41	18205.13
548.76	17746.15
549.12	17316.15
549.47	16937.66
549.83	16606.85
550.18	16260.17
550.53	15916.88
550.89	15535.91
551.24	15148.81
551.60	14804.73
551.95	14503.93
552.30	14229.12
552.66	14010.42
553.01	13805.04
553.37	13545.73
553.72	13256.79
554.07	12976.44
554.43	12682.78
554.78	12369.31
555.13	12065.44
555.49	11752.51
555.84	11477.57
556.19	11193.59
556.55	10891.59
556.90	10613.91
557.26	10402.96
557.61	10200.64
557.96	9980.25
558.32	9790.86
558.67	9591.05
559.02	9363.29
559.37	9136.63
559.73	8952.62
560.08	8765.94
560.43	8565.99
560.79	8367.02
561.14	8167.16
561.49	7957.49
561.85	7750.10
562.20	7580.48
562.55	7446.37
562.90	7287.75
563.26	7142.03
563.61	7009.06
563.96	6846.72
564.32	6671.91
564.67	6524.73
565.02	6399.05
565.37	6277.11
565.73	6139.72
566.08	6010.96
566.43	5889.56
566.78	5749.90
567.14	5613.89
567.49	5500.05
567.84	5374.74
568.19	5253.40
568.54	5148.43
568.90	5052.49
569.25	4972.12
569.60	4892.91
569.95	4815.07
570.31	4737.38
570.66	4647.04
571.01	4550.17
571.36	4456.78
571.71	4373.48
572.06	4280.49
572.42	4195.34
572.77	4110.24
573.12	4038.34
573.47	3961.78
573.82	3897.27
574.18	3835.79
574.53	3770.53
574.88	3709.40
575.23	3641.97
575.58	3565.43
575.93	3502.17
576.28	3447.38
576.64	3391.67
576.99	3324.85
577.34	3269.59
577.69	3204.52
578.04	3133.67
578.39	3069.38
578.74	3019.69
579.09	2960.94
579.44	2907.55
579.80	2865.56
580.15	2821.47
580.50	2771.64
580.85	2737.21
581.20	2693.75
581.55	2651.52
581.90	2602.58
582.25	2562.61
582.60	2515.02
582.95	2477.22
583.30	2438.79
583.65	2407.64
584.00	2368.55
584.35	2333.02
584.71	2297.07
585.06	2264.56
585.41	2234.46
585.76	2214.47
586.11	2187.44
586.46	2162.54
586.81	2134.45
587.16	2107.39
587.51	2075.14
587.86	2055.90
588.21	2031.02
588.56	2006.80
588.91	1986.46
589.26	1965.51
589.61	1944.47
589.96	1927.69
590.31	1910.28
590.66	1885.14
591.01	1867.63
591.36	1846.00
591.71	1816.26
592.06	1793.95
592.41	1777.36
592.76	1763.73
593.10	1743.28
593.45	1732.49
593.80	1716.41
594.15	1702.30
594.50	1684.04
594.85	1669.46
595.20	1658.50
595.55	1647.32
595.90	1636.20
596.25	1622.74
596.60	1612.09
596.95	1598.21
597.30	1586.67
597.64	1623.47
597.99	1615.18
598.34	1605.63
598.69	1592.55
599.04	1581.45
599.39	1519.10
599.74	1504.15
600.09	1493.50
600.44	1489.56
600.78	1478.26
601.13	1474.09
601.48	1466.74
601.83	1459.16
602.18	1448.32
602.53	1439.64
602.88	1427.28
603.22	1415.86
603.57	1402.40
603.92	1395.36
604.27	1389.79
604.62	1383.00
604.97	1384.73
605.31	1384.10
605.66	1378.95
606.01	1369.10
606.36	1359.06
606.71	1347.89
607.05	1338.62
607.40	1327.65
607.75	1324.32
608.10	1322.38
608.44	1317.09
608.79	1308.97
609.14	1302.72
609.49	1299.86
609.84	1293.59
610.18	1290.03
610.53	1288.04
610.88	1287.69
611.23	1280.06
611.57	1277.60
611.92	1271.52
612.27	1267.00
612.62	1259.61
612.96	1255.28
613.31	1250.88
613.66	1246.36
614.00	1244.42
614.35	1240.39
614.70	1236.69
615.05	1234.49
615.39	1229.69
615.74	1221.71
616.09	1221.43
616.43	1218.20
616.78	1214.78
617.13	1212.47
617.47	1212.42
617.82	1205.94
618.17	1202.66
618.51	1199.57
618.86	1200.67
619.21	1196.51
619.55	1196.83
619.90	1195.85
620.25	1191.15
620.59	1185.43
620.94	1183.02
621.29	1180.12
621.63	1177.66
621.98	1178.27
622.32	1177.08
622.67	1176.73
623.02	1172.84
623.36	1173.36
623.71	1168.93
624.05	1164.74
624.40	1162.80
624.75	1161.02
625.09	1157.75
625.44	1162.15
625.78	1162.26
626.13	1164.51
626.48	1165.19
626.82	1161.28
627.17	1156.06
627.51	1155.10
627.86	1146.89
628.20	1140.94
628.55	1138.09
628.89	1134.01
629.24	1130.01
629.58	1129.78
629.93	1132.28
630.28	1133.03
630.62	1135.21
630.97	1138.88
631.31	1140.38
631.66	1137.52
632.00	1135.25
632.35	1130.08
632.69	1126.57
633.04	1125.68
633.38	1125.82
633.73	1126.85
634.07	1128.49
634.42	1125.89
634.76	1125.91
635.11	1127.69
635.45	1128.84
635.79	1127.55
636.14	1129.47
636.48	1128.79
636.83	1125.00
637.17	1123.86
637.52	1121.73
637.86	1122.08
638.21	1122.64
638.55	1123.53
638.89	1123.15
639.24	1125.82
639.58	1122.40
639.93	1120.63
640.27	1119.24
640.61	1117.68
640.96	1115.92
641.30	1117.49
641.65	1111.75
641.99	1110.96
642.33	1111.45
642.68	1111.26
643.02	1109.69
643.37	1111.50
643.71	1110.84
644.05	1110.94
644.40	1110.09
644.74	1109.98
645.08	1109.55
645.43	1110.07
645.77	1109.18
646.11	1110.12
646.46	1108.88
646.80	1108.81
647.14	1107.49
647.49	1106.89
647.83	1107.24
648.17	1111.15
648.52	1113.02
648.86	1116.34
649.20	1118.87
649.55	1115.64
649.89	1111.52
650.23	1109.79
650.57	1106.89
650.92	1104.76
651.26	1104.83
651.60	1101.41
651.95	1104.03
652.29	1102.65
652.63	1100.59
652.97	1096.03
653.32	1098.48
653.66	1097.15
654.00	1100.85
654.34	1100.00
654.69	1104.59
655.03	1104.69
655.37	1103.16
655.71	1100.17
656.05	1098.27
656.40	1098.58
656.74	1098.32
657.08	1100.73
657.42	1098.95
657.76	1101.18
658.11	1100.31
658.45	1100.10
658.79	1098.51
659.13	1098.58
659.47	1096.40
659.82	1100.22
660.16	1102.32
660.50	1100.43
660.84	1099.96
661.18	1106.16
661.52	1103.09
661.87	1103.14
662.21	1103.14
662.55	1104.55
662.89	1100.78
663.23	1100.22
663.57	1097.88
663.91	1099.72
664.25	1102.04
664.60	1105.41
664.94	1103.68
665.28	1104.59
665.62	1104.57
665.96	1099.44
666.30	1093.47
666.64	1094.27
666.98	1094.27
667.32	1090.53
667.66	1092.61
668.01	1094.18
668.35	1093.97
668.69	1091.91
669.03	1091.20
669.37	1090.20
669.71	1091.53
670.05	1092.35
670.39	1093.40
670.73	1097.83
671.07	1097.73
671.41	1095.75
671.75	1096.35
672.09	1095.14
672.43	1096.35
672.77	1095.25
673.11	1095.89
673.45	1094.74
673.79	1093.87
674.13	1090.69
674.47	1090.41
674.81	1091.63
675.15	1093.69
675.49	1097.06
675.83	1099.72
676.17	1102.67
676.51	1103.28
676.85	1102.67
677.19	1099.12
677.53	1095.67
677.87	1094.50
678.21	1089.12
678.55	1084.42
678.89	1084.74
679.23	1082.54
679.57	1083.50
679.90	1086.90
680.24	1089.61
680.58	1090.39
680.92	1095.04
681.26	1095.18
681.60	1095.89
681.94	1097.52
682.28	1096.28
682.62	1092.23
682.96	1090.27
683.29	1086.78
683.63	1083.83
683.97	1087.09
684.31	1087.67
684.65	1090.85
684.99	1091.60
685.33	1095.30
685.67	1091.95
686.00	1094.01
686.34	1090.08
686.68	1089.75
687.02	1085.05
687.36	1082.85
687.70	1078.45
688.03	1083.22
688.37	1083.69
688.71	1088.61
689.05	1093.40
689.39	1096.40
689.72	1096.26
690.06	1095.89
690.40	1092.14
690.74	1090.24
691.08	1088.70
691.41	1086.43
691.75	1088.09
692.09	1089.29
692.43	1091.46
692.76	1094.04
693.10	1094.27
693.44	1096.87
693.78	1095.70
694.11	1094.74
694.45	1095.25
694.79	1094.11
695.13	1092.77
695.46	1092.96
695.80	1092.37
696.14	1090.69
696.48	1089.38
696.81	1086.17
697.15	1087.74
697.49	1086.85
697.82	1086.62
698.16	1089.75
698.50	1091.56
698.83	1091.46
699.17	1089.61
699.51	1090.36
699.84	1088.04
700.18	1086.87
700.52	1088.56
700.85	1093.97
701.19	1093.69
701.53	1095.07
701.86	1098.41
702.20	1097.41
702.54	1097.57
702.87	1096.75
703.21	1095.86
703.55	1093.31
703.88	1092.14
704.22	1088.37
704.55	1087.48
704.89	1089.22
705.23	1087.69
705.56	1088.35
705.90	1089.57
706.23	1091.32
706.57	1088.65
706.91	1086.29
707.24	1085.87
707.58	1084.11
707.91	1083.27
708.25	1083.53
708.58	1086.99
708.92	1089.82
709.26	1093.38
709.59	1093.78
709.93	1094.57
710.26	1096.10
710.60	1093.19
710.93	1093.83
711.27	1093.73
711.60	1091.77
711.94	1089.24
712.27	1086.80
712.61	1083.83
712.94	1084.28
713.28	1087.34
713.61	1090.10
713.95	1091.81
714.28	1093.43
714.62	1094.76
714.95	1092.09
715.29	1088.84
715.62	1087.86
715.96	1083.01
716.29	1081.91
716.63	1086.10
716.96	1087.69
717.29	1087.39
717.63	1088.44
717.96	1088.79
718.30	1086.85
718.63	1088.75
718.97	1089.05
719.30	1092.19
719.63	1089.96
719.97	1088.58
720.30	1088.26
720.64	1089.68
720.97	1087.20
721.30	1089.31
721.64	1089.94
721.97	1089.40
722.31	1088.28
722.64	1089.54
722.97	1089.71
723.31	1086.94
723.64	1083.60
723.97	1084.44
724.31	1084.63
724.64	1084.74
724.98	1089.38
725.31	1088.86
725.64	1087.46
725.98	1085.54
726.31	1082.12
726.64	1081.49
726.97	1087.32
727.31	1089.85
727.64	1096.00
727.97	1098.65
728.31	1097.08
728.64	1092.89
728.97	1092.40
729.31	1085.00
729.64	1082.17
729.97	1080.79
730.30	1084.60
730.64	1085.10
730.97	1088.00
731.30	1088.61
731.63	1092.09
731.97	1089.96
732.30	1088.04
732.63	1087.67
732.96	1090.81
733.30	1087.88
733.63	1088.23
733.96	1089.92
734.29	1090.62
734.63	1090.92
734.96	1094.57
735.29	1090.48
735.62	1087.34
735.95	1087.44
736.29	1087.72
736.62	1084.91
736.95	1089.89
737.28	1089.26
737.61	1087.09
737.94	1085.70
738.28	1086.50
738.61	1082.45
738.94	1084.53
739.27	1087.20
739.60	1088.07
739.93	1087.11
740.27	1089.03
740.60	1092.45
740.93	1090.78
741.26	1093.05
741.59	1094.90
741.92	1095.37
742.25	1092.16
742.58	1095.58
742.91	1091.30
743.25	1088.37
743.58	1086.69
743.91	1085.31
744.24	1084.67
744.57	1087.97
744.90	1089.31
745.23	1094.60
745.56	1094.69
745.89	1091.98
746.22	1088.28
746.55	1086.73
746.88	1081.28
747.21	1084.14
747.54	1083.83
747.87	1084.70
748.20	1087.88
748.53	1091.27
748.87	1088.89
749.20	1092.33
749.53	1094.15
749.86	1093.50
750.19	1092.89
750.52	1093.64
750.85	1088.07
751.18	1086.62
751.51	1082.19
751.84	1080.25
752.16	1080.65
752.49	1082.22
752.82	1081.47
753.15	1084.35
753.48	1083.15
753.81	1084.93
754.14	1083.95
754.47	1084.32
754.80	1084.89
755.13	1086.50
755.46	1084.74
755.79	1087.09
756.12	1091.53
756.45	1089.85
756.78	1089.87
757.11	1089.96
757.43	1089.57
757.76	1086.27
758.09	1090.62
758.42	1092.07
758.75	1093.29
759.08	1093.83
759.41	1091.25
759.74	1088.49
760.07	1087.51
760.39	1087.67
760.72	1086.87
761.05	1088.84
761.38	1089.61
761.71	1088.86
762.04	1086.94
762.36	1087.74
762.69	1087.97
763.02	1086.38
763.35	1087.58
