SpectraSuite Data File
++++++++++++++++++++++++++++++++++++
Date: Mon Aug 26 10:26:33 PDT 2019
User: corrico
Dark Spectrum Present: No
Reference Spectrum Present: No
Number of Sampled Component Spectra: 1
Spectrometers: USB2+H06089
Integration Time (usec): 10000 (USB2+H06089)
Spectra Averaged: 20 (USB2+H06089)
Boxcar Smoothing: 2 (USB2+H06089)
Correct for Electrical Dark: No (USB2+H06089)
Strobe/Lamp Enabled: No (USB2+H06089)
Correct for Detector Non-linearity: No (USB2+H06089)
Correct for Stray Light: No (USB2+H06089)
Number of Pixels in Processed Spectrum: 2048
>>>>>Begin Processed Spectral Data<<<<<
339.70	1033.11
340.07	1033.11
340.45	1000.91
340.82	980.10
341.19	955.92
341.57	931.46
341.94	919.53
342.31	910.40
342.69	902.60
343.06	899.35
343.43	896.10
343.81	899.37
344.18	903.96
344.55	911.05
344.93	916.02
345.30	925.35
345.67	931.14
346.04	939.44
346.42	945.46
346.79	957.70
347.16	963.62
347.54	972.28
347.91	980.71
348.28	992.93
348.65	1000.49
349.03	1011.58
349.40	1019.56
349.77	1026.49
350.14	1034.31
350.52	1038.68
350.89	1043.72
351.26	1051.23
351.63	1057.10
352.01	1060.99
352.38	1068.88
352.75	1074.38
353.12	1075.73
353.50	1078.31
353.87	1077.25
354.24	1079.92
354.61	1082.90
354.98	1086.80
355.36	1087.13
355.73	1091.32
356.10	1092.61
356.47	1089.99
356.84	1090.50
357.22	1093.08
357.59	1094.76
357.96	1092.63
358.33	1091.81
358.70	1089.36
359.08	1086.50
359.45	1084.89
359.82	1082.59
360.19	1085.75
360.56	1084.18
360.94	1086.48
361.31	1086.17
361.68	1085.82
362.05	1084.51
362.42	1087.23
362.79	1084.23
363.16	1084.63
363.54	1087.76
363.91	1086.71
364.28	1084.98
364.65	1087.25
365.02	1082.29
365.39	1081.49
365.76	1083.55
366.14	1085.24
366.51	1082.61
366.88	1086.36
367.25	1083.86
367.62	1081.44
367.99	1078.75
368.36	1078.78
368.73	1078.52
369.10	1078.19
369.48	1076.01
369.85	1074.59
370.22	1074.24
370.59	1073.37
370.96	1075.71
371.33	1078.66
371.70	1082.50
372.07	1084.96
372.44	1082.87
372.81	1080.70
373.18	1081.40
373.55	1077.79
373.93	1077.65
374.30	1079.69
374.67	1079.15
375.04	1079.20
375.41	1082.83
375.78	1079.76
376.15	1080.37
376.52	1079.10
376.89	1077.82
377.26	1077.82
377.63	1081.54
378.00	1083.83
378.37	1088.21
378.74	1088.93
379.11	1086.62
379.48	1083.67
379.85	1078.85
380.22	1078.82
380.59	1076.76
380.96	1077.70
381.33	1079.48
381.70	1084.35
382.07	1083.88
382.44	1088.12
382.81	1090.17
383.18	1089.78
383.55	1088.65
383.92	1087.09
384.29	1084.79
384.66	1081.33
385.03	1083.11
385.40	1082.43
385.77	1085.52
386.14	1085.56
386.51	1087.34
386.88	1087.06
387.25	1085.33
387.62	1083.88
387.99	1083.76
388.36	1087.18
388.73	1085.49
389.10	1089.14
389.46	1090.62
389.83	1090.43
390.20	1086.08
390.57	1087.53
390.94	1085.68
391.31	1085.96
391.68	1085.05
392.05	1089.29
392.42	1088.16
392.79	1089.00
393.16	1085.49
393.53	1090.53
393.89	1086.29
394.26	1087.48
394.63	1086.97
395.00	1090.69
395.37	1090.01
395.74	1090.99
396.11	1094.43
396.48	1098.48
396.84	1101.71
397.21	1101.64
397.58	1101.25
397.95	1098.41
398.32	1096.75
398.69	1094.25
399.06	1093.78
399.42	1092.80
399.79	1091.56
400.16	1089.59
400.53	1088.84
400.90	1089.19
401.27	1089.68
401.64	1092.54
402.00	1091.93
402.37	1092.66
402.74	1090.41
403.11	1094.74
403.48	1095.21
403.84	1096.56
404.21	1099.35
404.58	1101.34
404.95	1101.25
405.32	1099.09
405.68	1100.50
406.05	1093.99
406.42	1092.45
406.79	1094.01
407.16	1093.80
407.52	1093.78
407.89	1099.44
408.26	1101.90
408.63	1100.38
408.99	1103.73
409.36	1100.92
409.73	1100.73
410.10	1099.09
410.47	1101.36
410.83	1098.13
411.20	1098.62
411.57	1099.14
411.94	1098.58
412.30	1096.63
412.67	1098.16
413.04	1100.17
413.40	1099.16
413.77	1101.08
414.14	1104.52
414.51	1104.92
414.87	1107.26
415.24	1106.89
415.61	1107.47
415.97	1102.88
416.34	1104.66
416.71	1104.38
417.08	1105.55
417.44	1106.86
417.81	1106.72
418.18	1105.32
418.54	1102.98
418.91	1101.83
419.28	1103.84
419.64	1106.16
420.01	1108.01
420.38	1109.27
420.74	1109.72
421.11	1110.30
421.48	1112.60
421.84	1111.71
422.21	1112.69
422.58	1118.38
422.94	1116.76
423.31	1116.11
423.68	1119.95
424.04	1122.92
424.41	1117.35
424.77	1117.51
425.14	1116.76
425.51	1113.86
425.87	1111.66
426.24	1113.84
426.61	1113.65
426.97	1117.00
427.34	1116.95
427.70	1119.17
428.07	1117.23
428.44	1119.22
428.80	1116.04
429.17	1117.54
429.53	1113.63
429.90	1116.11
430.27	1114.96
430.63	1113.56
431.00	1114.80
431.36	1116.18
431.73	1115.17
432.09	1113.09
432.46	1116.04
432.83	1114.05
433.19	1114.19
433.56	1111.87
433.92	1114.61
434.29	1117.16
434.65	1113.44
435.02	1112.92
435.38	1116.32
435.75	1113.49
436.11	1110.87
436.48	1116.37
436.84	1117.68
437.21	1115.69
437.57	1119.13
437.94	1116.93
438.30	1115.12
438.67	1115.57
439.03	1116.86
439.40	1114.52
439.76	1111.80
440.13	1111.29
440.49	1110.30
440.86	1108.50
441.22	1108.66
441.59	1113.18
441.95	1113.65
442.32	1115.73
442.68	1116.48
443.05	1115.41
443.41	1116.13
443.78	1115.03
444.14	1114.70
444.51	1116.79
444.87	1117.44
445.24	1115.64
445.60	1115.48
445.96	1112.74
446.33	1112.64
446.69	1112.99
447.06	1111.87
447.42	1113.67
447.79	1115.15
448.15	1113.72
448.51	1113.46
448.88	1114.10
449.24	1113.46
449.61	1110.12
449.97	1111.01
450.33	1108.43
450.70	1107.85
451.06	1107.00
451.43	1109.48
451.79	1110.00
452.15	1114.19
452.52	1115.01
452.88	1115.97
453.24	1117.11
453.61	1113.42
453.97	1111.87
454.34	1111.94
454.70	1108.15
455.06	1105.20
455.43	1108.59
455.79	1107.33
456.15	1111.08
456.52	1117.58
456.88	1120.48
457.24	1113.67
457.61	1116.51
457.97	1112.48
458.33	1108.92
458.70	1107.38
459.06	1115.05
459.42	1112.11
459.79	1113.32
460.15	1115.48
460.51	1116.67
460.88	1113.95
461.24	1117.51
461.60	1118.05
461.96	1118.78
462.33	1119.36
462.69	1118.78
463.05	1117.14
463.42	1116.25
463.78	1115.73
464.14	1114.87
464.50	1117.35
464.87	1117.72
465.23	1120.11
465.59	1119.74
465.95	1122.05
466.32	1123.57
466.68	1125.54
467.04	1126.76
467.40	1128.14
467.77	1129.85
468.13	1132.02
468.49	1131.23
468.85	1133.50
469.22	1135.65
469.58	1134.93
469.94	1134.01
470.30	1138.79
470.66	1138.11
471.03	1140.10
471.39	1139.91
471.75	1144.19
472.11	1148.24
472.47	1150.56
472.84	1151.52
473.20	1157.47
473.56	1158.73
473.92	1158.87
474.28	1163.22
474.65	1169.50
475.01	1172.23
475.37	1177.99
475.73	1183.42
476.09	1188.15
476.45	1191.75
476.81	1198.00
477.18	1199.71
477.54	1202.08
477.90	1207.69
478.26	1216.40
478.62	1224.71
478.98	1232.78
479.34	1242.10
479.71	1248.02
480.07	1253.78
480.43	1260.47
480.79	1271.17
481.15	1282.15
481.51	1293.47
481.87	1304.40
482.23	1313.81
482.59	1323.60
482.96	1334.97
483.32	1348.45
483.68	1361.42
484.04	1379.30
484.40	1398.35
484.76	1415.28
485.12	1432.08
485.48	1453.38
485.84	1476.06
486.20	1496.91
486.56	1519.64
486.92	1546.39
487.28	1571.37
487.64	1599.08
488.00	1630.07
488.37	1654.20
488.73	1684.37
489.09	1716.83
489.45	1745.78
489.81	1777.61
490.17	1820.80
490.53	1860.84
490.89	1902.90
491.25	1947.84
491.61	1992.92
491.97	2042.23
492.33	2096.96
492.69	2149.01
493.05	2204.15
493.41	2265.36
493.77	2330.28
494.13	2394.46
494.49	2461.94
494.85	2535.06
495.21	2612.15
495.57	2685.91
495.93	2765.97
496.29	2852.83
496.64	2949.38
497.00	3043.63
497.36	3144.67
497.72	3247.59
498.08	3362.37
498.44	3476.42
498.80	3601.85
499.16	3737.02
499.52	3875.39
499.88	4031.55
500.24	4193.30
500.60	4353.02
500.96	4516.53
501.32	4689.22
501.68	4860.61
502.03	5040.25
502.39	5256.02
502.75	5472.06
503.11	5706.27
503.47	5936.93
503.83	6190.69
504.19	6438.23
504.55	6704.49
504.91	6990.20
505.26	7274.90
505.62	7580.29
505.98	7893.95
506.34	8251.25
506.70	8616.03
507.06	9012.42
507.42	9414.08
507.78	9827.84
508.13	10238.95
508.49	10666.24
508.85	11133.58
509.21	11627.41
509.57	12166.64
509.93	12726.34
510.28	13338.32
510.64	13974.64
511.00	14596.35
511.36	15191.32
511.72	15783.17
512.07	16438.31
512.43	17066.95
512.79	17744.51
513.15	18481.46
513.51	19248.99
513.86	19971.70
514.22	20790.28
514.58	21582.08
514.94	22414.98
515.30	23264.57
515.65	24124.49
516.01	24976.61
516.37	25863.95
516.73	26684.66
517.08	27574.97
517.44	28419.14
517.80	29246.33
518.16	30096.83
518.51	30914.64
518.87	31679.15
519.23	32541.10
519.59	33450.49
519.94	34316.58
520.30	35210.53
520.66	35981.62
521.01	36785.54
521.37	37461.30
521.73	38091.38
522.09	38692.73
522.44	39362.15
522.80	39773.19
523.16	40123.90
523.51	40372.37
523.87	40657.98
524.23	40915.91
524.58	41203.26
524.94	41588.56
525.30	41949.94
525.65	42153.70
526.01	42198.97
526.37	42208.89
526.72	42108.37
527.08	41961.78
527.44	41778.02
527.79	41615.61
528.15	41491.43
528.51	41255.36
528.86	41020.18
529.22	40776.84
529.58	40506.69
529.93	40114.63
530.29	39689.40
530.65	39297.52
531.00	38941.41
531.36	38504.06
531.71	38049.95
532.07	37560.99
532.43	36961.46
532.78	36272.52
533.14	35669.02
533.49	35072.46
533.85	34466.57
534.21	33880.21
534.56	33328.08
534.92	32738.90
535.27	32111.71
535.63	31490.13
535.98	30834.92
536.34	30209.11
536.69	29552.66
537.05	28934.36
537.41	28406.87
537.76	27923.76
538.12	27349.39
538.47	26850.11
538.83	26392.77
539.18	25916.21
539.54	25418.36
539.89	24943.81
540.25	24415.23
540.60	23906.61
540.96	23384.29
541.31	22906.68
541.67	22494.65
542.02	22096.62
542.38	21669.45
542.73	21226.25
543.09	20820.33
543.44	20464.08
543.80	20120.16
544.15	19717.16
544.51	19373.15
544.86	19039.39
545.22	18643.68
545.57	18242.39
545.93	17880.43
546.28	17560.74
546.64	17239.17
546.99	16905.34
547.35	16576.87
547.70	16265.74
548.05	15937.69
548.41	15612.61
548.76	15309.23
549.12	15039.39
549.47	14778.61
549.83	14510.62
550.18	14199.07
550.53	13876.90
550.89	13585.34
551.24	13306.55
551.60	13010.69
551.95	12752.20
552.30	12517.40
552.66	12280.81
553.01	12008.70
553.37	11743.52
553.72	11467.81
554.07	11189.94
554.43	10886.49
554.78	10614.26
555.13	10347.65
555.49	10121.25
555.84	9930.10
556.19	9746.08
556.55	9542.97
556.90	9349.95
557.26	9147.70
557.61	8922.96
557.96	8686.76
558.32	8485.82
558.67	8289.01
559.02	8061.23
559.37	7875.95
559.73	7725.41
560.08	7573.83
560.43	7414.49
560.79	7299.12
561.14	7143.97
561.49	6977.98
561.85	6807.87
562.20	6649.04
562.55	6506.50
562.90	6380.98
563.26	6255.43
563.61	6141.87
563.96	6027.93
564.32	5897.71
564.67	5766.07
565.02	5643.31
565.37	5532.79
565.73	5428.12
566.08	5321.91
566.43	5213.99
566.78	5111.82
567.14	5000.06
567.49	4884.16
567.84	4786.14
568.19	4684.79
568.54	4587.52
568.90	4503.80
569.25	4429.77
569.60	4353.42
569.95	4281.12
570.31	4204.16
570.66	4124.42
571.01	4039.60
571.36	3951.55
571.71	3873.63
572.06	3807.19
572.42	3743.80
572.77	3683.21
573.12	3625.21
573.47	3567.66
573.82	3502.00
574.18	3435.27
574.53	3376.11
574.88	3327.21
575.23	3274.78
575.58	3224.28
575.93	3174.21
576.28	3117.20
576.64	3055.87
576.99	2996.85
577.34	2945.40
577.69	2892.83
578.04	2845.34
578.39	2795.23
578.74	2754.04
579.09	2711.44
579.44	2670.27
579.80	2629.50
580.15	2589.33
580.50	2553.17
580.85	2517.27
581.20	2481.95
581.55	2451.13
581.90	2424.09
582.25	2390.83
582.60	2353.50
582.95	2319.19
583.30	2276.36
583.65	2232.22
584.00	2195.52
584.35	2164.88
584.71	2132.25
585.06	2108.82
585.41	2084.69
585.76	2058.52
586.11	2031.00
586.46	2005.44
586.81	1984.96
587.16	1963.05
587.51	1941.03
587.86	1918.14
588.21	1899.32
588.56	1872.31
588.91	1852.56
589.26	1832.05
589.61	1816.44
589.96	1797.16
590.31	1782.04
590.66	1765.56
591.01	1747.72
591.36	1729.77
591.71	1712.55
592.06	1697.26
592.41	1679.55
592.76	1664.00
593.10	1647.64
593.45	1632.76
593.80	1617.90
594.15	1605.82
594.50	1594.00
594.85	1581.13
595.20	1571.79
595.55	1560.72
595.90	1551.10
596.25	1539.67
596.60	1530.17
596.95	1519.05
597.30	1506.28
597.64	1546.23
597.99	1541.57
598.34	1535.53
598.69	1530.50
599.04	1524.60
599.39	1463.19
599.74	1451.44
600.09	1437.74
600.44	1425.90
600.78	1415.09
601.13	1407.90
601.48	1402.47
601.83	1399.66
602.18	1389.46
602.53	1380.17
602.88	1375.32
603.22	1366.69
603.57	1359.55
603.92	1354.68
604.27	1352.78
604.62	1347.38
604.97	1340.78
605.31	1335.56
605.66	1326.19
606.01	1318.28
606.36	1308.69
606.71	1303.26
607.05	1290.31
607.40	1289.42
607.75	1285.91
608.10	1283.11
608.44	1278.75
608.79	1279.17
609.14	1275.55
609.49	1272.01
609.84	1270.72
610.18	1266.93
610.53	1264.08
610.88	1260.28
611.23	1256.77
611.57	1251.53
611.92	1248.04
612.27	1247.81
612.62	1246.24
612.96	1238.71
613.31	1232.85
613.66	1227.10
614.00	1218.18
614.35	1215.88
614.70	1217.71
615.05	1215.11
615.39	1214.69
615.74	1210.76
616.09	1199.90
616.43	1195.85
616.78	1194.68
617.13	1192.34
617.47	1196.04
617.82	1199.78
618.17	1198.73
618.51	1200.65
618.86	1196.44
619.21	1191.47
619.55	1187.59
619.90	1185.41
620.25	1176.94
620.59	1175.65
620.94	1173.43
621.29	1169.38
621.63	1166.62
621.98	1165.21
622.32	1164.81
622.67	1165.73
623.02	1167.23
623.36	1167.55
623.71	1166.01
624.05	1161.70
624.40	1157.44
624.75	1152.01
625.09	1147.42
625.44	1147.12
625.78	1146.49
626.13	1145.04
626.48	1146.02
626.82	1144.64
627.17	1142.20
627.51	1143.54
627.86	1142.09
628.20	1143.33
628.55	1140.45
628.89	1140.64
629.24	1141.13
629.58	1139.89
629.93	1136.10
630.28	1136.31
630.62	1135.02
630.97	1132.21
631.31	1131.70
631.66	1134.06
632.00	1134.06
632.35	1134.74
632.69	1133.64
633.04	1129.94
633.38	1123.83
633.73	1122.22
634.07	1121.65
634.42	1117.93
634.76	1121.56
635.11	1122.08
635.45	1123.93
635.79	1118.80
636.14	1118.87
636.48	1117.44
636.83	1118.42
637.17	1112.88
637.52	1114.24
637.86	1113.25
638.21	1113.37
638.55	1112.71
638.89	1116.79
639.24	1117.79
639.58	1117.98
639.93	1114.52
640.27	1114.75
640.61	1113.95
640.96	1110.96
641.30	1109.65
641.65	1110.54
641.99	1108.99
642.33	1106.98
642.68	1106.16
643.02	1109.37
643.37	1110.05
643.71	1110.49
644.05	1109.79
644.40	1110.19
644.74	1107.28
645.08	1106.63
645.43	1106.11
645.77	1104.03
646.11	1102.72
646.46	1104.80
646.80	1104.87
647.14	1104.92
647.49	1105.32
647.83	1104.90
648.17	1102.77
648.52	1101.90
648.86	1101.18
649.20	1104.08
649.55	1103.70
649.89	1103.56
650.23	1105.06
650.57	1107.87
650.92	1109.86
651.26	1110.40
651.60	1106.00
651.95	1103.38
652.29	1096.92
652.63	1093.01
652.97	1093.92
653.32	1097.55
653.66	1099.35
654.00	1100.92
654.34	1099.89
654.69	1101.81
655.03	1101.95
655.37	1098.72
655.71	1101.41
656.05	1102.02
656.40	1100.10
656.74	1100.12
657.08	1100.31
657.42	1097.83
657.76	1097.17
658.11	1097.22
658.45	1098.51
658.79	1097.15
659.13	1096.35
659.47	1099.05
659.82	1096.92
660.16	1094.67
660.50	1096.21
660.84	1094.90
661.18	1094.08
661.52	1097.20
661.87	1098.32
662.21	1097.29
662.55	1098.81
662.89	1100.10
663.23	1097.88
663.57	1098.20
663.91	1099.30
664.25	1099.61
664.60	1098.41
664.94	1097.76
665.28	1095.07
665.62	1095.70
665.96	1095.16
666.30	1093.85
666.64	1093.29
666.98	1096.52
667.32	1094.08
667.66	1090.90
668.01	1090.64
668.35	1092.61
668.69	1090.06
669.03	1091.04
669.37	1092.19
669.71	1087.74
670.05	1086.52
670.39	1087.20
670.73	1087.90
671.07	1088.65
671.41	1090.13
671.75	1091.98
672.09	1092.35
672.43	1092.07
672.77	1094.29
673.11	1094.27
673.45	1089.99
673.79	1087.76
674.13	1085.91
674.47	1081.98
674.81	1086.10
675.15	1088.30
675.49	1087.97
675.83	1088.14
676.17	1093.26
676.51	1090.48
676.85	1091.91
677.19	1091.95
677.53	1092.84
677.87	1089.52
678.21	1088.75
678.55	1089.89
678.89	1091.77
679.23	1090.95
679.57	1094.72
679.90	1098.34
680.24	1094.83
680.58	1091.18
680.92	1092.61
681.26	1090.95
681.60	1087.65
681.94	1089.68
682.28	1092.26
682.62	1095.25
682.96	1093.94
683.29	1096.56
683.63	1098.32
683.97	1095.30
684.31	1091.25
684.65	1092.91
684.99	1092.05
685.33	1089.12
685.67	1091.23
686.00	1090.85
686.34	1087.79
686.68	1088.49
687.02	1092.00
687.36	1092.35
687.70	1095.72
688.03	1094.81
688.37	1094.27
688.71	1089.61
689.05	1090.32
689.39	1089.33
689.72	1094.11
690.06	1094.97
690.40	1097.36
690.74	1098.11
691.08	1095.60
691.41	1094.22
691.75	1091.23
692.09	1090.46
692.43	1088.47
692.76	1090.71
693.10	1090.43
693.44	1093.94
693.78	1092.49
694.11	1098.48
694.45	1097.10
694.79	1096.03
695.13	1094.15
695.46	1097.50
695.80	1092.80
696.14	1094.32
696.48	1098.98
696.81	1098.79
697.15	1095.51
697.49	1092.05
697.82	1089.12
698.16	1086.38
698.50	1084.42
698.83	1087.27
699.17	1092.49
699.51	1096.19
699.84	1093.78
700.18	1094.83
700.52	1093.38
700.85	1092.23
701.19	1088.23
701.53	1089.40
701.86	1091.63
702.20	1089.33
702.54	1084.18
702.87	1086.31
703.21	1087.48
703.55	1086.01
703.88	1089.87
704.22	1095.46
704.55	1094.95
704.89	1095.53
705.23	1095.32
705.56	1094.97
705.90	1093.15
706.23	1095.30
706.57	1095.51
706.91	1096.31
707.24	1093.31
707.58	1090.55
707.91	1088.84
708.25	1086.99
708.58	1084.11
708.92	1085.80
709.26	1090.13
709.59	1088.09
709.93	1085.84
710.26	1087.06
710.60	1085.73
710.93	1084.30
711.27	1085.49
711.60	1090.46
711.94	1091.34
712.27	1092.54
712.61	1091.20
712.94	1088.91
713.28	1084.79
713.61	1084.09
713.95	1085.82
714.28	1088.96
714.62	1093.80
714.95	1093.19
715.29	1092.70
715.62	1091.06
715.96	1091.60
716.29	1091.56
716.63	1092.87
716.96	1095.60
717.29	1092.98
717.63	1091.30
717.96	1089.45
718.30	1089.64
718.63	1084.79
718.97	1086.83
719.30	1085.96
719.63	1086.59
719.97	1086.29
720.30	1089.75
720.64	1090.03
720.97	1089.96
721.30	1089.17
721.64	1089.47
721.97	1089.07
722.31	1088.82
722.64	1089.40
722.97	1087.23
723.31	1088.26
723.64	1087.93
723.97	1088.28
724.31	1089.12
724.64	1088.12
724.98	1086.03
725.31	1082.17
725.64	1080.77
725.98	1080.46
726.31	1083.34
726.64	1085.73
726.97	1089.24
727.31	1091.98
727.64	1090.39
727.97	1089.64
728.31	1087.72
728.64	1089.22
728.97	1087.13
729.31	1085.75
729.64	1088.61
729.97	1087.60
730.30	1085.17
730.64	1083.08
730.97	1086.50
731.30	1085.05
731.63	1086.01
731.97	1090.10
732.30	1091.63
732.63	1089.03
732.96	1086.08
733.30	1087.62
733.63	1088.14
733.96	1089.64
734.29	1090.88
734.63	1091.58
734.96	1088.79
735.29	1087.06
735.62	1087.11
735.95	1085.45
736.29	1084.98
736.62	1089.33
736.95	1088.09
737.28	1088.19
737.61	1091.49
737.94	1094.55
738.28	1092.28
738.61	1091.77
738.94	1090.01
739.27	1089.45
739.60	1088.91
739.93	1085.52
740.27	1084.77
740.60	1083.97
740.93	1082.45
741.26	1081.00
741.59	1082.87
741.92	1084.09
742.25	1084.32
742.58	1081.23
742.91	1084.30
743.25	1082.01
743.58	1081.07
743.91	1080.63
744.24	1083.71
744.57	1080.81
744.90	1086.29
745.23	1083.67
745.56	1086.76
745.89	1090.34
746.22	1090.24
746.55	1087.81
746.88	1093.03
747.21	1092.63
747.54	1087.93
747.87	1091.77
748.20	1090.90
748.53	1090.08
748.87	1085.91
749.20	1087.67
749.53	1084.53
749.86	1083.74
750.19	1083.46
750.52	1090.32
750.85	1088.91
751.18	1090.08
751.51	1092.40
751.84	1093.38
752.16	1091.86
752.49	1090.83
752.82	1090.64
753.15	1086.45
753.48	1082.17
753.81	1077.86
754.14	1079.78
754.47	1075.64
754.80	1080.13
755.13	1084.93
755.46	1088.68
755.79	1090.08
756.12	1094.72
756.45	1094.25
756.78	1091.70
757.11	1089.19
757.43	1086.90
757.76	1086.71
758.09	1084.09
758.42	1081.30
758.75	1079.74
759.08	1079.13
759.41	1077.02
759.74	1078.71
760.07	1080.41
760.39	1084.77
760.72	1084.65
761.05	1082.94
761.38	1086.62
761.71	1089.40
762.04	1089.94
762.36	1090.15
762.69	1093.50
763.02	1090.60
763.35	1090.95
