SpectraSuite Data File
++++++++++++++++++++++++++++++++++++
Date: Mon Aug 26 10:26:37 PDT 2019
User: corrico
Dark Spectrum Present: No
Reference Spectrum Present: No
Number of Sampled Component Spectra: 1
Spectrometers: USB2+H06089
Integration Time (usec): 10000 (USB2+H06089)
Spectra Averaged: 20 (USB2+H06089)
Boxcar Smoothing: 2 (USB2+H06089)
Correct for Electrical Dark: No (USB2+H06089)
Strobe/Lamp Enabled: No (USB2+H06089)
Correct for Detector Non-linearity: No (USB2+H06089)
Correct for Stray Light: No (USB2+H06089)
Number of Pixels in Processed Spectrum: 2048
>>>>>Begin Processed Spectral Data<<<<<
339.70	1030.65
340.07	1030.65
340.45	997.49
340.82	977.29
341.19	956.44
341.57	934.39
341.94	924.70
342.31	915.15
342.69	907.19
343.06	901.88
343.43	897.48
343.81	897.71
344.18	901.08
344.55	907.59
344.93	913.25
345.30	919.53
345.67	927.02
346.04	935.61
346.42	940.87
346.79	949.46
347.16	961.23
347.54	968.68
347.91	978.79
348.28	991.52
348.65	1001.63
349.03	1010.06
349.40	1016.33
349.77	1025.22
350.14	1032.71
350.52	1038.10
350.89	1042.17
351.26	1048.61
351.63	1051.56
352.01	1057.83
352.38	1063.94
352.75	1067.52
353.12	1071.73
353.50	1076.60
353.87	1078.71
354.24	1080.30
354.61	1086.99
354.98	1090.15
355.36	1090.27
355.73	1089.71
356.10	1090.57
356.47	1088.91
356.84	1090.13
357.22	1089.64
357.59	1086.94
357.96	1084.91
358.33	1085.12
358.70	1083.41
359.08	1086.20
359.45	1088.93
359.82	1092.66
360.19	1088.19
360.56	1086.52
360.94	1083.01
361.31	1081.09
361.68	1081.96
362.05	1086.62
362.42	1085.21
362.79	1086.27
363.16	1085.99
363.54	1078.61
363.91	1072.29
364.28	1075.36
364.65	1073.44
365.02	1075.05
365.39	1078.92
365.76	1081.02
366.14	1079.90
366.51	1079.27
366.88	1077.18
367.25	1075.05
367.62	1075.01
367.99	1076.67
368.36	1076.08
368.73	1076.46
369.10	1078.40
369.48	1080.13
369.85	1079.60
370.22	1080.32
370.59	1081.42
370.96	1082.26
371.33	1077.98
371.70	1077.14
372.07	1079.06
372.44	1074.82
372.81	1070.77
373.18	1074.10
373.55	1073.51
373.93	1071.92
374.30	1077.98
374.67	1081.56
375.04	1080.84
375.41	1082.78
375.78	1082.99
376.15	1081.61
376.52	1080.18
376.89	1079.83
377.26	1077.93
377.63	1077.77
378.00	1076.67
378.37	1077.25
378.74	1081.37
379.11	1081.91
379.48	1082.78
379.85	1084.28
380.22	1083.25
380.59	1082.90
380.96	1086.69
381.33	1087.83
381.70	1085.63
382.07	1087.44
382.44	1086.73
382.81	1082.22
383.18	1080.39
383.55	1081.07
383.92	1082.90
384.29	1081.75
384.66	1085.00
385.03	1087.65
385.40	1090.85
385.77	1089.80
386.14	1092.07
386.51	1091.63
386.88	1090.74
387.25	1087.34
387.62	1084.89
387.99	1083.08
388.36	1082.24
388.73	1086.13
389.10	1086.78
389.46	1087.88
389.83	1085.31
390.20	1085.56
390.57	1080.67
390.94	1082.19
391.31	1084.16
391.68	1086.01
392.05	1085.12
392.42	1086.36
392.79	1086.92
393.16	1087.55
393.53	1087.55
393.89	1087.11
394.26	1087.27
394.63	1086.08
395.00	1084.07
395.37	1084.84
395.74	1088.23
396.11	1090.15
396.48	1091.49
396.84	1092.19
397.21	1090.39
397.58	1091.79
397.95	1089.33
398.32	1089.17
398.69	1086.94
399.06	1089.31
399.42	1086.29
399.79	1086.34
400.16	1084.02
400.53	1088.79
400.90	1089.78
401.27	1093.22
401.64	1096.75
402.00	1099.23
402.37	1098.48
402.74	1099.72
403.11	1095.39
403.48	1094.69
403.84	1096.35
404.21	1093.26
404.58	1094.67
404.95	1096.42
405.32	1098.27
405.68	1095.16
406.05	1094.86
406.42	1095.82
406.79	1095.04
407.16	1094.53
407.52	1094.83
407.89	1097.20
408.26	1095.21
408.63	1097.99
408.99	1092.91
409.36	1098.02
409.73	1100.12
410.10	1102.46
410.47	1104.03
410.83	1109.81
411.20	1104.80
411.57	1103.07
411.94	1100.61
412.30	1101.78
412.67	1099.51
413.04	1101.85
413.40	1104.17
413.77	1105.67
414.14	1101.36
414.51	1102.72
414.87	1102.67
415.24	1101.92
415.61	1101.32
415.97	1104.85
416.34	1103.96
416.71	1104.43
417.08	1103.75
417.44	1101.57
417.81	1100.73
418.18	1101.76
418.54	1103.68
418.91	1104.08
419.28	1107.49
419.64	1107.49
420.01	1107.05
420.38	1105.20
420.74	1105.15
421.11	1105.06
421.48	1104.71
421.84	1107.00
422.21	1105.62
422.58	1107.75
422.94	1108.08
423.31	1108.57
423.68	1106.21
424.04	1110.37
424.41	1109.79
424.77	1110.94
425.14	1112.32
425.51	1115.83
425.87	1114.45
426.24	1115.55
426.61	1113.56
426.97	1110.42
427.34	1108.81
427.70	1108.92
428.07	1106.35
428.44	1102.46
428.80	1104.31
429.17	1104.24
429.53	1105.22
429.90	1106.16
430.27	1111.59
430.63	1114.82
431.00	1114.98
431.36	1114.17
431.73	1114.56
432.09	1113.72
432.46	1110.44
432.83	1110.79
433.19	1113.16
433.56	1115.29
433.92	1113.63
434.29	1113.72
434.65	1113.98
435.02	1112.13
435.38	1110.05
435.75	1112.92
436.11	1112.74
436.48	1113.32
436.84	1112.76
437.21	1112.76
437.57	1110.63
437.94	1112.88
438.30	1110.35
438.67	1112.43
439.03	1114.56
439.40	1115.34
439.76	1113.28
440.13	1117.07
440.49	1114.82
440.86	1110.91
441.22	1113.30
441.59	1115.99
441.95	1112.99
442.32	1110.68
442.68	1114.80
443.05	1114.17
443.41	1112.36
443.78	1108.59
444.14	1110.37
444.51	1110.07
444.87	1108.92
445.24	1108.36
445.60	1111.71
445.96	1111.68
446.33	1113.72
446.69	1112.97
447.06	1111.71
447.42	1110.05
447.79	1111.92
448.15	1103.40
448.51	1105.27
448.88	1105.22
449.24	1108.03
449.61	1105.53
449.97	1109.55
450.33	1105.74
450.70	1105.76
451.06	1104.50
451.43	1106.68
451.79	1108.59
452.15	1114.89
452.52	1117.23
452.88	1120.25
453.24	1121.26
453.61	1120.46
453.97	1116.51
454.34	1117.54
454.70	1118.64
455.06	1115.41
455.43	1113.84
455.79	1112.15
456.15	1108.71
456.52	1106.25
456.88	1108.34
457.24	1112.06
457.61	1113.23
457.97	1115.45
458.33	1114.05
458.70	1112.92
459.06	1110.21
459.42	1109.62
459.79	1107.12
460.15	1109.77
460.51	1113.18
460.88	1114.52
461.24	1114.68
461.60	1118.40
461.96	1115.55
462.33	1112.60
462.69	1115.08
463.05	1118.42
463.42	1117.86
463.78	1118.57
464.14	1123.20
464.50	1120.70
464.87	1119.31
465.23	1122.15
465.59	1124.60
465.95	1121.70
466.32	1121.80
466.68	1120.51
467.04	1117.75
467.40	1118.82
467.77	1123.48
468.13	1127.48
468.49	1131.30
468.85	1132.98
469.22	1134.50
469.58	1133.50
469.94	1133.69
470.30	1133.08
470.66	1136.99
471.03	1138.79
471.39	1140.19
471.75	1144.69
472.11	1148.52
472.47	1152.18
472.84	1156.37
473.20	1158.71
473.56	1157.25
473.92	1159.01
474.28	1162.50
474.65	1163.48
475.01	1167.32
475.37	1170.69
475.73	1178.65
476.09	1178.65
476.45	1184.33
476.81	1185.86
477.18	1193.56
477.54	1197.46
477.90	1207.13
478.26	1215.02
478.62	1222.84
478.98	1229.58
479.34	1236.58
479.71	1243.88
480.07	1248.84
480.43	1258.23
480.79	1264.64
481.15	1272.78
481.51	1279.95
481.87	1290.95
482.23	1304.12
482.59	1318.19
482.96	1329.73
483.32	1345.15
483.68	1355.94
484.04	1372.51
484.40	1388.41
484.76	1411.27
485.12	1429.06
485.48	1453.92
485.84	1472.55
486.20	1492.84
486.56	1514.65
486.92	1536.12
487.28	1560.55
487.64	1585.15
488.00	1613.78
488.37	1641.16
488.73	1675.89
489.09	1706.48
489.45	1743.37
489.81	1780.77
490.17	1820.14
490.53	1857.19
490.89	1902.50
491.25	1945.31
491.61	1989.95
491.97	2031.70
492.33	2083.31
492.69	2130.80
493.05	2186.81
493.41	2247.48
493.77	2314.42
494.13	2380.23
494.49	2451.17
494.85	2524.62
495.21	2598.72
495.57	2677.62
495.93	2756.17
496.29	2844.57
496.64	2931.59
497.00	3025.10
497.36	3121.20
497.72	3227.27
498.08	3330.96
498.44	3448.99
498.80	3572.73
499.16	3706.92
499.52	3848.50
499.88	3999.74
500.24	4157.14
500.60	4306.38
500.96	4471.20
501.32	4637.02
501.68	4817.34
502.03	5001.84
502.39	5221.01
502.75	5432.62
503.11	5661.38
503.47	5886.66
503.83	6135.32
504.19	6377.73
504.55	6644.36
504.91	6915.42
505.26	7195.77
505.62	7489.34
505.98	7812.66
506.34	8148.39
506.70	8513.00
507.06	8902.51
507.42	9314.56
507.78	9728.53
508.13	10140.53
508.49	10579.15
508.85	11047.80
509.21	11519.93
509.57	12043.72
509.93	12613.83
510.28	13193.46
510.64	13801.27
511.00	14420.86
511.36	15001.80
511.72	15576.59
512.07	16239.81
512.43	16867.49
512.79	17526.68
513.15	18253.81
513.51	19008.80
513.86	19727.86
514.22	20542.41
514.58	21347.89
514.94	22170.33
515.30	23031.06
515.65	23854.74
516.01	24712.57
516.37	25562.54
516.73	26360.12
517.08	27211.47
517.44	28034.19
517.80	28831.91
518.16	29682.88
518.51	30505.51
518.87	31261.20
519.23	32134.53
519.59	33001.79
519.94	33838.60
520.30	34706.26
520.66	35486.83
521.01	36311.35
521.37	37003.21
521.73	37628.79
522.09	38246.32
522.44	38892.75
522.80	39257.17
523.16	39596.34
523.51	39849.02
523.87	40120.50
524.23	40367.45
524.58	40666.15
524.94	41073.36
525.30	41418.19
525.65	41623.36
526.01	41685.69
526.37	41694.23
526.72	41604.29
527.08	41472.37
527.44	41300.86
527.79	41149.99
528.15	41044.41
528.51	40805.65
528.86	40572.84
529.22	40342.74
529.58	40063.32
529.93	39667.84
530.29	39238.99
530.65	38884.07
531.00	38505.96
531.36	38061.58
531.71	37602.58
532.07	37113.34
532.43	36508.12
532.78	35849.92
533.14	35275.74
533.49	34693.64
533.85	34089.81
534.21	33497.30
534.56	32936.84
534.92	32344.66
535.27	31742.70
535.63	31128.91
535.98	30498.37
536.34	29875.96
536.69	29224.16
537.05	28593.06
537.41	28085.12
537.76	27595.71
538.12	27040.82
538.47	26550.78
538.83	26103.48
539.18	25619.32
539.54	25130.21
539.89	24666.63
540.25	24144.01
540.60	23649.87
540.96	23136.27
541.31	22653.23
541.67	22236.24
542.02	21846.37
542.38	21419.65
542.73	20984.96
543.09	20586.21
543.44	20214.83
543.80	19868.95
544.15	19467.73
544.51	19140.74
544.86	18824.65
545.22	18459.92
545.57	18072.75
545.93	17717.57
546.28	17397.65
546.64	17063.14
546.99	16715.54
547.35	16389.11
547.70	16091.46
548.05	15783.85
548.41	15471.50
548.76	15179.47
549.12	14904.77
549.47	14634.20
549.83	14368.50
550.18	14065.66
550.53	13748.92
550.89	13470.16
551.24	13200.74
551.60	12892.84
551.95	12629.06
552.30	12400.93
552.66	12160.63
553.01	11897.93
553.37	11633.00
553.72	11364.19
554.07	11102.99
554.43	10815.57
554.78	10531.66
555.13	10265.22
555.49	10052.76
555.84	9846.45
556.19	9657.94
556.55	9469.34
556.90	9289.31
557.26	9083.17
557.61	8867.07
557.96	8632.08
558.32	8436.98
558.67	8226.91
559.02	7997.52
559.37	7805.69
559.73	7654.46
560.08	7486.30
560.43	7336.90
560.79	7225.56
561.14	7076.49
561.49	6900.91
561.85	6738.52
562.20	6585.78
562.55	6443.99
562.90	6315.23
563.26	6202.58
563.61	6097.73
563.96	5991.23
564.32	5868.00
564.67	5744.28
565.02	5618.27
565.37	5508.17
565.73	5392.57
566.08	5289.07
566.43	5185.57
566.78	5083.34
567.14	4971.44
567.49	4861.41
567.84	4757.98
568.19	4652.26
568.54	4560.74
568.90	4471.66
569.25	4395.08
569.60	4322.64
569.95	4250.65
570.31	4176.29
570.66	4099.05
571.01	4014.56
571.36	3920.47
571.71	3842.60
572.06	3771.14
572.42	3705.23
572.77	3649.27
573.12	3595.44
573.47	3539.12
573.82	3478.48
574.18	3412.85
574.53	3349.82
574.88	3295.50
575.23	3241.67
575.58	3191.74
575.93	3146.24
576.28	3093.63
576.64	3034.60
576.99	2975.24
577.34	2921.41
577.69	2865.12
578.04	2814.87
578.39	2768.71
578.74	2728.57
579.09	2688.88
579.44	2649.51
579.80	2609.58
580.15	2565.23
580.50	2526.63
580.85	2490.42
581.20	2459.06
581.55	2431.00
581.90	2406.70
582.25	2371.92
582.60	2335.85
582.95	2298.76
583.30	2258.03
583.65	2220.68
584.00	2189.45
584.35	2160.78
584.71	2126.77
585.06	2099.16
585.41	2069.92
585.76	2043.45
586.11	2016.44
586.46	1995.35
586.81	1973.91
587.16	1953.48
587.51	1931.88
587.86	1912.36
588.21	1891.76
588.56	1871.23
588.91	1851.32
589.26	1834.07
589.61	1812.32
589.96	1796.99
590.31	1778.60
590.66	1763.13
591.01	1744.52
591.36	1730.90
591.71	1710.37
592.06	1695.69
592.41	1680.01
592.76	1664.89
593.10	1647.18
593.45	1635.36
593.80	1617.75
594.15	1603.81
594.50	1591.12
594.85	1576.07
595.20	1562.59
595.55	1553.74
595.90	1547.16
596.25	1538.04
596.60	1525.07
596.95	1517.18
597.30	1505.46
597.64	1542.23
597.99	1533.05
598.34	1528.35
598.69	1518.42
599.04	1512.45
599.39	1451.95
599.74	1441.79
600.09	1430.68
600.44	1424.10
600.78	1414.46
601.13	1408.46
601.48	1400.95
601.83	1397.93
602.18	1388.31
602.53	1380.89
602.88	1373.52
603.22	1366.31
603.57	1358.63
603.92	1351.66
604.27	1346.18
604.62	1337.83
604.97	1328.35
605.31	1322.52
605.66	1315.69
606.01	1308.97
606.36	1302.48
606.71	1301.43
607.05	1293.64
607.40	1289.21
607.75	1285.47
608.10	1285.96
608.44	1283.11
608.79	1282.99
609.14	1283.88
609.49	1280.02
609.84	1274.09
610.18	1272.13
610.53	1266.44
610.88	1259.75
611.23	1256.84
611.57	1251.51
611.92	1245.24
612.27	1241.98
612.62	1234.09
612.96	1229.20
613.31	1227.52
613.66	1223.52
614.00	1217.92
614.35	1217.66
614.70	1213.22
615.05	1209.54
615.39	1204.95
615.74	1203.08
616.09	1200.30
616.43	1201.37
616.78	1200.02
617.13	1198.66
617.47	1196.95
617.82	1194.70
618.17	1192.78
618.51	1191.59
618.86	1187.63
619.21	1184.43
619.55	1181.36
619.90	1177.73
620.25	1173.69
620.59	1171.81
620.94	1173.15
621.29	1173.54
621.63	1166.41
621.98	1163.27
622.32	1159.13
622.67	1155.73
623.02	1152.46
623.36	1155.10
623.71	1156.13
624.05	1160.04
624.40	1158.14
624.75	1156.41
625.09	1153.25
625.44	1150.33
625.78	1147.38
626.13	1145.83
626.48	1147.56
626.82	1150.00
627.17	1150.19
627.51	1151.45
627.86	1149.25
628.20	1142.88
628.55	1141.03
628.89	1138.79
629.24	1135.04
629.58	1133.59
629.93	1133.33
630.28	1129.31
630.62	1126.99
630.97	1123.64
631.31	1122.12
631.66	1123.64
632.00	1124.86
632.35	1124.67
632.69	1124.32
633.04	1124.44
633.38	1121.35
633.73	1121.77
634.07	1123.57
634.42	1122.31
634.76	1120.88
635.11	1118.05
635.45	1114.02
635.79	1109.11
636.14	1110.82
636.48	1112.60
636.83	1115.24
637.17	1115.38
637.52	1116.65
637.86	1114.33
638.21	1113.91
638.55	1113.67
638.89	1114.21
639.24	1110.35
639.58	1109.55
639.93	1107.61
640.27	1107.05
640.61	1106.30
640.96	1107.12
641.30	1109.67
641.65	1109.04
641.99	1109.18
642.33	1106.75
642.68	1107.78
643.02	1106.54
643.37	1104.99
643.71	1104.38
644.05	1106.72
644.40	1104.94
644.74	1104.43
645.08	1103.23
645.43	1103.45
645.77	1101.46
646.11	1101.85
646.46	1101.99
646.80	1105.81
647.14	1108.76
647.49	1109.84
647.83	1114.10
648.17	1112.20
648.52	1107.05
648.86	1104.90
649.20	1106.11
649.55	1100.19
649.89	1100.26
650.23	1100.00
650.57	1096.26
650.92	1094.55
651.26	1094.55
651.60	1096.33
651.95	1097.34
652.29	1097.50
652.63	1095.63
652.97	1097.34
653.32	1097.59
653.66	1099.68
654.00	1099.96
654.34	1100.73
654.69	1101.62
655.03	1097.38
655.37	1094.76
655.71	1096.45
656.05	1094.11
656.40	1089.07
656.74	1089.10
657.08	1087.44
657.42	1086.20
657.76	1088.68
658.11	1092.33
658.45	1094.11
658.79	1098.51
659.13	1099.05
659.47	1098.27
659.82	1098.69
660.16	1097.48
660.50	1095.02
660.84	1093.31
661.18	1095.32
661.52	1093.15
661.87	1091.67
662.21	1095.35
662.55	1097.99
662.89	1096.49
663.23	1097.88
663.57	1098.55
663.91	1094.86
664.25	1089.78
664.60	1091.67
664.94	1092.45
665.28	1092.61
665.62	1092.16
665.96	1095.86
666.30	1095.63
666.64	1097.20
666.98	1097.55
667.32	1096.78
667.66	1097.69
668.01	1095.60
668.35	1094.08
668.69	1098.25
669.03	1101.64
669.37	1101.90
669.71	1101.67
670.05	1098.27
670.39	1093.90
670.73	1091.93
671.07	1088.84
671.41	1089.14
671.75	1090.53
672.09	1092.33
672.43	1090.15
672.77	1090.99
673.11	1090.57
673.45	1094.06
673.79	1091.18
674.13	1093.12
674.47	1093.97
674.81	1093.26
675.15	1086.31
675.49	1088.77
675.83	1091.18
676.17	1089.26
676.51	1090.88
676.85	1094.29
677.19	1092.98
677.53	1093.08
677.87	1093.40
678.21	1089.92
678.55	1089.52
678.89	1090.92
679.23	1088.77
679.57	1088.68
679.90	1091.27
680.24	1094.13
680.58	1093.08
680.92	1091.32
681.26	1092.49
681.60	1092.02
681.94	1089.40
682.28	1092.37
682.62	1095.93
682.96	1098.11
683.29	1099.30
683.63	1097.90
683.97	1092.52
684.31	1090.24
684.65	1088.07
684.99	1086.38
685.33	1091.60
685.67	1093.87
686.00	1096.54
686.34	1095.16
686.68	1092.82
687.02	1091.13
687.36	1092.23
687.70	1088.12
688.03	1088.79
688.37	1088.65
688.71	1087.25
689.05	1083.06
689.39	1086.36
689.72	1085.80
690.06	1087.95
690.40	1088.58
690.74	1091.91
691.08	1090.34
691.41	1090.46
691.75	1091.20
692.09	1092.89
692.43	1094.50
692.76	1096.78
693.10	1098.04
693.44	1098.48
693.78	1097.17
694.11	1095.14
694.45	1091.84
694.79	1090.57
695.13	1091.30
695.46	1089.50
695.80	1088.47
696.14	1088.42
696.48	1092.63
696.81	1089.33
697.15	1088.51
697.49	1090.48
697.82	1089.59
698.16	1082.66
698.50	1082.78
698.83	1082.05
699.17	1081.35
699.51	1080.51
699.84	1084.91
700.18	1084.84
700.52	1086.92
700.85	1084.70
701.19	1086.13
701.53	1084.18
701.86	1086.06
702.20	1089.61
702.54	1091.16
702.87	1090.64
703.21	1089.73
703.55	1092.37
703.88	1091.09
704.22	1092.84
704.55	1095.65
704.89	1099.02
705.23	1095.46
705.56	1090.64
705.90	1089.82
706.23	1086.20
706.57	1085.26
706.91	1085.35
707.24	1087.32
707.58	1085.59
707.91	1089.66
708.25	1086.85
708.58	1085.96
708.92	1085.21
709.26	1089.36
709.59	1086.48
709.93	1089.99
710.26	1089.94
710.60	1090.41
710.93	1089.38
711.27	1091.37
711.60	1092.40
711.94	1094.55
712.27	1093.92
712.61	1091.81
712.94	1091.72
713.28	1088.82
713.61	1087.41
713.95	1086.78
714.28	1085.49
714.62	1083.18
714.95	1080.91
715.29	1082.10
715.62	1083.50
715.96	1083.06
716.29	1087.20
716.63	1088.33
716.96	1092.21
717.29	1093.99
717.63	1094.62
717.96	1091.91
718.30	1093.08
718.63	1089.05
718.97	1085.26
719.30	1086.38
719.63	1088.26
719.97	1086.78
720.30	1083.67
720.64	1084.07
720.97	1084.02
721.30	1081.00
721.64	1083.55
721.97	1088.68
722.31	1091.18
722.64	1090.67
722.97	1090.32
723.31	1087.13
723.64	1084.58
723.97	1081.89
724.31	1078.94
724.64	1077.68
724.98	1077.18
725.31	1077.68
725.64	1079.85
725.98	1084.70
726.31	1086.38
726.64	1091.20
726.97	1091.30
727.31	1092.56
727.64	1091.65
727.97	1095.44
728.31	1094.95
728.64	1095.77
728.97	1096.14
729.31	1099.23
729.64	1099.16
729.97	1095.79
730.30	1091.81
730.64	1088.61
730.97	1082.97
731.30	1079.64
731.63	1079.24
731.97	1084.46
732.30	1086.24
732.63	1090.01
732.96	1091.91
733.30	1093.87
733.63	1092.75
733.96	1092.52
734.29	1091.27
734.63	1088.77
734.96	1088.19
735.29	1082.99
735.62	1080.04
735.95	1080.41
736.29	1081.16
736.62	1080.67
736.95	1083.74
737.28	1086.15
737.61	1087.95
737.94	1090.29
738.28	1092.91
738.61	1094.15
738.94	1093.33
739.27	1087.95
739.60	1085.52
739.93	1082.85
740.27	1082.80
740.60	1083.53
740.93	1086.29
741.26	1085.96
741.59	1086.01
741.92	1086.29
742.25	1085.21
742.58	1086.43
742.91	1087.32
743.25	1089.57
743.58	1088.49
743.91	1091.53
744.24	1087.76
744.57	1087.83
744.90	1088.49
745.23	1089.75
745.56	1089.71
745.89	1092.61
746.22	1090.74
746.55	1087.11
746.88	1087.44
747.21	1087.53
747.54	1084.49
747.87	1087.23
748.20	1087.65
748.53	1085.49
748.87	1081.61
749.20	1086.83
749.53	1084.39
749.86	1084.35
750.19	1084.16
750.52	1084.42
750.85	1079.67
751.18	1082.40
751.51	1084.11
751.84	1081.40
752.16	1085.59
752.49	1087.53
752.82	1085.33
753.15	1084.11
753.48	1087.13
753.81	1084.67
754.14	1085.35
754.47	1084.79
754.80	1086.90
755.13	1088.30
755.46	1085.84
755.79	1084.86
756.12	1090.03
756.45	1092.16
756.78	1092.59
757.11	1093.83
757.43	1093.87
757.76	1088.09
758.09	1084.86
758.42	1084.11
758.75	1084.00
759.08	1081.58
759.41	1083.48
759.74	1081.91
760.07	1078.89
760.39	1081.49
760.72	1087.09
761.05	1087.06
761.38	1088.47
761.71	1093.36
762.04	1090.36
762.36	1084.81
762.69	1085.66
763.02	1085.33
763.35	1083.34
