SpectraSuite Data File
++++++++++++++++++++++++++++++++++++
Date: Mon Aug 26 10:26:28 PDT 2019
User: corrico
Dark Spectrum Present: No
Reference Spectrum Present: No
Number of Sampled Component Spectra: 1
Spectrometers: USB2+H06089
Integration Time (usec): 10000 (USB2+H06089)
Spectra Averaged: 20 (USB2+H06089)
Boxcar Smoothing: 2 (USB2+H06089)
Correct for Electrical Dark: No (USB2+H06089)
Strobe/Lamp Enabled: No (USB2+H06089)
Correct for Detector Non-linearity: No (USB2+H06089)
Correct for Stray Light: No (USB2+H06089)
Number of Pixels in Processed Spectrum: 2048
>>>>>Begin Processed Spectral Data<<<<<
339.70	1047.97
340.07	1047.97
340.45	1009.31
340.82	984.97
341.19	956.44
341.57	929.54
341.94	918.03
342.31	909.13
342.69	903.05
343.06	900.15
343.43	896.03
343.81	894.11
344.18	898.23
344.55	902.84
344.93	911.22
345.30	920.86
345.67	931.04
346.04	938.20
346.42	947.07
346.79	951.03
347.16	956.97
347.54	963.83
347.91	970.29
348.28	979.26
348.65	990.21
349.03	1001.70
349.40	1010.25
349.77	1021.34
350.14	1029.11
350.52	1038.57
350.89	1043.11
351.26	1050.43
351.63	1055.98
352.01	1059.89
352.38	1063.52
352.75	1069.51
353.12	1074.03
353.50	1077.51
353.87	1080.44
354.24	1083.88
354.61	1084.96
354.98	1084.49
355.36	1087.18
355.73	1088.00
356.10	1088.49
356.47	1089.82
356.84	1093.99
357.22	1092.56
357.59	1093.99
357.96	1094.36
358.33	1093.52
358.70	1090.69
359.08	1089.54
359.45	1087.34
359.82	1085.56
360.19	1085.52
360.56	1083.48
360.94	1083.67
361.31	1083.76
361.68	1084.04
362.05	1081.89
362.42	1082.66
362.79	1079.69
363.16	1080.84
363.54	1078.45
363.91	1076.34
364.28	1073.72
364.65	1076.83
365.02	1078.68
365.39	1079.78
365.76	1083.25
366.14	1085.56
366.51	1086.55
366.88	1080.46
367.25	1078.99
367.62	1076.25
367.99	1075.41
368.36	1071.92
368.73	1073.02
369.10	1075.22
369.48	1078.82
369.85	1080.84
370.22	1081.54
370.59	1084.74
370.96	1082.92
371.33	1079.64
371.70	1077.58
372.07	1077.63
372.44	1075.22
372.81	1078.03
373.18	1080.11
373.55	1083.76
373.93	1084.32
374.30	1085.47
374.67	1082.43
375.04	1080.77
375.41	1079.85
375.78	1081.30
376.15	1082.80
376.52	1084.84
376.89	1086.45
377.26	1088.63
377.63	1085.59
378.00	1085.56
378.37	1081.56
378.74	1078.43
379.11	1074.21
379.48	1076.13
379.85	1074.89
380.22	1080.37
380.59	1083.88
380.96	1084.30
381.33	1087.16
381.70	1088.16
382.07	1086.01
382.44	1084.91
382.81	1084.72
383.18	1082.66
383.55	1082.43
383.92	1080.65
384.29	1080.30
384.66	1079.22
385.03	1077.75
385.40	1080.23
385.77	1083.57
386.14	1082.85
386.51	1081.94
386.88	1083.69
387.25	1083.57
387.62	1086.78
387.99	1091.74
388.36	1092.89
388.73	1091.98
389.10	1091.67
389.46	1084.42
389.83	1083.04
390.20	1083.79
390.57	1084.98
390.94	1085.10
391.31	1090.41
391.68	1088.51
392.05	1093.01
392.42	1091.11
392.79	1088.04
393.16	1086.94
393.53	1086.17
393.89	1083.48
394.26	1084.60
394.63	1086.24
395.00	1084.91
395.37	1084.63
395.74	1084.91
396.11	1085.40
396.48	1082.10
396.84	1086.31
397.21	1088.16
397.58	1088.33
397.95	1090.34
398.32	1092.91
398.69	1090.06
399.06	1089.29
399.42	1089.71
399.79	1086.94
400.16	1088.23
400.53	1088.47
400.90	1090.46
401.27	1090.08
401.64	1091.20
402.00	1090.88
402.37	1090.97
402.74	1093.03
403.11	1092.91
403.48	1095.11
403.84	1096.82
404.21	1096.17
404.58	1094.95
404.95	1094.11
405.32	1096.19
405.68	1093.80
406.05	1095.79
406.42	1095.09
406.79	1096.12
407.16	1094.93
407.52	1096.10
407.89	1096.17
408.26	1098.51
408.63	1101.78
408.99	1100.03
409.36	1099.58
409.73	1099.63
410.10	1099.77
410.47	1097.50
410.83	1096.52
411.20	1098.58
411.57	1102.32
411.94	1100.47
412.30	1101.78
412.67	1103.09
413.04	1100.94
413.40	1094.60
413.77	1097.38
414.14	1099.98
414.51	1102.74
414.87	1102.86
415.24	1107.38
415.61	1108.24
415.97	1105.01
416.34	1103.56
416.71	1106.68
417.08	1104.94
417.44	1105.08
417.81	1106.44
418.18	1107.94
418.54	1106.11
418.91	1105.90
419.28	1103.00
419.64	1102.09
420.01	1100.08
420.38	1101.08
420.74	1103.23
421.11	1106.44
421.48	1107.92
421.84	1109.27
422.21	1110.09
422.58	1113.72
422.94	1113.21
423.31	1113.81
423.68	1113.93
424.04	1113.04
424.41	1106.49
424.77	1106.91
425.14	1108.17
425.51	1109.65
425.87	1110.61
426.24	1114.35
426.61	1114.21
426.97	1111.97
427.34	1111.12
427.70	1109.95
428.07	1108.99
428.44	1108.29
428.80	1110.19
429.17	1112.13
429.53	1114.70
429.90	1115.52
430.27	1114.89
430.63	1111.97
431.00	1111.40
431.36	1112.32
431.73	1113.25
432.09	1116.55
432.46	1116.97
432.83	1112.99
433.19	1114.73
433.56	1111.87
433.92	1110.14
434.29	1112.57
434.65	1116.20
435.02	1111.66
435.38	1112.53
435.75	1110.09
436.11	1109.18
436.48	1110.49
436.84	1111.50
437.21	1111.61
437.57	1113.09
437.94	1113.86
438.30	1110.89
438.67	1111.85
439.03	1111.64
439.40	1112.08
439.76	1110.70
440.13	1109.37
440.49	1108.01
440.86	1109.60
441.22	1108.64
441.59	1109.62
441.95	1111.38
442.32	1114.73
442.68	1112.64
443.05	1115.31
443.41	1111.24
443.78	1110.75
444.14	1106.82
444.51	1108.99
444.87	1108.99
445.24	1110.89
445.60	1109.62
445.96	1106.56
446.33	1103.00
446.69	1098.06
447.06	1099.86
447.42	1102.91
447.79	1106.42
448.15	1107.85
448.51	1113.07
448.88	1114.80
449.24	1112.97
449.61	1113.93
449.97	1114.28
450.33	1114.12
450.70	1111.38
451.06	1108.78
451.43	1109.86
451.79	1107.66
452.15	1107.59
452.52	1112.22
452.88	1116.83
453.24	1114.19
453.61	1116.88
453.97	1113.21
454.34	1109.39
454.70	1108.52
455.06	1105.58
455.43	1105.86
455.79	1104.94
456.15	1104.15
456.52	1103.61
456.88	1106.58
457.24	1105.76
457.61	1106.79
457.97	1107.49
458.33	1109.25
458.70	1108.36
459.06	1111.24
459.42	1117.63
459.79	1118.87
460.15	1117.23
460.51	1118.92
460.88	1115.05
461.24	1111.29
461.60	1110.91
461.96	1114.89
462.33	1115.62
462.69	1119.36
463.05	1120.72
463.42	1121.07
463.78	1119.36
464.14	1119.83
464.50	1121.77
464.87	1120.48
465.23	1122.31
465.59	1121.84
465.95	1123.60
466.32	1122.90
466.68	1122.85
467.04	1127.79
467.40	1129.17
467.77	1130.74
468.13	1132.96
468.49	1135.14
468.85	1131.81
469.22	1136.00
469.58	1136.14
469.94	1138.04
470.30	1141.50
470.66	1143.61
471.03	1141.99
471.39	1144.36
471.75	1145.53
472.11	1144.17
472.47	1147.92
472.84	1151.64
473.20	1154.68
473.56	1157.72
473.92	1162.47
474.28	1164.74
474.65	1165.52
475.01	1167.95
475.37	1169.66
475.73	1171.81
476.09	1173.31
476.45	1180.03
476.81	1185.13
477.18	1188.90
477.54	1194.54
477.90	1200.06
478.26	1203.97
478.62	1209.10
478.98	1216.91
479.34	1229.30
479.71	1238.82
480.07	1245.28
480.43	1255.91
480.79	1264.54
481.15	1274.09
481.51	1281.42
481.87	1295.70
482.23	1311.61
482.59	1326.52
482.96	1337.64
483.32	1352.15
483.68	1366.62
484.04	1377.05
484.40	1390.11
484.76	1407.11
485.12	1424.17
485.48	1441.89
485.84	1459.98
486.20	1484.32
486.56	1502.65
486.92	1532.42
487.28	1558.73
487.64	1584.43
488.00	1609.82
488.37	1641.25
488.73	1668.92
489.09	1700.17
489.45	1736.33
489.81	1772.07
490.17	1813.17
490.53	1853.75
490.89	1894.85
491.25	1935.01
491.61	1981.22
491.97	2024.26
492.33	2072.15
492.69	2121.13
493.05	2175.46
493.41	2232.36
493.77	2296.58
494.13	2358.56
494.49	2430.44
494.85	2508.68
495.21	2582.45
495.57	2656.74
495.93	2747.65
496.29	2830.99
496.64	2922.32
497.00	3015.78
497.36	3114.64
497.72	3215.22
498.08	3320.17
498.44	3435.67
498.80	3562.13
499.16	3697.51
499.52	3835.06
499.88	3995.32
500.24	4150.24
500.60	4305.20
500.96	4465.20
501.32	4636.84
501.68	4800.91
502.03	4988.52
502.39	5198.68
502.75	5406.97
503.11	5630.98
503.47	5861.54
503.83	6104.05
504.19	6345.68
504.55	6616.39
504.91	6893.53
505.26	7168.05
505.62	7466.94
505.98	7788.58
506.34	8136.05
506.70	8506.98
507.06	8916.95
507.42	9311.96
507.78	9709.15
508.13	10102.74
508.49	10525.25
508.85	10981.21
509.21	11475.04
509.57	12000.93
509.93	12569.89
510.28	13163.80
510.64	13776.72
511.00	14373.98
511.36	14961.76
511.72	15547.10
512.07	16188.76
512.43	16804.04
512.79	17472.08
513.15	18195.86
513.51	18929.85
513.86	19674.31
514.22	20509.93
514.58	21309.69
514.94	22136.60
515.30	22974.25
515.65	23767.25
516.01	24572.63
516.37	25417.42
516.73	26242.53
517.08	27143.19
517.44	28009.17
517.80	28862.57
518.16	29740.51
518.51	30547.03
518.87	31255.26
519.23	32112.78
519.59	33013.68
519.94	33850.02
520.30	34702.09
520.66	35516.55
521.01	36295.81
521.37	36943.98
521.73	37578.03
522.09	38215.61
522.44	38922.20
522.80	39317.44
523.16	39651.90
523.51	39857.97
523.87	40126.24
524.23	40371.43
524.58	40671.35
524.94	41100.11
525.30	41479.77
525.65	41705.05
526.01	41699.66
526.37	41677.69
526.72	41552.96
527.08	41435.91
527.44	41251.31
527.79	41128.97
528.15	41039.47
528.51	40830.27
528.86	40603.19
529.22	40395.63
529.58	40147.40
529.93	39763.10
530.29	39351.10
530.65	38935.75
531.00	38500.17
531.36	37996.37
531.71	37558.41
532.07	37085.16
532.43	36529.70
532.78	35858.48
533.14	35277.30
533.49	34667.71
533.85	34048.69
534.21	33448.34
534.56	32963.71
534.92	32402.89
535.27	31826.46
535.63	31195.43
535.98	30546.68
536.34	29878.27
536.69	29233.43
537.05	28601.37
537.41	28120.74
537.76	27641.40
538.12	27088.56
538.47	26570.93
538.83	26083.82
539.18	25541.40
539.54	25064.54
539.89	24625.10
540.25	24137.66
540.60	23679.67
540.96	23187.27
541.31	22699.22
541.67	22250.40
542.02	21833.08
542.38	21372.95
542.73	20918.80
543.09	20539.07
543.44	20219.12
543.80	19906.51
544.15	19542.26
544.51	19241.17
544.86	18930.21
545.22	18537.89
545.57	18141.59
545.93	17780.96
546.28	17466.44
546.64	17127.03
546.99	16777.03
547.35	16441.05
547.70	16126.81
548.05	15789.68
548.41	15471.55
548.76	15192.09
549.12	14947.48
549.47	14709.26
549.83	14474.46
550.18	14178.90
550.53	13858.03
550.89	13573.52
551.24	13280.90
551.60	12960.39
551.95	12689.61
552.30	12458.77
552.66	12198.22
553.01	11937.04
553.37	11669.14
553.72	11406.72
554.07	11122.16
554.43	10817.30
554.78	10518.44
555.13	10252.90
555.49	10018.22
555.84	9829.74
556.19	9648.65
556.55	9476.13
556.90	9293.89
557.26	9087.53
557.61	8884.60
557.96	8659.21
558.32	8465.37
558.67	8265.93
559.02	8042.78
559.37	7847.58
559.73	7691.28
560.08	7530.91
560.43	7376.64
560.79	7247.40
561.14	7094.61
561.49	6935.33
561.85	6767.07
562.20	6618.52
562.55	6492.97
562.90	6365.53
563.26	6241.02
563.61	6130.57
563.96	6018.73
564.32	5891.64
564.67	5762.89
565.02	5631.87
565.37	5515.94
565.73	5390.86
566.08	5279.83
566.43	5169.59
566.78	5072.46
567.14	4971.46
567.49	4873.86
567.84	4778.20
568.19	4679.50
568.54	4580.80
568.90	4493.83
569.25	4419.40
569.60	4344.88
569.95	4272.32
570.31	4194.26
570.66	4105.09
571.01	4010.88
571.36	3924.70
571.71	3846.60
572.06	3787.81
572.42	3732.27
572.77	3675.69
573.12	3617.16
573.47	3563.56
573.82	3499.99
574.18	3438.93
574.53	3383.97
574.88	3336.74
575.23	3282.84
575.58	3228.18
575.93	3175.29
576.28	3120.19
576.64	3058.28
576.99	2994.88
577.34	2942.45
577.69	2892.13
578.04	2842.35
578.39	2787.27
578.74	2748.51
579.09	2704.65
579.44	2659.95
579.80	2615.95
580.15	2576.18
580.50	2535.50
580.85	2500.16
581.20	2470.76
581.55	2440.29
581.90	2418.15
582.25	2379.22
582.60	2342.24
582.95	2304.16
583.30	2267.16
583.65	2224.73
584.00	2194.63
584.35	2165.16
584.71	2131.69
585.06	2101.19
585.41	2072.92
585.76	2047.15
586.11	2017.14
586.46	1996.10
586.81	1976.42
587.16	1957.16
587.51	1939.30
587.86	1921.49
588.21	1899.04
588.56	1877.13
588.91	1853.66
589.26	1832.62
589.61	1814.90
589.96	1797.81
590.31	1781.36
590.66	1766.96
591.01	1751.05
591.36	1734.90
591.71	1714.16
592.06	1698.18
592.41	1681.70
592.76	1669.36
593.10	1651.74
593.45	1642.47
593.80	1626.09
594.15	1613.52
594.50	1598.02
594.85	1586.77
595.20	1576.58
595.55	1568.65
595.90	1554.98
596.25	1546.93
596.60	1533.89
596.95	1520.67
597.30	1510.28
597.64	1552.06
597.99	1541.66
598.34	1533.68
598.69	1525.44
599.04	1517.95
599.39	1458.79
599.74	1448.93
600.09	1441.49
600.44	1430.51
600.78	1417.80
601.13	1408.98
601.48	1398.66
601.83	1392.95
602.18	1387.14
602.53	1383.21
602.88	1379.86
603.22	1373.26
603.57	1362.05
603.92	1354.84
604.27	1348.57
604.62	1341.13
604.97	1335.88
605.31	1332.21
605.66	1324.13
606.01	1315.22
606.36	1309.32
606.71	1302.32
607.05	1295.25
607.40	1292.26
607.75	1288.32
608.10	1284.04
608.44	1276.74
608.79	1273.98
609.14	1269.48
609.49	1263.23
609.84	1260.92
610.18	1262.23
610.53	1261.95
610.88	1260.82
611.23	1262.86
611.57	1257.59
611.92	1253.47
612.27	1247.74
612.62	1245.87
612.96	1237.70
613.31	1230.05
613.66	1225.48
614.00	1220.29
614.35	1214.81
614.70	1213.87
615.05	1215.56
615.39	1215.74
615.74	1215.35
616.09	1211.18
616.43	1208.91
616.78	1205.68
617.13	1200.91
617.47	1195.69
617.82	1194.77
618.17	1191.33
618.51	1186.25
618.86	1181.99
619.21	1180.82
619.55	1179.28
619.90	1176.00
620.25	1172.82
620.59	1169.75
620.94	1167.23
621.29	1163.74
621.63	1164.07
621.98	1164.49
622.32	1163.15
622.67	1160.81
623.02	1158.78
623.36	1153.67
623.71	1147.82
624.05	1148.03
624.40	1147.66
624.75	1146.70
625.09	1147.59
625.44	1150.98
625.78	1147.85
626.13	1146.32
626.48	1143.94
626.82	1143.35
627.17	1139.72
627.51	1141.13
627.86	1139.19
628.20	1137.95
628.55	1134.48
628.89	1134.50
629.24	1133.36
629.58	1134.69
629.93	1135.58
630.28	1135.51
630.62	1135.21
630.97	1131.13
631.31	1128.65
631.66	1127.25
632.00	1127.34
632.35	1126.55
632.69	1124.51
633.04	1123.81
633.38	1123.13
633.73	1120.25
634.07	1120.58
634.42	1123.04
634.76	1121.49
635.11	1120.95
635.45	1122.54
635.79	1120.86
636.14	1121.73
636.48	1121.16
636.83	1117.44
637.17	1116.11
637.52	1116.74
637.86	1116.25
638.21	1117.37
638.55	1120.74
638.89	1119.53
639.24	1115.76
639.58	1112.69
639.93	1109.04
640.27	1106.30
640.61	1108.78
640.96	1111.08
641.30	1110.37
641.65	1111.78
641.99	1112.48
642.33	1111.38
642.68	1110.09
643.02	1110.35
643.37	1107.42
643.71	1106.32
644.05	1104.97
644.40	1104.05
644.74	1103.61
645.08	1107.94
645.43	1109.27
645.77	1107.99
646.11	1107.17
646.46	1109.51
646.80	1107.42
647.14	1107.38
647.49	1106.37
647.83	1110.00
648.17	1106.77
648.52	1106.00
648.86	1104.78
649.20	1107.56
649.55	1104.62
649.89	1105.18
650.23	1101.90
650.57	1101.85
650.92	1101.29
651.26	1101.55
651.60	1099.98
651.95	1104.29
652.29	1101.22
652.63	1099.93
652.97	1101.60
653.32	1102.63
653.66	1098.11
654.00	1101.27
654.34	1100.85
654.69	1101.25
655.03	1099.30
655.37	1098.95
655.71	1097.71
656.05	1100.36
656.40	1097.20
656.74	1097.59
657.08	1097.71
657.42	1095.23
657.76	1089.92
658.11	1086.73
658.45	1087.86
658.79	1093.24
659.13	1095.89
659.47	1098.69
659.82	1103.07
660.16	1100.75
660.50	1100.85
660.84	1100.45
661.18	1099.09
661.52	1099.49
661.87	1101.97
662.21	1098.32
662.55	1097.15
662.89	1098.02
663.23	1096.28
663.57	1094.15
663.91	1092.02
664.25	1094.83
664.60	1093.12
664.94	1091.93
665.28	1091.74
665.62	1093.38
665.96	1088.49
666.30	1087.97
666.64	1089.64
666.98	1089.50
667.32	1085.87
667.66	1087.88
668.01	1087.95
668.35	1084.58
668.69	1085.91
669.03	1089.43
669.37	1087.55
669.71	1092.23
670.05	1093.90
670.39	1092.30
670.73	1092.91
671.07	1093.26
671.41	1090.46
671.75	1091.53
672.09	1090.71
672.43	1087.62
672.77	1087.53
673.11	1087.83
673.45	1085.56
673.79	1087.65
674.13	1091.49
674.47	1093.90
674.81	1094.13
675.15	1096.26
675.49	1095.56
675.83	1095.60
676.17	1095.63
676.51	1094.06
676.85	1091.91
677.19	1093.87
677.53	1091.06
677.87	1089.82
678.21	1088.35
678.55	1087.93
678.89	1086.31
679.23	1088.58
679.57	1089.87
679.90	1091.13
680.24	1089.12
680.58	1090.06
680.92	1090.48
681.26	1087.51
681.60	1088.51
681.94	1089.59
682.28	1089.12
682.62	1088.07
682.96	1092.47
683.29	1090.88
683.63	1090.67
683.97	1092.16
684.31	1088.14
684.65	1087.25
684.99	1085.56
685.33	1089.07
685.67	1086.24
686.00	1089.36
686.34	1088.54
686.68	1089.71
687.02	1088.75
687.36	1090.74
687.70	1092.49
688.03	1089.14
688.37	1091.39
688.71	1091.56
689.05	1091.65
689.39	1089.96
689.72	1092.77
690.06	1091.25
690.40	1092.00
690.74	1090.81
691.08	1089.33
691.41	1089.03
691.75	1088.16
692.09	1084.42
692.43	1085.07
692.76	1086.83
693.10	1084.98
693.44	1087.02
693.78	1091.58
694.11	1088.77
694.45	1088.33
694.79	1088.56
695.13	1084.16
695.46	1083.97
695.80	1086.94
696.14	1088.16
696.48	1091.27
696.81	1095.49
697.15	1093.26
697.49	1094.93
697.82	1090.13
698.16	1086.17
698.50	1086.34
698.83	1086.78
699.17	1081.56
699.51	1082.71
699.84	1083.79
700.18	1084.04
700.52	1088.40
700.85	1090.10
701.19	1093.36
701.53	1094.95
701.86	1091.06
702.20	1084.30
702.54	1082.97
702.87	1085.42
703.21	1085.12
703.55	1087.97
703.88	1089.87
704.22	1091.42
704.55	1091.42
704.89	1089.38
705.23	1089.43
705.56	1089.71
705.90	1091.77
706.23	1086.52
706.57	1089.85
706.91	1087.46
707.24	1089.85
707.58	1085.38
707.91	1088.40
708.25	1087.39
708.58	1088.79
708.92	1086.92
709.26	1091.53
709.59	1091.13
709.93	1091.58
710.26	1091.49
710.60	1091.16
710.93	1089.89
711.27	1089.19
711.60	1088.35
711.94	1089.29
712.27	1088.04
712.61	1091.18
712.94	1092.02
713.28	1086.64
713.61	1084.89
713.95	1086.69
714.28	1084.77
714.62	1084.07
714.95	1085.91
715.29	1089.19
715.62	1089.12
715.96	1087.06
716.29	1089.07
716.63	1090.29
716.96	1087.39
717.29	1086.03
717.63	1086.99
717.96	1084.23
718.30	1083.04
718.63	1080.27
718.97	1080.02
719.30	1077.96
719.63	1078.64
719.97	1081.35
720.30	1084.91
720.64	1085.87
720.97	1086.57
721.30	1086.85
721.64	1087.90
721.97	1088.14
722.31	1088.79
722.64	1089.24
722.97	1089.57
723.31	1092.75
723.64	1091.37
723.97	1089.71
724.31	1090.85
724.64	1090.22
724.98	1088.58
725.31	1088.33
725.64	1086.78
725.98	1082.69
726.31	1082.12
726.64	1080.70
726.97	1081.40
727.31	1083.13
727.64	1087.65
727.97	1087.02
728.31	1084.67
728.64	1089.33
728.97	1091.02
729.31	1091.42
729.64	1093.66
729.97	1093.01
730.30	1089.05
730.64	1087.34
730.97	1086.69
731.30	1086.41
731.63	1086.06
731.97	1086.76
732.30	1085.61
732.63	1088.63
732.96	1087.04
733.30	1084.96
733.63	1084.86
733.96	1085.73
734.29	1081.51
734.63	1086.52
734.96	1092.05
735.29	1090.57
735.62	1092.23
735.95	1093.43
736.29	1086.50
736.62	1085.96
736.95	1086.76
737.28	1086.22
737.61	1086.64
737.94	1088.72
738.28	1087.41
738.61	1086.45
738.94	1088.02
739.27	1086.29
739.60	1086.94
739.93	1086.01
740.27	1084.37
740.60	1083.86
740.93	1083.34
741.26	1085.42
741.59	1087.27
741.92	1089.75
742.25	1090.62
742.58	1091.81
742.91	1085.33
743.25	1085.87
743.58	1089.24
743.91	1087.86
744.24	1082.19
744.57	1085.54
744.90	1085.12
745.23	1081.26
745.56	1082.15
745.89	1086.20
746.22	1083.97
746.55	1082.85
746.88	1083.20
747.21	1082.50
747.54	1083.79
747.87	1084.04
748.20	1084.32
748.53	1085.68
748.87	1083.46
749.20	1082.15
749.53	1086.50
749.86	1087.30
750.19	1089.64
750.52	1094.48
750.85	1095.42
751.18	1095.39
751.51	1095.58
751.84	1092.63
752.16	1090.67
752.49	1091.60
752.82	1093.05
753.15	1095.84
753.48	1094.25
753.81	1093.73
754.14	1093.85
754.47	1088.75
754.80	1084.53
755.13	1087.69
755.46	1087.18
755.79	1086.13
756.12	1093.71
756.45	1094.20
756.78	1092.35
757.11	1091.74
757.43	1089.85
757.76	1085.17
758.09	1084.81
758.42	1081.91
758.75	1081.98
759.08	1082.01
759.41	1082.31
759.74	1083.83
760.07	1088.37
760.39	1088.16
760.72	1090.64
761.05	1089.54
761.38	1090.64
761.71	1090.27
762.04	1091.49
762.36	1088.65
762.69	1088.72
763.02	1087.20
763.35	1084.60
