SpectraSuite Data File
++++++++++++++++++++++++++++++++++++
Date: Mon Aug 26 10:26:39 PDT 2019
User: corrico
Dark Spectrum Present: No
Reference Spectrum Present: No
Number of Sampled Component Spectra: 1
Spectrometers: USB2+H06089
Integration Time (usec): 10000 (USB2+H06089)
Spectra Averaged: 20 (USB2+H06089)
Boxcar Smoothing: 2 (USB2+H06089)
Correct for Electrical Dark: No (USB2+H06089)
Strobe/Lamp Enabled: No (USB2+H06089)
Correct for Detector Non-linearity: No (USB2+H06089)
Correct for Stray Light: No (USB2+H06089)
Number of Pixels in Processed Spectrum: 2048
>>>>>Begin Processed Spectral Data<<<<<
339.70	1032.64
340.07	1032.64
340.45	999.90
340.82	976.28
341.19	953.82
341.57	928.77
341.94	916.90
342.31	909.86
342.69	903.38
343.06	898.30
343.43	898.02
343.81	899.28
344.18	900.73
344.55	909.30
344.93	917.44
345.30	922.03
345.67	927.37
346.04	934.55
346.42	941.60
346.79	947.31
347.16	958.12
347.54	968.21
347.91	980.10
348.28	988.38
348.65	999.13
349.03	1006.71
349.40	1017.99
349.77	1023.89
350.14	1033.74
350.52	1043.43
350.89	1054.25
351.26	1057.95
351.63	1065.90
352.01	1070.16
352.38	1071.71
352.75	1070.98
353.12	1072.41
353.50	1074.52
353.87	1079.67
354.24	1083.62
354.61	1088.96
354.98	1091.81
355.36	1092.91
355.73	1091.53
356.10	1090.57
356.47	1089.50
356.84	1089.00
357.22	1087.34
357.59	1087.30
357.96	1087.48
358.33	1089.99
358.70	1091.70
359.08	1093.80
359.45	1093.99
359.82	1093.85
360.19	1091.27
360.56	1089.96
360.94	1089.75
361.31	1088.07
361.68	1087.44
362.05	1085.73
362.42	1085.14
362.79	1081.51
363.16	1079.88
363.54	1078.07
363.91	1076.67
364.28	1077.28
364.65	1075.94
365.02	1076.81
365.39	1078.54
365.76	1079.50
366.14	1081.02
366.51	1082.64
366.88	1084.14
367.25	1086.27
367.62	1087.23
367.99	1084.14
368.36	1084.67
368.73	1085.19
369.10	1082.66
369.48	1082.31
369.85	1082.24
370.22	1078.99
370.59	1076.83
370.96	1077.61
371.33	1077.63
371.70	1079.31
372.07	1081.70
372.44	1080.93
372.81	1081.02
373.18	1078.54
373.55	1078.59
373.93	1078.47
374.30	1078.66
374.67	1077.25
375.04	1079.78
375.41	1078.52
375.78	1080.79
376.15	1080.51
376.52	1081.98
376.89	1079.24
377.26	1083.25
377.63	1084.32
378.00	1084.16
378.37	1083.74
378.74	1088.30
379.11	1082.61
379.48	1081.56
379.85	1081.75
380.22	1080.63
380.59	1077.51
380.96	1078.82
381.33	1081.09
381.70	1083.95
382.07	1085.17
382.44	1086.80
382.81	1088.21
383.18	1085.80
383.55	1086.55
383.92	1087.13
384.29	1085.73
384.66	1086.27
385.03	1085.73
385.40	1084.00
385.77	1081.12
386.14	1081.49
386.51	1083.13
386.88	1083.76
387.25	1084.89
387.62	1085.89
387.99	1087.11
388.36	1088.35
388.73	1091.16
389.10	1091.02
389.46	1089.40
389.83	1088.02
390.20	1084.58
390.57	1081.77
390.94	1080.86
391.31	1084.32
391.68	1086.15
392.05	1084.44
392.42	1083.11
392.79	1083.83
393.16	1084.49
393.53	1084.56
393.89	1085.87
394.26	1087.58
394.63	1086.17
395.00	1083.71
395.37	1081.82
395.74	1084.00
396.11	1085.73
396.48	1088.96
396.84	1092.02
397.21	1092.33
397.58	1092.52
397.95	1091.56
398.32	1087.23
398.69	1084.89
399.06	1086.85
399.42	1087.72
399.79	1087.23
400.16	1090.10
400.53	1089.36
400.90	1087.72
401.27	1087.06
401.64	1089.52
402.00	1091.51
402.37	1095.44
402.74	1096.14
403.11	1098.90
403.48	1097.83
403.84	1097.59
404.21	1099.26
404.58	1098.48
404.95	1097.45
405.32	1097.64
405.68	1095.93
406.05	1093.45
406.42	1096.94
406.79	1096.59
407.16	1097.08
407.52	1097.24
407.89	1098.18
408.26	1095.42
408.63	1094.81
408.99	1098.95
409.36	1101.64
409.73	1099.40
410.10	1104.12
410.47	1101.90
410.83	1097.13
411.20	1096.47
411.57	1096.68
411.94	1090.62
412.30	1092.94
412.67	1097.01
413.04	1094.72
413.40	1097.57
413.77	1101.95
414.14	1103.94
414.51	1101.55
414.87	1106.09
415.24	1104.45
415.61	1106.68
415.97	1107.35
416.34	1105.65
416.71	1106.37
417.08	1109.53
417.44	1105.53
417.81	1104.01
418.18	1104.69
418.54	1102.93
418.91	1100.68
419.28	1102.23
419.64	1103.28
420.01	1104.85
420.38	1105.72
420.74	1106.07
421.11	1109.62
421.48	1112.01
421.84	1109.13
422.21	1110.07
422.58	1112.11
422.94	1110.61
423.31	1107.89
423.68	1112.15
424.04	1111.29
424.41	1110.30
424.77	1109.79
425.14	1109.74
425.51	1111.97
425.87	1111.66
426.24	1114.47
426.61	1116.20
426.97	1118.89
427.34	1114.59
427.70	1115.71
428.07	1113.09
428.44	1112.32
428.80	1110.26
429.17	1112.20
429.53	1111.45
429.90	1110.68
430.27	1108.95
430.63	1105.90
431.00	1103.45
431.36	1102.95
431.73	1105.83
432.09	1108.13
432.46	1112.57
432.83	1115.43
433.19	1113.74
433.56	1109.65
433.92	1110.12
434.29	1108.57
434.65	1106.79
435.02	1104.66
435.38	1108.52
435.75	1107.54
436.11	1108.20
436.48	1110.58
436.84	1114.42
437.21	1111.52
437.57	1109.72
437.94	1107.80
438.30	1108.88
438.67	1108.29
439.03	1108.45
439.40	1109.16
439.76	1109.69
440.13	1105.81
440.49	1106.09
440.86	1107.92
441.22	1109.74
441.59	1111.89
441.95	1112.95
442.32	1111.78
442.68	1111.59
443.05	1110.77
443.41	1110.07
443.78	1110.14
444.14	1113.53
444.51	1117.00
444.87	1116.88
445.24	1115.38
445.60	1116.69
445.96	1115.01
446.33	1110.77
446.69	1110.61
447.06	1112.60
447.42	1111.80
447.79	1108.74
448.15	1106.32
448.51	1107.05
448.88	1104.43
449.24	1101.92
449.61	1106.65
449.97	1110.16
450.33	1107.24
450.70	1108.50
451.06	1111.03
451.43	1108.76
451.79	1107.05
452.15	1111.36
452.52	1113.53
452.88	1114.00
453.24	1115.99
453.61	1117.37
453.97	1113.21
454.34	1110.77
454.70	1110.44
455.06	1107.64
455.43	1108.41
455.79	1108.95
456.15	1108.76
456.52	1110.82
456.88	1110.58
457.24	1111.73
457.61	1115.29
457.97	1119.24
458.33	1119.60
458.70	1122.38
459.06	1120.23
459.42	1117.07
459.79	1115.50
460.15	1113.25
460.51	1111.38
460.88	1114.68
461.24	1116.67
461.60	1112.64
461.96	1114.24
462.33	1115.80
462.69	1114.05
463.05	1113.79
463.42	1119.99
463.78	1118.99
464.14	1117.09
464.50	1115.43
464.87	1115.87
465.23	1117.18
465.59	1117.23
465.95	1121.54
466.32	1124.11
466.68	1125.07
467.04	1123.08
467.40	1126.87
467.77	1126.64
468.13	1129.85
468.49	1132.66
468.85	1134.06
469.22	1138.95
469.58	1139.84
469.94	1140.87
470.30	1141.01
470.66	1143.28
471.03	1138.83
471.39	1144.12
471.75	1148.10
472.11	1151.40
472.47	1154.02
472.84	1157.42
473.20	1158.03
473.56	1159.41
473.92	1163.32
474.28	1164.98
474.65	1169.57
475.01	1173.69
475.37	1175.07
475.73	1176.31
476.09	1182.65
476.45	1188.10
476.81	1190.61
477.18	1196.20
477.54	1202.87
477.90	1204.23
478.26	1208.07
478.62	1212.98
478.98	1218.58
479.34	1224.85
479.71	1234.07
480.07	1243.22
480.43	1256.12
480.79	1265.39
481.15	1274.33
481.51	1285.19
481.87	1293.82
482.23	1302.98
482.59	1313.16
482.96	1329.96
483.32	1343.84
483.68	1362.26
484.04	1379.07
484.40	1400.37
484.76	1416.94
485.12	1437.23
485.48	1450.78
485.84	1468.73
486.20	1486.10
486.56	1507.38
486.92	1530.48
487.28	1557.28
487.64	1584.00
488.00	1610.71
488.37	1636.06
488.73	1668.59
489.09	1701.38
489.45	1735.23
489.81	1772.39
490.17	1816.63
490.53	1850.94
490.89	1888.20
491.25	1932.86
491.61	1979.34
491.97	2021.71
492.33	2077.93
492.69	2137.28
493.05	2190.09
493.41	2249.23
493.77	2314.53
494.13	2376.74
494.49	2441.58
494.85	2511.23
495.21	2582.83
495.57	2655.01
495.93	2731.90
496.29	2817.91
496.64	2913.31
497.00	3001.76
497.36	3100.41
497.72	3208.62
498.08	3313.71
498.44	3431.25
498.80	3557.66
499.16	3691.49
499.52	3830.05
499.88	3986.82
500.24	4137.27
500.60	4291.37
500.96	4455.28
501.32	4625.18
501.68	4790.77
502.03	4972.19
502.39	5179.79
502.75	5386.86
503.11	5608.42
503.47	5842.45
503.83	6087.29
504.19	6340.96
504.55	6610.07
504.91	6889.34
505.26	7171.31
505.62	7474.48
505.98	7794.59
506.34	8133.81
506.70	8482.80
507.06	8867.99
507.42	9270.82
507.78	9669.41
508.13	10089.75
508.49	10525.72
508.85	10983.46
509.21	11463.41
509.57	11994.52
509.93	12544.31
510.28	13136.68
510.64	13754.56
511.00	14354.88
511.36	14939.36
511.72	15507.27
512.07	16137.90
512.43	16748.80
512.79	17423.98
513.15	18137.44
513.51	18879.67
513.86	19614.98
514.22	20434.05
514.58	21217.19
514.94	22049.20
515.30	22904.95
515.65	23717.75
516.01	24556.10
516.37	25419.46
516.73	26187.95
517.08	27063.22
517.44	27899.07
517.80	28700.59
518.16	29518.25
518.51	30346.22
518.87	31083.23
519.23	31936.05
519.59	32804.36
519.94	33652.60
520.30	34524.52
520.66	35287.25
521.01	36092.09
521.37	36754.23
521.73	37356.75
522.09	37933.90
522.44	38571.82
522.80	38949.65
523.16	39292.07
523.51	39550.40
523.87	39855.20
524.23	40115.64
524.58	40401.95
524.94	40795.89
525.30	41133.35
525.65	41317.06
526.01	41340.48
526.37	41333.11
526.72	41251.22
527.08	41125.53
527.44	40955.89
527.79	40820.65
528.15	40700.00
528.51	40468.19
528.86	40241.30
529.22	40004.72
529.58	39734.97
529.93	39359.95
530.29	38934.91
530.65	38551.60
531.00	38188.72
531.36	37761.97
531.71	37303.74
532.07	36825.24
532.43	36237.11
532.78	35583.47
533.14	35007.63
533.49	34445.87
533.85	33829.73
534.21	33251.29
534.56	32686.87
534.92	32081.51
535.27	31461.60
535.63	30861.93
535.98	30240.96
536.34	29617.77
536.69	28981.47
537.05	28388.71
537.41	27884.79
537.76	27401.80
538.12	26857.37
538.47	26371.42
538.83	25920.22
539.18	25437.48
539.54	24944.89
539.89	24490.43
540.25	23987.78
540.60	23488.94
540.96	22982.47
541.31	22503.46
541.67	22097.30
542.02	21704.86
542.38	21268.71
542.73	20842.59
543.09	20455.98
543.44	20085.21
543.80	19741.06
544.15	19369.67
544.51	19050.30
544.86	18728.03
545.22	18359.82
545.57	17977.02
545.93	17606.33
546.28	17273.48
546.64	16964.46
546.99	16619.37
547.35	16285.96
547.70	16000.32
548.05	15685.15
548.41	15361.43
548.76	15072.14
549.12	14804.01
549.47	14519.26
549.83	14253.58
550.18	13940.14
550.53	13615.41
550.89	13337.22
551.24	13073.69
551.60	12779.63
551.95	12528.23
552.30	12304.13
552.66	12053.62
553.01	11801.71
553.37	11538.42
553.72	11267.69
554.07	11011.64
554.43	10734.87
554.78	10461.89
555.13	10209.39
555.49	9994.74
555.84	9785.97
556.19	9592.26
556.55	9383.18
556.90	9182.48
557.26	8974.95
557.61	8760.98
557.96	8534.25
558.32	8345.34
558.67	8151.27
559.02	7938.77
559.37	7754.08
559.73	7598.03
560.08	7445.50
560.43	7296.74
560.79	7178.21
561.14	7030.69
561.49	6871.06
561.85	6710.81
562.20	6561.15
562.55	6420.89
562.90	6289.46
563.26	6168.72
563.61	6052.34
563.96	5942.83
564.32	5819.16
564.67	5696.56
565.02	5579.18
565.37	5469.79
565.73	5355.17
566.08	5248.18
566.43	5145.67
566.78	5042.94
567.14	4936.56
567.49	4827.35
567.84	4724.70
568.19	4617.53
568.54	4528.70
568.90	4441.45
569.25	4375.47
569.60	4303.40
569.95	4235.11
570.31	4152.20
570.66	4071.83
571.01	3970.74
571.36	3874.80
571.71	3800.98
572.06	3731.98
572.42	3673.87
572.77	3627.48
573.12	3578.77
573.47	3516.91
573.82	3454.79
574.18	3384.65
574.53	3319.11
574.88	3265.07
575.23	3215.69
575.58	3170.47
575.93	3119.11
576.28	3070.15
576.64	3010.79
576.99	2950.88
577.34	2894.56
577.69	2845.37
578.04	2789.54
578.39	2746.74
578.74	2712.99
579.09	2671.56
579.44	2632.31
579.80	2597.39
580.15	2552.17
580.50	2510.93
580.85	2473.22
581.20	2436.59
581.55	2407.80
581.90	2386.39
582.25	2352.00
582.60	2319.35
582.95	2292.23
583.30	2253.49
583.65	2216.14
584.00	2185.19
584.35	2153.39
584.71	2117.48
585.06	2092.04
585.41	2062.29
585.76	2032.33
586.11	2011.97
586.46	1991.96
586.81	1970.99
587.16	1948.85
587.51	1927.31
587.86	1909.57
588.21	1888.18
588.56	1866.79
588.91	1848.20
589.26	1831.66
589.61	1808.56
589.96	1792.15
590.31	1772.96
590.66	1761.77
591.01	1747.63
591.36	1731.79
591.71	1710.88
592.06	1695.76
592.41	1672.69
592.76	1658.20
593.10	1641.09
593.45	1629.67
593.80	1611.83
594.15	1597.70
594.50	1583.98
594.85	1570.41
595.20	1561.54
595.55	1551.38
595.90	1544.73
596.25	1531.34
596.60	1521.11
596.95	1505.64
597.30	1499.32
597.64	1540.12
597.99	1534.55
598.34	1527.01
598.69	1519.27
599.04	1510.21
599.39	1448.91
599.74	1436.43
600.09	1423.86
600.44	1419.28
600.78	1411.16
601.13	1406.05
601.48	1397.98
601.83	1397.32
602.18	1389.72
602.53	1383.19
602.88	1372.86
603.22	1366.26
603.57	1357.63
603.92	1351.26
604.27	1344.05
604.62	1338.08
604.97	1333.64
605.31	1326.78
605.66	1320.81
606.01	1315.17
606.36	1310.91
606.71	1304.94
607.05	1296.77
607.40	1289.07
607.75	1284.65
608.10	1281.68
608.44	1275.90
608.79	1274.49
609.14	1273.37
609.49	1273.37
609.84	1271.66
610.18	1271.50
610.53	1268.92
610.88	1264.43
611.23	1254.46
611.57	1250.24
611.92	1249.54
612.27	1244.95
612.62	1238.49
612.96	1236.04
613.31	1229.69
613.66	1221.06
614.00	1218.39
614.35	1216.87
614.70	1212.63
615.05	1210.34
615.39	1207.20
615.74	1204.18
616.09	1202.33
616.43	1197.16
616.78	1192.81
617.13	1188.48
617.47	1183.33
617.82	1181.60
618.17	1181.36
618.51	1180.29
618.86	1181.53
619.21	1180.59
619.55	1179.28
619.90	1180.99
620.25	1178.51
620.59	1176.21
620.94	1173.57
621.29	1170.64
621.63	1170.13
621.98	1167.60
622.32	1165.19
622.67	1166.41
623.02	1162.85
623.36	1159.69
623.71	1161.58
624.05	1161.51
624.40	1160.55
624.75	1159.31
625.09	1159.76
625.44	1154.33
625.78	1148.85
626.13	1146.25
626.48	1142.77
626.82	1138.18
627.17	1137.20
627.51	1138.88
627.86	1135.35
628.20	1132.75
628.55	1131.39
628.89	1131.06
629.24	1131.63
629.58	1133.33
629.93	1136.33
630.28	1135.65
630.62	1135.77
630.97	1134.67
631.31	1133.43
631.66	1132.98
632.00	1131.63
632.35	1127.18
632.69	1125.73
633.04	1123.62
633.38	1121.98
633.73	1120.44
634.07	1125.21
634.42	1124.70
634.76	1122.64
635.11	1118.38
635.45	1117.70
635.79	1115.15
636.14	1114.66
636.48	1113.30
636.83	1114.94
637.17	1113.39
637.52	1112.67
637.86	1110.75
638.21	1111.92
638.55	1115.20
638.89	1112.20
639.24	1111.40
639.58	1110.56
639.93	1111.61
640.27	1109.41
640.61	1115.10
640.96	1114.54
641.30	1117.23
641.65	1117.72
641.99	1114.54
642.33	1109.53
642.68	1109.20
643.02	1105.67
643.37	1104.08
643.71	1106.70
644.05	1109.65
644.40	1107.07
644.74	1109.11
645.08	1109.55
645.43	1109.06
645.77	1106.70
646.11	1106.84
646.46	1105.55
646.80	1103.96
647.14	1103.87
647.49	1101.85
647.83	1103.70
648.17	1102.95
648.52	1103.56
648.86	1102.46
649.20	1107.26
649.55	1105.18
649.89	1105.06
650.23	1103.26
650.57	1104.10
650.92	1101.43
651.26	1102.28
651.60	1102.16
651.95	1099.96
652.29	1096.70
652.63	1097.31
652.97	1093.38
653.32	1091.34
653.66	1092.84
654.00	1093.29
654.34	1090.08
654.69	1092.56
655.03	1092.05
655.37	1091.95
655.71	1094.81
656.05	1095.75
656.40	1097.38
656.74	1099.77
657.08	1101.11
657.42	1099.70
657.76	1102.49
658.11	1102.51
658.45	1097.69
658.79	1098.16
659.13	1097.03
659.47	1097.22
659.82	1094.48
660.16	1097.97
660.50	1095.75
660.84	1094.83
661.18	1093.24
661.52	1096.59
661.87	1095.84
662.21	1095.82
662.55	1097.34
662.89	1095.93
663.23	1094.25
663.57	1095.58
663.91	1098.44
664.25	1098.46
664.60	1097.78
664.94	1099.49
665.28	1099.96
665.62	1098.18
665.96	1097.45
666.30	1100.08
666.64	1095.89
666.98	1092.96
667.32	1093.55
667.66	1093.36
668.01	1093.19
668.35	1094.08
668.69	1096.19
669.03	1093.24
669.37	1092.35
669.71	1090.20
670.05	1095.28
670.39	1093.47
670.73	1091.37
671.07	1090.36
671.41	1090.57
671.75	1084.51
672.09	1083.18
672.43	1087.67
672.77	1086.20
673.11	1088.58
673.45	1090.06
673.79	1091.60
674.13	1091.63
674.47	1095.84
674.81	1093.69
675.15	1092.14
675.49	1094.97
675.83	1094.57
676.17	1093.97
676.51	1094.43
676.85	1094.46
677.19	1093.33
677.53	1092.42
677.87	1091.23
678.21	1090.92
678.55	1091.58
678.89	1090.95
679.23	1091.49
679.57	1090.03
679.90	1088.54
680.24	1089.96
680.58	1088.79
680.92	1089.61
681.26	1092.09
681.60	1090.97
681.94	1090.60
682.28	1090.39
682.62	1088.86
682.96	1087.95
683.29	1089.03
683.63	1087.86
683.97	1087.39
684.31	1086.59
684.65	1089.14
684.99	1090.76
685.33	1089.94
685.67	1087.88
686.00	1088.42
686.34	1085.96
686.68	1085.63
687.02	1088.28
687.36	1091.30
687.70	1090.67
688.03	1090.15
688.37	1090.20
688.71	1089.12
689.05	1087.30
689.39	1086.52
689.72	1088.86
690.06	1087.65
690.40	1086.31
690.74	1089.45
691.08	1090.78
691.41	1089.57
691.75	1093.33
692.09	1096.92
692.43	1098.09
692.76	1098.81
693.10	1098.53
693.44	1097.34
693.78	1094.67
694.11	1097.01
694.45	1095.98
694.79	1093.62
695.13	1091.27
695.46	1090.78
695.80	1085.52
696.14	1087.79
696.48	1090.15
696.81	1092.68
697.15	1094.25
697.49	1092.37
697.82	1091.77
698.16	1089.94
698.50	1088.65
698.83	1085.77
699.17	1086.92
699.51	1084.00
699.84	1084.04
700.18	1081.82
700.52	1083.50
700.85	1088.16
701.19	1086.73
701.53	1088.23
701.86	1091.18
702.20	1089.66
702.54	1086.52
702.87	1089.89
703.21	1090.01
703.55	1086.62
703.88	1088.86
704.22	1088.42
704.55	1089.29
704.89	1091.77
705.23	1095.51
705.56	1093.36
705.90	1091.72
706.23	1088.40
706.57	1085.73
706.91	1082.45
707.24	1081.94
707.58	1086.59
707.91	1087.88
708.25	1087.04
708.58	1085.26
708.92	1085.28
709.26	1080.56
709.59	1082.03
709.93	1080.27
710.26	1083.57
710.60	1087.16
710.93	1086.34
711.27	1083.57
711.60	1086.41
711.94	1089.22
712.27	1086.59
712.61	1089.92
712.94	1093.85
713.28	1090.39
713.61	1087.76
713.95	1090.06
714.28	1092.28
714.62	1090.57
714.95	1094.01
715.29	1092.37
715.62	1089.94
715.96	1087.41
716.29	1088.77
716.63	1088.91
716.96	1088.70
717.29	1089.68
717.63	1088.40
717.96	1085.19
718.30	1084.25
718.63	1088.33
718.97	1091.20
719.30	1092.98
719.63	1092.87
719.97	1093.01
720.30	1088.28
720.64	1086.62
720.97	1085.17
721.30	1084.93
721.64	1083.74
721.97	1083.81
722.31	1083.32
722.64	1083.06
722.97	1083.50
723.31	1084.30
723.64	1087.32
723.97	1088.14
724.31	1090.27
724.64	1092.70
724.98	1090.36
725.31	1089.71
725.64	1088.75
725.98	1088.04
726.31	1085.70
726.64	1088.89
726.97	1087.76
727.31	1088.28
727.64	1089.22
727.97	1091.74
728.31	1092.16
728.64	1091.79
728.97	1091.49
729.31	1090.95
729.64	1088.68
729.97	1084.07
730.30	1080.88
730.64	1080.16
730.97	1079.76
731.30	1079.08
731.63	1083.71
731.97	1090.62
732.30	1089.64
732.63	1088.26
732.96	1086.99
733.30	1084.58
733.63	1081.87
733.96	1082.99
734.29	1083.36
734.63	1085.54
734.96	1086.50
735.29	1084.72
735.62	1084.70
735.95	1087.13
736.29	1086.06
736.62	1088.19
736.95	1091.86
737.28	1092.87
737.61	1093.85
737.94	1095.89
738.28	1092.37
738.61	1091.34
738.94	1090.29
739.27	1085.47
739.60	1083.53
739.93	1086.71
740.27	1087.06
740.60	1088.19
740.93	1088.09
741.26	1089.80
741.59	1086.94
741.92	1087.46
742.25	1087.27
742.58	1091.18
742.91	1091.13
743.25	1090.50
743.58	1091.58
743.91	1088.77
744.24	1087.32
744.57	1087.46
744.90	1089.59
745.23	1084.44
745.56	1086.94
745.89	1085.96
746.22	1086.92
746.55	1087.13
746.88	1088.09
747.21	1088.26
747.54	1089.33
747.87	1087.51
748.20	1086.71
748.53	1090.32
748.87	1090.01
749.20	1090.01
749.53	1091.18
749.86	1092.21
750.19	1091.37
750.52	1090.32
750.85	1089.31
751.18	1087.23
751.51	1085.84
751.84	1085.49
752.16	1084.11
752.49	1081.98
752.82	1081.61
753.15	1082.59
753.48	1082.57
753.81	1085.52
754.14	1087.44
754.47	1091.18
754.80	1092.54
755.13	1090.69
755.46	1091.49
755.79	1091.16
756.12	1088.96
756.45	1085.56
756.78	1086.94
757.11	1086.17
757.43	1086.29
757.76	1089.45
758.09	1090.17
758.42	1087.93
758.75	1084.32
759.08	1084.79
759.41	1081.05
759.74	1080.34
760.07	1080.27
760.39	1083.22
760.72	1081.19
761.05	1080.13
761.38	1082.12
761.71	1083.29
762.04	1084.14
762.36	1085.54
762.69	1086.27
763.02	1083.88
763.35	1086.64
