SpectraSuite Data File
++++++++++++++++++++++++++++++++++++
Date: Mon Aug 26 10:26:21 PDT 2019
User: corrico
Dark Spectrum Present: No
Reference Spectrum Present: No
Number of Sampled Component Spectra: 1
Spectrometers: USB2+H06089
Integration Time (usec): 10000 (USB2+H06089)
Spectra Averaged: 20 (USB2+H06089)
Boxcar Smoothing: 2 (USB2+H06089)
Correct for Electrical Dark: No (USB2+H06089)
Strobe/Lamp Enabled: No (USB2+H06089)
Correct for Detector Non-linearity: No (USB2+H06089)
Correct for Stray Light: No (USB2+H06089)
Number of Pixels in Processed Spectrum: 2048
>>>>>Begin Processed Spectral Data<<<<<
339.70	1036.62
340.07	1036.62
340.45	1005.78
340.82	980.12
341.19	955.27
341.57	926.81
341.94	916.55
342.31	906.93
342.69	906.68
343.06	903.35
343.43	904.17
343.81	903.26
344.18	903.63
344.55	906.56
344.93	913.65
345.30	922.12
345.67	932.91
346.04	937.88
346.42	946.98
346.79	953.65
347.16	960.72
347.54	965.35
347.91	976.57
348.28	987.26
348.65	998.38
349.03	1009.61
349.40	1017.90
349.77	1026.16
350.14	1032.01
350.52	1038.59
350.89	1042.87
351.26	1051.18
351.63	1056.80
352.01	1059.65
352.38	1064.43
352.75	1070.87
353.12	1074.40
353.50	1079.22
353.87	1082.61
354.24	1083.29
354.61	1082.57
354.98	1083.93
355.36	1085.68
355.73	1087.76
356.10	1088.33
356.47	1088.04
356.84	1088.19
357.22	1086.94
357.59	1086.50
357.96	1088.72
358.33	1091.06
358.70	1092.33
359.08	1092.12
359.45	1091.32
359.82	1090.01
360.19	1087.58
360.56	1084.53
360.94	1083.41
361.31	1085.38
361.68	1080.51
362.05	1079.06
362.42	1078.10
362.79	1078.47
363.16	1076.34
363.54	1079.48
363.91	1082.94
364.28	1084.21
364.65	1080.86
365.02	1080.67
365.39	1081.47
365.76	1081.26
366.14	1080.74
366.51	1083.29
366.88	1083.81
367.25	1084.74
367.62	1082.45
367.99	1084.07
368.36	1084.96
368.73	1083.64
369.10	1080.81
369.48	1081.68
369.85	1083.08
370.22	1086.45
370.59	1088.84
370.96	1091.91
371.33	1093.31
371.70	1091.30
372.07	1086.50
372.44	1088.26
372.81	1085.38
373.18	1083.25
373.55	1084.67
373.93	1084.00
374.30	1079.55
374.67	1079.83
375.04	1079.88
375.41	1078.80
375.78	1078.38
376.15	1080.37
376.52	1083.79
376.89	1081.96
377.26	1083.55
377.63	1084.98
378.00	1086.94
378.37	1084.86
378.74	1087.41
379.11	1087.23
379.48	1087.46
379.85	1084.53
380.22	1085.47
380.59	1087.16
380.96	1084.70
381.33	1087.62
381.70	1086.76
382.07	1085.07
382.44	1084.21
382.81	1084.63
383.18	1081.68
383.55	1083.86
383.92	1085.28
384.29	1084.37
384.66	1085.82
385.03	1086.10
385.40	1086.15
385.77	1088.33
386.14	1089.36
386.51	1088.70
386.88	1089.12
387.25	1089.14
387.62	1085.99
387.99	1085.99
388.36	1086.22
388.73	1087.32
389.10	1088.21
389.46	1088.42
389.83	1086.31
390.20	1084.70
390.57	1083.39
390.94	1082.47
391.31	1082.29
391.68	1081.63
392.05	1083.27
392.42	1083.46
392.79	1082.31
393.16	1084.14
393.53	1086.73
393.89	1085.47
394.26	1089.26
394.63	1090.67
395.00	1092.05
395.37	1093.08
395.74	1090.60
396.11	1086.41
396.48	1084.46
396.84	1080.23
397.21	1079.13
397.58	1083.06
397.95	1084.79
398.32	1087.62
398.69	1093.17
399.06	1094.79
399.42	1095.84
399.79	1094.72
400.16	1095.56
400.53	1094.15
400.90	1095.16
401.27	1094.65
401.64	1095.42
402.00	1094.04
402.37	1092.59
402.74	1093.83
403.11	1092.84
403.48	1094.65
403.84	1096.24
404.21	1096.33
404.58	1095.91
404.95	1100.03
405.32	1098.76
405.68	1095.77
406.05	1099.16
406.42	1100.82
406.79	1100.33
407.16	1100.10
407.52	1099.63
407.89	1096.68
408.26	1097.71
408.63	1096.73
408.99	1097.83
409.36	1100.64
409.73	1103.59
410.10	1099.02
410.47	1097.64
410.83	1097.97
411.20	1100.38
411.57	1100.40
411.94	1099.16
412.30	1100.85
412.67	1101.34
413.04	1100.33
413.40	1102.56
413.77	1103.19
414.14	1103.82
414.51	1104.33
414.87	1104.45
415.24	1100.59
415.61	1103.42
415.97	1103.33
416.34	1104.38
416.71	1103.52
417.08	1103.56
417.44	1106.93
417.81	1108.01
418.18	1106.00
418.54	1104.15
418.91	1107.71
419.28	1103.77
419.64	1103.82
420.01	1104.05
420.38	1108.22
420.74	1110.51
421.11	1113.91
421.48	1113.04
421.84	1115.48
422.21	1116.93
422.58	1113.98
422.94	1111.01
423.31	1112.99
423.68	1114.07
424.04	1113.51
424.41	1111.26
424.77	1112.32
425.14	1111.05
425.51	1110.82
425.87	1108.78
426.24	1111.87
426.61	1116.08
426.97	1122.19
427.34	1123.60
427.70	1123.81
428.07	1122.29
428.44	1121.05
428.80	1117.58
429.17	1114.52
429.53	1115.20
429.90	1115.62
430.27	1115.22
430.63	1112.99
431.00	1112.90
431.36	1112.88
431.73	1112.57
432.09	1113.49
432.46	1117.56
432.83	1118.73
433.19	1121.75
433.56	1123.18
433.92	1122.90
434.29	1119.85
434.65	1120.06
435.02	1117.68
435.38	1116.93
435.75	1114.84
436.11	1114.42
436.48	1114.24
436.84	1118.28
437.21	1118.99
437.57	1117.93
437.94	1117.72
438.30	1118.07
438.67	1110.30
439.03	1107.42
439.40	1107.49
439.76	1111.47
440.13	1113.23
440.49	1117.98
440.86	1120.70
441.22	1121.77
441.59	1120.20
441.95	1119.81
442.32	1119.24
442.68	1114.61
443.05	1112.50
443.41	1108.83
443.78	1108.36
444.14	1109.13
444.51	1112.36
444.87	1114.87
445.24	1113.88
445.60	1112.36
445.96	1109.23
446.33	1111.10
446.69	1108.97
447.06	1111.38
447.42	1109.74
447.79	1109.91
448.15	1110.00
448.51	1108.99
448.88	1110.33
449.24	1114.66
449.61	1114.33
449.97	1110.72
450.33	1112.06
450.70	1112.20
451.06	1110.58
451.43	1111.22
451.79	1115.03
452.15	1116.86
452.52	1115.85
452.88	1113.09
453.24	1115.12
453.61	1112.97
453.97	1111.94
454.34	1114.31
454.70	1114.49
455.06	1114.12
455.43	1117.11
455.79	1118.89
456.15	1117.18
456.52	1122.45
456.88	1122.61
457.24	1120.95
457.61	1119.48
457.97	1117.63
458.33	1113.35
458.70	1113.21
459.06	1112.13
459.42	1111.61
459.79	1116.65
460.15	1117.35
460.51	1119.97
460.88	1122.38
461.24	1123.81
461.60	1122.61
461.96	1123.41
462.33	1122.68
462.69	1125.49
463.05	1127.97
463.42	1127.81
463.78	1128.23
464.14	1127.48
464.50	1124.44
464.87	1121.02
465.23	1117.49
465.59	1119.45
465.95	1120.04
466.32	1119.99
466.68	1125.98
467.04	1133.10
467.40	1133.83
467.77	1135.70
468.13	1136.94
468.49	1136.45
468.85	1134.15
469.22	1132.84
469.58	1133.47
469.94	1140.24
470.30	1141.71
470.66	1145.76
471.03	1150.65
471.39	1153.14
471.75	1152.92
472.11	1153.88
472.47	1159.34
472.84	1164.07
473.20	1169.61
473.56	1173.01
473.92	1178.09
474.28	1177.43
474.65	1181.08
475.01	1182.35
475.37	1186.30
475.73	1190.16
476.09	1193.86
476.45	1196.65
476.81	1206.22
477.18	1214.01
477.54	1221.24
477.90	1231.73
478.26	1237.84
478.62	1243.29
478.98	1248.14
479.34	1255.79
479.71	1264.50
480.07	1273.98
480.43	1285.14
480.79	1297.97
481.15	1308.17
481.51	1321.23
481.87	1337.57
482.23	1348.97
482.59	1363.03
482.96	1380.05
483.32	1397.04
483.68	1412.14
484.04	1431.99
484.40	1453.29
484.76	1478.33
485.12	1498.74
485.48	1522.57
485.84	1541.27
486.20	1565.02
486.56	1588.59
486.92	1616.09
487.28	1642.68
487.64	1674.47
488.00	1705.41
488.37	1736.54
488.73	1771.29
489.09	1809.61
489.45	1858.39
489.81	1901.57
490.17	1950.42
490.53	1998.96
490.89	2048.30
491.25	2095.62
491.61	2146.72
491.97	2200.92
492.33	2252.88
492.69	2312.43
493.05	2370.89
493.41	2444.39
493.77	2517.76
494.13	2603.33
494.49	2686.72
494.85	2774.87
495.21	2861.66
495.57	2955.39
495.93	3049.25
496.29	3150.85
496.64	3265.52
497.00	3375.71
497.36	3493.58
497.72	3618.33
498.08	3754.90
498.44	3894.84
498.80	4046.72
499.16	4210.41
499.52	4381.04
499.88	4555.17
500.24	4734.53
500.60	4920.18
500.96	5105.08
501.32	5289.03
501.68	5481.79
502.03	5690.90
502.39	5913.93
502.75	6152.47
503.11	6426.20
503.47	6713.26
503.83	7007.42
504.19	7314.85
504.55	7647.98
504.91	7964.07
505.26	8288.73
505.62	8664.05
505.98	9077.23
506.34	9470.02
506.70	9911.58
507.06	10384.21
507.42	10841.17
507.78	11292.94
508.13	11797.84
508.49	12314.92
508.85	12879.85
509.21	13442.63
509.57	14016.95
509.93	14622.73
510.28	15276.58
510.64	15955.22
511.00	16646.85
511.36	17386.51
511.72	18180.67
512.07	18991.11
512.43	19773.31
512.79	20674.09
513.15	21565.46
513.51	22337.84
513.86	23152.77
514.22	24095.91
514.58	25021.10
514.94	25905.12
515.30	26953.26
515.65	28052.63
516.01	29012.95
516.37	29932.55
516.73	30939.94
517.08	31830.96
517.44	32548.80
517.80	33414.59
518.16	34361.64
518.51	35293.71
518.87	36245.14
519.23	37320.87
519.59	38304.67
519.94	39272.04
520.30	40219.84
520.66	41055.43
521.01	41860.46
521.37	42661.72
521.73	43311.85
522.09	43869.25
522.44	44583.11
522.80	45118.13
523.16	45469.10
523.51	45785.07
523.87	46183.97
524.23	46473.77
524.58	46748.43
524.94	47176.03
525.30	47498.71
525.65	47621.57
526.01	47593.90
526.37	47745.01
526.72	47819.32
527.08	47792.66
527.44	47698.18
527.79	47631.47
528.15	47431.96
528.51	47105.18
528.86	46828.17
529.22	46501.83
529.58	46137.74
529.93	45705.86
530.29	45175.97
530.65	44726.19
531.00	44307.86
531.36	43720.90
531.71	43107.38
532.07	42654.51
532.43	41948.93
532.78	41213.77
533.14	40612.91
533.49	39979.07
533.85	39232.48
534.21	38665.58
534.56	38134.58
534.92	37501.70
535.27	36825.40
535.63	36040.08
535.98	35276.30
536.34	34493.18
536.69	33744.28
537.05	33045.74
537.41	32489.77
537.76	31857.73
538.12	31162.36
538.47	30577.11
538.83	30028.39
539.18	29431.89
539.54	28900.98
539.89	28436.64
540.25	27949.32
540.60	27427.71
540.96	26853.32
541.31	26336.34
541.67	25929.84
542.02	25468.02
542.38	25021.97
542.73	24576.02
543.09	24087.51
543.44	23568.02
543.80	23099.38
544.15	22616.90
544.51	22261.14
544.86	21854.92
545.22	21479.61
545.57	21103.44
545.93	20692.16
546.28	20266.96
546.64	19917.96
546.99	19529.29
547.35	19151.62
547.70	18803.96
548.05	18435.23
548.41	18021.02
548.76	17573.00
549.12	17149.90
549.47	16770.43
549.83	16430.96
550.18	16082.78
550.53	15729.03
550.89	15356.47
551.24	14968.17
551.60	14627.58
551.95	14333.72
552.30	14074.04
552.66	13854.12
553.01	13660.14
553.37	13403.15
553.72	13117.95
554.07	12842.47
554.43	12556.30
554.78	12238.52
555.13	11941.23
555.49	11646.48
555.84	11378.47
556.19	11102.80
556.55	10816.20
556.90	10543.01
557.26	10324.66
557.61	10114.51
557.96	9895.88
558.32	9700.84
558.67	9500.47
559.02	9269.34
559.37	9055.16
559.73	8878.75
560.08	8700.66
560.43	8506.28
560.79	8311.80
561.14	8103.87
561.49	7890.65
561.85	7688.40
562.20	7511.34
562.55	7376.69
562.90	7228.91
563.26	7079.77
563.61	6936.60
563.96	6784.30
564.32	6606.09
564.67	6454.26
565.02	6328.06
565.37	6213.07
565.73	6071.54
566.08	5948.40
566.43	5836.03
566.78	5696.86
567.14	5554.42
567.49	5447.25
567.84	5334.85
568.19	5212.26
568.54	5116.65
568.90	5032.08
569.25	4945.32
569.60	4860.01
569.95	4783.80
570.31	4703.73
570.66	4614.48
571.01	4512.67
571.36	4419.40
571.71	4328.70
572.06	4240.86
572.42	4147.76
572.77	4071.71
573.12	3993.73
573.47	3921.50
573.82	3852.66
574.18	3793.38
574.53	3729.97
574.88	3677.01
575.23	3610.51
575.58	3541.77
575.93	3483.14
576.28	3432.63
576.64	3370.39
576.99	3306.85
577.34	3246.21
577.69	3175.40
578.04	3103.43
578.39	3047.73
578.74	2998.60
579.09	2943.46
579.44	2897.61
579.80	2856.39
580.15	2809.49
580.50	2764.15
580.85	2724.71
581.20	2679.73
581.55	2634.53
581.90	2590.90
582.25	2550.36
582.60	2505.66
582.95	2463.93
583.30	2425.90
583.65	2394.44
584.00	2355.23
584.35	2320.92
584.71	2291.99
585.06	2265.33
585.41	2231.28
585.76	2203.92
586.11	2177.10
586.46	2151.21
586.81	2116.17
587.16	2088.81
587.51	2065.73
587.86	2048.65
588.21	2020.00
588.56	1999.64
588.91	1984.77
589.26	1963.87
589.61	1934.83
589.96	1919.96
590.31	1897.73
590.66	1873.06
591.01	1850.54
591.36	1830.70
591.71	1804.01
592.06	1783.54
592.41	1764.58
592.76	1744.42
593.10	1728.44
593.45	1714.93
593.80	1704.73
594.15	1689.89
594.50	1680.46
594.85	1665.83
595.20	1656.77
595.55	1641.09
595.90	1626.77
596.25	1616.26
596.60	1605.28
596.95	1592.55
597.30	1584.75
597.64	1623.61
597.99	1611.20
598.34	1601.56
598.69	1585.03
599.04	1571.13
599.39	1511.89
599.74	1499.39
600.09	1491.58
600.44	1484.55
600.78	1477.91
601.13	1468.24
601.48	1457.45
601.83	1443.06
602.18	1436.13
602.53	1422.91
602.88	1413.19
603.22	1401.82
603.57	1396.01
603.92	1388.48
604.27	1381.43
604.62	1380.31
604.97	1381.10
605.31	1375.91
605.66	1368.30
606.01	1367.62
606.36	1358.21
606.71	1351.64
607.05	1345.60
607.40	1339.16
607.75	1328.04
608.10	1321.84
608.44	1317.82
608.79	1311.17
609.14	1305.39
609.49	1305.11
609.84	1299.65
610.18	1294.43
610.53	1290.69
610.88	1287.46
611.23	1283.11
611.57	1277.16
611.92	1272.13
612.27	1267.33
612.62	1262.30
612.96	1254.95
613.31	1250.29
613.66	1245.49
614.00	1240.46
614.35	1236.20
614.70	1231.85
615.05	1228.76
615.39	1222.95
615.74	1222.88
616.09	1224.83
616.43	1226.70
616.78	1223.89
617.13	1222.65
617.47	1215.72
617.82	1206.90
618.17	1196.53
618.51	1194.80
618.86	1193.44
619.21	1193.25
619.55	1193.39
619.90	1194.12
620.25	1191.12
620.59	1188.55
620.94	1185.74
621.29	1179.79
621.63	1177.85
621.98	1177.90
622.32	1173.80
622.67	1175.09
623.02	1176.49
623.36	1174.83
623.71	1173.85
624.05	1172.87
624.40	1167.13
624.75	1168.63
625.09	1169.68
625.44	1165.10
625.78	1161.54
626.13	1160.48
626.48	1157.00
626.82	1151.33
627.17	1148.50
627.51	1148.22
627.86	1145.53
628.20	1146.04
628.55	1145.97
628.89	1147.49
629.24	1145.97
629.58	1147.85
629.93	1143.52
630.28	1141.27
630.62	1140.38
630.97	1140.66
631.31	1139.82
631.66	1137.13
632.00	1137.80
632.35	1135.84
632.69	1135.30
633.04	1131.95
633.38	1132.82
633.73	1130.78
634.07	1130.03
634.42	1125.52
634.76	1124.93
635.11	1122.97
635.45	1123.67
635.79	1121.94
636.14	1121.87
636.48	1118.19
636.83	1118.64
637.17	1117.65
637.52	1116.41
637.86	1120.53
638.21	1124.44
638.55	1125.70
638.89	1124.37
639.24	1127.39
639.58	1121.87
639.93	1120.34
640.27	1118.61
640.61	1120.41
640.96	1117.16
641.30	1117.77
641.65	1119.17
641.99	1119.24
642.33	1115.03
642.68	1115.69
643.02	1116.93
643.37	1115.97
643.71	1113.44
644.05	1113.60
644.40	1110.72
644.74	1108.06
645.08	1108.50
645.43	1108.83
645.77	1107.26
646.11	1107.64
646.46	1111.15
646.80	1106.86
647.14	1106.68
647.49	1108.48
647.83	1108.76
648.17	1107.40
648.52	1104.85
648.86	1105.46
649.20	1106.37
649.55	1105.20
649.89	1102.74
650.23	1104.55
650.57	1104.64
650.92	1100.40
651.26	1099.89
651.60	1099.00
651.95	1098.62
652.29	1097.34
652.63	1098.53
652.97	1099.33
653.32	1100.75
653.66	1102.56
654.00	1102.06
654.34	1101.81
654.69	1102.79
655.03	1103.91
655.37	1103.38
655.71	1100.99
656.05	1101.25
656.40	1100.68
656.74	1097.80
657.08	1096.07
657.42	1098.88
657.76	1099.79
658.11	1098.95
658.45	1098.69
658.79	1097.41
659.13	1095.37
659.47	1095.63
659.82	1097.22
660.16	1097.97
660.50	1101.01
660.84	1101.71
661.18	1097.41
661.52	1096.70
661.87	1098.62
662.21	1099.26
662.55	1100.15
662.89	1103.31
663.23	1102.09
663.57	1097.17
663.91	1095.89
664.25	1093.29
664.60	1093.90
664.94	1092.49
665.28	1096.10
665.62	1097.85
665.96	1103.09
666.30	1104.03
666.64	1104.92
666.98	1102.25
667.32	1101.57
667.66	1100.71
668.01	1098.60
668.35	1099.58
668.69	1103.23
669.03	1101.57
669.37	1098.16
669.71	1099.26
670.05	1096.68
670.39	1094.22
670.73	1095.91
671.07	1096.26
671.41	1092.98
671.75	1095.96
672.09	1098.51
672.43	1097.90
672.77	1094.60
673.11	1096.54
673.45	1093.52
673.79	1088.00
674.13	1088.75
674.47	1092.54
674.81	1092.37
675.15	1092.45
675.49	1097.45
675.83	1093.24
676.17	1092.14
676.51	1093.55
676.85	1092.96
677.19	1093.55
677.53	1099.16
677.87	1099.49
678.21	1097.90
678.55	1097.03
678.89	1096.49
679.23	1091.63
679.57	1093.12
679.90	1093.78
680.24	1099.14
680.58	1095.11
680.92	1097.22
681.26	1097.08
681.60	1098.16
681.94	1095.00
682.28	1095.82
682.62	1097.73
682.96	1097.17
683.29	1094.53
683.63	1096.28
683.97	1096.96
684.31	1095.63
684.65	1094.88
684.99	1094.67
685.33	1090.24
685.67	1090.57
686.00	1089.80
686.34	1087.72
686.68	1088.82
687.02	1091.18
687.36	1086.64
687.70	1086.10
688.03	1089.85
688.37	1090.92
688.71	1092.26
689.05	1099.14
689.39	1096.40
689.72	1091.70
690.06	1092.07
690.40	1091.18
690.74	1089.12
691.08	1091.56
691.41	1096.68
691.75	1095.72
692.09	1096.07
692.43	1095.39
692.76	1097.10
693.10	1095.46
693.44	1096.07
693.78	1095.49
694.11	1096.17
694.45	1093.73
694.79	1094.15
695.13	1094.18
695.46	1096.17
695.80	1095.00
696.14	1096.56
696.48	1094.88
696.81	1091.58
697.15	1088.40
697.49	1087.02
697.82	1083.43
698.16	1081.98
698.50	1081.51
698.83	1082.26
699.17	1083.46
699.51	1086.24
699.84	1086.36
700.18	1088.93
700.52	1086.31
700.85	1086.48
701.19	1085.56
701.53	1086.73
701.86	1086.27
702.20	1085.56
702.54	1087.88
702.87	1089.07
703.21	1092.91
703.55	1093.78
703.88	1097.03
704.22	1094.57
704.55	1094.04
704.89	1092.54
705.23	1092.73
705.56	1095.16
705.90	1094.22
706.23	1093.05
706.57	1091.37
706.91	1090.36
707.24	1090.13
707.58	1090.69
707.91	1090.71
708.25	1090.64
708.58	1089.92
708.92	1090.32
709.26	1093.05
709.59	1091.09
709.93	1089.87
710.26	1091.93
710.60	1088.82
710.93	1087.16
711.27	1089.03
711.60	1088.68
711.94	1087.81
712.27	1091.65
712.61	1089.05
712.94	1088.54
713.28	1088.63
713.61	1088.14
713.95	1085.59
714.28	1088.37
714.62	1086.03
714.95	1087.79
715.29	1091.06
715.62	1088.54
715.96	1085.38
716.29	1088.77
716.63	1087.90
716.96	1084.67
717.29	1087.44
717.63	1088.09
717.96	1087.25
718.30	1087.69
718.63	1085.68
718.97	1084.04
719.30	1083.97
719.63	1087.09
719.97	1086.80
720.30	1089.24
720.64	1089.66
720.97	1087.81
721.30	1086.52
721.64	1082.97
721.97	1081.70
722.31	1081.87
722.64	1084.84
722.97	1085.12
723.31	1088.23
723.64	1088.14
723.97	1091.56
724.31	1092.94
724.64	1094.13
724.98	1093.17
725.31	1091.13
725.64	1085.82
725.98	1086.83
726.31	1083.81
726.64	1084.42
726.97	1084.56
727.31	1087.04
727.64	1086.10
727.97	1084.86
728.31	1085.05
728.64	1086.97
728.97	1086.69
729.31	1082.80
729.64	1084.60
729.97	1085.70
730.30	1085.89
730.64	1086.31
730.97	1089.24
731.30	1089.19
731.63	1088.09
731.97	1086.92
732.30	1088.96
732.63	1088.19
732.96	1088.86
733.30	1089.19
733.63	1088.14
733.96	1086.87
734.29	1085.73
734.63	1087.83
734.96	1085.66
735.29	1085.45
735.62	1085.12
735.95	1084.89
736.29	1082.17
736.62	1080.95
736.95	1083.25
737.28	1082.78
737.61	1086.34
737.94	1085.49
738.28	1088.89
738.61	1086.43
738.94	1085.52
739.27	1083.83
739.60	1086.59
739.93	1086.80
740.27	1089.73
740.60	1090.29
740.93	1090.27
741.26	1089.05
741.59	1088.44
741.92	1086.27
742.25	1086.20
742.58	1085.66
742.91	1081.07
743.25	1083.22
743.58	1081.84
743.91	1081.00
744.24	1081.82
744.57	1084.79
744.90	1080.81
745.23	1083.06
745.56	1083.46
745.89	1085.10
746.22	1084.96
746.55	1089.24
746.88	1088.23
747.21	1088.00
747.54	1088.40
747.87	1092.16
748.20	1090.53
748.53	1091.30
748.87	1092.02
749.20	1088.40
749.53	1085.47
749.86	1083.36
750.19	1085.82
750.52	1085.38
750.85	1087.67
751.18	1087.11
751.51	1087.16
751.84	1086.08
752.16	1087.11
752.49	1085.99
752.82	1086.03
753.15	1082.92
753.48	1082.03
753.81	1082.10
754.14	1082.59
754.47	1082.59
754.80	1086.87
755.13	1086.57
755.46	1086.52
755.79	1083.69
756.12	1085.70
756.45	1081.82
756.78	1082.43
757.11	1077.16
757.43	1078.57
757.76	1075.69
758.09	1077.44
758.42	1078.96
758.75	1085.47
759.08	1087.32
759.41	1088.16
759.74	1091.37
760.07	1086.29
760.39	1085.75
760.72	1085.07
761.05	1088.02
761.38	1087.76
761.71	1092.66
762.04	1090.46
762.36	1092.70
762.69	1088.72
763.02	1088.26
763.35	1087.95
