SpectraSuite Data File
++++++++++++++++++++++++++++++++++++
Date: Mon Aug 26 10:26:17 PDT 2019
User: corrico
Dark Spectrum Present: No
Reference Spectrum Present: No
Number of Sampled Component Spectra: 1
Spectrometers: USB2+H06089
Integration Time (usec): 10000 (USB2+H06089)
Spectra Averaged: 20 (USB2+H06089)
Boxcar Smoothing: 2 (USB2+H06089)
Correct for Electrical Dark: No (USB2+H06089)
Strobe/Lamp Enabled: No (USB2+H06089)
Correct for Detector Non-linearity: No (USB2+H06089)
Correct for Stray Light: No (USB2+H06089)
Number of Pixels in Processed Spectrum: 2048
>>>>>Begin Processed Spectral Data<<<<<
339.70	1014.51
340.07	1014.51
340.45	984.64
340.82	966.76
341.19	947.14
341.57	924.63
341.94	913.53
342.31	908.39
342.69	904.71
343.06	901.43
343.43	899.91
343.81	902.46
344.18	906.09
344.55	909.27
344.93	914.24
345.30	922.33
345.67	926.78
346.04	935.00
346.42	940.64
346.79	949.84
347.16	959.97
347.54	969.26
347.91	978.86
348.28	989.09
348.65	999.17
349.03	1005.82
349.40	1015.89
349.77	1024.62
350.14	1034.94
350.52	1040.18
350.89	1048.42
351.26	1051.32
351.63	1055.39
352.01	1056.52
352.38	1061.46
352.75	1066.35
353.12	1073.44
353.50	1076.76
353.87	1080.30
354.24	1084.56
354.61	1085.35
354.98	1088.33
355.36	1088.09
355.73	1090.22
356.10	1089.50
356.47	1088.51
356.84	1085.91
357.22	1090.24
357.59	1092.59
357.96	1093.92
358.33	1094.95
358.70	1097.22
359.08	1095.25
359.45	1093.01
359.82	1090.29
360.19	1087.46
360.56	1085.40
360.94	1084.46
361.31	1084.63
361.68	1085.38
362.05	1086.73
362.42	1086.57
362.79	1086.57
363.16	1083.74
363.54	1082.61
363.91	1083.93
364.28	1082.05
364.65	1077.28
365.02	1077.47
365.39	1077.09
365.76	1077.79
366.14	1076.55
366.51	1078.12
366.88	1076.72
367.25	1077.44
367.62	1075.57
367.99	1077.70
368.36	1076.67
368.73	1080.84
369.10	1080.60
369.48	1083.57
369.85	1085.10
370.22	1086.66
370.59	1082.40
370.96	1083.20
371.33	1078.87
371.70	1078.82
372.07	1078.59
372.44	1080.56
372.81	1077.21
373.18	1078.61
373.55	1076.60
373.93	1075.24
374.30	1076.60
374.67	1079.46
375.04	1082.36
375.41	1083.74
375.78	1086.08
376.15	1085.33
376.52	1086.73
376.89	1084.35
377.26	1083.39
377.63	1084.18
378.00	1083.32
378.37	1080.60
378.74	1078.24
379.11	1079.10
379.48	1080.30
379.85	1080.34
380.22	1080.25
380.59	1081.23
380.96	1079.29
381.33	1077.07
381.70	1079.64
382.07	1080.93
382.44	1083.22
382.81	1085.03
383.18	1083.39
383.55	1081.33
383.92	1082.22
384.29	1080.25
384.66	1080.48
385.03	1081.54
385.40	1084.58
385.77	1085.94
386.14	1083.88
386.51	1083.48
386.88	1084.00
387.25	1083.11
387.62	1082.38
387.99	1084.00
388.36	1084.28
388.73	1083.86
389.10	1084.30
389.46	1086.97
389.83	1090.85
390.20	1091.63
390.57	1092.94
390.94	1092.40
391.31	1088.61
391.68	1087.37
392.05	1087.67
392.42	1087.62
392.79	1085.52
393.16	1087.58
393.53	1083.71
393.89	1086.34
394.26	1086.03
394.63	1088.68
395.00	1086.17
395.37	1088.54
395.74	1087.60
396.11	1087.72
396.48	1088.84
396.84	1091.84
397.21	1094.83
397.58	1093.43
397.95	1092.49
398.32	1092.19
398.69	1092.16
399.06	1090.69
399.42	1093.94
399.79	1095.28
400.16	1096.12
400.53	1094.90
400.90	1095.77
401.27	1094.48
401.64	1096.40
402.00	1090.29
402.37	1088.04
402.74	1085.80
403.11	1085.68
403.48	1082.08
403.84	1088.26
404.21	1088.07
404.58	1089.33
404.95	1087.46
405.32	1090.50
405.68	1088.75
406.05	1090.76
406.42	1093.38
406.79	1095.98
407.16	1097.31
407.52	1099.79
407.89	1099.79
408.26	1099.82
408.63	1097.78
408.99	1098.51
409.36	1100.08
409.73	1102.72
410.10	1103.56
410.47	1107.59
410.83	1105.90
411.20	1103.35
411.57	1102.84
411.94	1104.48
412.30	1103.56
412.67	1105.46
413.04	1105.48
413.40	1107.00
413.77	1104.90
414.14	1102.28
414.51	1104.01
414.87	1105.13
415.24	1106.72
415.61	1107.56
415.97	1110.49
416.34	1108.57
416.71	1109.77
417.08	1109.55
417.44	1111.26
417.81	1112.27
418.18	1113.70
418.54	1112.78
418.91	1110.07
419.28	1108.57
419.64	1108.48
420.01	1107.94
420.38	1111.54
420.74	1117.07
421.11	1115.85
421.48	1115.03
421.84	1119.67
422.21	1117.44
422.58	1113.35
422.94	1118.50
423.31	1119.43
423.68	1115.90
424.04	1116.51
424.41	1116.39
424.77	1112.08
425.14	1111.22
425.51	1110.79
425.87	1113.63
426.24	1116.32
426.61	1118.00
426.97	1121.56
427.34	1120.48
427.70	1115.10
428.07	1116.37
428.44	1118.89
428.80	1116.18
429.17	1122.68
429.53	1127.20
429.90	1125.26
430.27	1122.59
430.63	1120.34
431.00	1118.28
431.36	1116.97
431.73	1117.14
432.09	1114.75
432.46	1117.32
432.83	1115.71
433.19	1112.81
433.56	1113.21
433.92	1115.10
434.29	1118.78
434.65	1118.57
435.02	1122.80
435.38	1123.25
435.75	1121.26
436.11	1118.10
436.48	1121.89
436.84	1118.80
437.21	1117.32
437.57	1119.27
437.94	1118.73
438.30	1115.15
438.67	1113.63
439.03	1113.16
439.40	1112.27
439.76	1115.36
440.13	1116.74
440.49	1118.42
440.86	1115.34
441.22	1114.31
441.59	1111.80
441.95	1106.96
442.32	1107.03
442.68	1109.25
443.05	1112.27
443.41	1115.41
443.78	1120.11
444.14	1120.60
444.51	1125.52
444.87	1127.01
445.24	1122.38
445.60	1121.14
445.96	1123.13
446.33	1118.96
446.69	1117.04
447.06	1116.55
447.42	1115.15
447.79	1111.82
448.15	1112.18
448.51	1111.40
448.88	1114.26
449.24	1115.50
449.61	1115.03
449.97	1114.61
450.33	1113.67
450.70	1112.36
451.06	1112.13
451.43	1116.55
451.79	1118.42
452.15	1117.61
452.52	1115.38
452.88	1113.09
453.24	1108.95
453.61	1106.25
453.97	1108.59
454.34	1111.61
454.70	1114.17
455.06	1117.18
455.43	1120.63
455.79	1121.30
456.15	1122.31
456.52	1121.16
456.88	1119.36
457.24	1116.46
457.61	1115.55
457.97	1114.00
458.33	1116.25
458.70	1113.39
459.06	1112.04
459.42	1113.25
459.79	1113.25
460.15	1111.97
460.51	1115.94
460.88	1119.69
461.24	1124.79
461.60	1126.97
461.96	1126.08
462.33	1127.30
462.69	1125.73
463.05	1120.18
463.42	1116.62
463.78	1120.16
464.14	1117.63
464.50	1118.80
464.87	1120.60
465.23	1125.10
465.59	1127.95
465.95	1133.24
466.32	1138.32
466.68	1141.13
467.04	1143.05
467.40	1141.06
467.77	1142.39
468.13	1139.54
468.49	1140.19
468.85	1140.26
469.22	1142.86
469.58	1141.99
469.94	1146.89
470.30	1150.54
470.66	1152.95
471.03	1152.60
471.39	1155.92
471.75	1158.94
472.11	1158.82
472.47	1161.72
472.84	1166.66
473.20	1170.88
473.56	1171.91
473.92	1175.04
474.28	1180.38
474.65	1185.95
475.01	1188.64
475.37	1192.71
475.73	1200.13
476.09	1204.35
476.45	1210.13
476.81	1217.36
477.18	1226.09
477.54	1231.54
477.90	1236.62
478.26	1245.49
478.62	1256.49
478.98	1264.38
479.34	1271.96
479.71	1284.04
480.07	1292.98
480.43	1302.77
480.79	1312.76
481.15	1326.76
481.51	1337.87
481.87	1349.67
482.23	1360.34
482.59	1376.89
482.96	1393.81
483.32	1414.27
483.68	1434.28
484.04	1455.67
484.40	1478.91
484.76	1504.24
485.12	1526.92
485.48	1551.45
485.84	1573.07
486.20	1595.19
486.56	1618.39
486.92	1644.65
487.28	1672.48
487.64	1708.26
488.00	1745.45
488.37	1780.91
488.73	1822.83
489.09	1863.04
489.45	1910.32
489.81	1957.58
490.17	2009.91
490.53	2060.63
490.89	2110.32
491.25	2161.55
491.61	2222.55
491.97	2280.66
492.33	2343.30
492.69	2409.98
493.05	2480.38
493.41	2552.33
493.77	2629.94
494.13	2712.21
494.49	2801.64
494.85	2893.98
495.21	2987.04
495.57	3090.58
495.93	3195.51
496.29	3304.79
496.64	3423.45
497.00	3541.86
497.36	3662.73
497.72	3796.86
498.08	3944.88
498.44	4104.76
498.80	4277.42
499.16	4459.05
499.52	4640.02
499.88	4827.05
500.24	5011.77
500.60	5201.51
500.96	5399.12
501.32	5597.98
501.68	5792.76
502.03	6015.69
502.39	6254.15
502.75	6517.76
503.11	6805.46
503.47	7115.09
503.83	7436.89
504.19	7762.15
504.55	8112.53
504.91	8454.55
505.26	8798.50
505.62	9202.12
505.98	9630.27
506.34	10036.73
506.70	10499.18
507.06	11019.87
507.42	11506.05
507.78	12011.42
508.13	12590.79
508.49	13155.22
508.85	13742.95
509.21	14348.30
509.57	14999.39
509.93	15626.80
510.28	16307.35
510.64	17050.57
511.00	17798.21
511.36	18548.70
511.72	19379.33
512.07	20286.50
512.43	21147.42
512.79	22103.04
513.15	23069.72
513.51	23935.42
513.86	24800.76
514.22	25791.88
514.58	26787.78
514.94	27749.20
515.30	28878.56
515.65	30048.78
516.01	31097.18
516.37	32129.07
516.73	33233.36
517.08	34207.16
517.44	35038.83
517.80	35968.28
518.16	36919.03
518.51	37863.01
518.87	38847.32
519.23	39934.22
519.59	40955.72
519.94	41985.37
520.30	43010.81
520.66	43856.02
521.01	44693.07
521.37	45550.59
521.73	46240.33
522.09	46850.41
522.44	47660.31
522.80	48272.05
523.16	48632.05
523.51	48935.31
523.87	49299.31
524.23	49631.06
524.58	49901.74
524.94	50304.74
525.30	50663.00
525.65	50859.33
526.01	50842.80
526.37	51018.62
526.72	51184.05
527.08	51247.13
527.44	51141.95
527.79	51047.22
528.15	50833.91
528.51	50489.40
528.86	50216.26
529.22	49896.36
529.58	49486.95
529.93	49051.24
530.29	48475.14
530.65	47939.06
531.00	47485.51
531.36	46901.13
531.71	46264.29
532.07	45791.93
532.43	45037.45
532.78	44217.99
533.14	43563.29
533.49	42846.48
533.85	42071.60
534.21	41492.39
534.56	40996.66
534.92	40342.15
535.27	39626.91
535.63	38853.29
535.98	38061.98
536.34	37196.29
536.69	36421.36
537.05	35725.63
537.41	35076.53
537.76	34410.20
538.12	33677.06
538.47	33005.37
538.83	32404.06
539.18	31786.35
539.54	31168.52
539.89	30675.06
540.25	30181.07
540.60	29636.19
540.96	29015.57
541.31	28466.41
541.67	28017.69
542.02	27554.07
542.38	27075.41
542.73	26606.30
543.09	26090.30
543.44	25492.16
543.80	24929.56
544.15	24387.56
544.51	23996.69
544.86	23582.16
545.22	23221.46
545.57	22819.59
545.93	22354.97
546.28	21872.45
546.64	21479.89
546.99	21054.69
547.35	20655.02
547.70	20294.41
548.05	19866.77
548.41	19432.58
548.76	18963.44
549.12	18521.92
549.47	18119.82
549.83	17787.86
550.18	17405.14
550.53	17034.35
550.89	16627.56
551.24	16210.46
551.60	15819.99
551.95	15482.60
552.30	15201.71
552.66	14954.60
553.01	14735.33
553.37	14445.48
553.72	14141.94
554.07	13812.27
554.43	13496.68
554.78	13145.13
555.13	12859.30
555.49	12524.84
555.84	12237.63
556.19	11942.09
556.55	11637.73
556.90	11329.20
557.26	11110.41
557.61	10887.61
557.96	10651.08
558.32	10444.73
558.67	10211.80
559.02	9957.86
559.37	9710.06
559.73	9511.63
560.08	9313.16
560.43	9110.09
560.79	8909.97
561.14	8687.60
561.49	8456.43
561.85	8244.30
562.20	8079.15
562.55	7918.48
562.90	7762.88
563.26	7608.36
563.61	7448.31
563.96	7260.01
564.32	7069.12
564.67	6898.00
565.02	6750.27
565.37	6623.83
565.73	6484.45
566.08	6352.52
566.43	6226.13
566.78	6066.43
567.14	5919.40
567.49	5797.95
567.84	5672.99
568.19	5549.83
568.54	5453.00
568.90	5350.32
569.25	5254.25
569.60	5160.88
569.95	5081.02
570.31	4997.63
570.66	4900.94
571.01	4799.95
571.36	4709.30
571.71	4616.96
572.06	4523.60
572.42	4432.06
572.77	4341.18
573.12	4264.18
573.47	4180.76
573.82	4115.93
574.18	4051.42
574.53	3989.56
574.88	3929.64
575.23	3861.35
575.58	3782.59
575.93	3712.82
576.28	3648.38
576.64	3574.89
576.99	3506.99
577.34	3436.91
577.69	3366.53
578.04	3290.49
578.39	3223.50
578.74	3162.39
579.09	3104.07
579.44	3046.37
579.80	2998.41
580.15	2951.67
580.50	2897.51
580.85	2848.60
581.20	2807.29
581.55	2760.85
581.90	2714.67
582.25	2670.81
582.60	2626.97
582.95	2588.07
583.30	2551.28
583.65	2511.37
584.00	2473.31
584.35	2438.25
584.71	2399.05
585.06	2363.40
585.41	2332.67
585.76	2302.71
586.11	2272.08
586.46	2242.12
586.81	2213.51
587.16	2177.82
587.51	2149.85
587.86	2129.91
588.21	2105.15
588.56	2079.19
588.91	2060.56
589.26	2040.27
589.61	2013.12
589.96	1986.90
590.31	1964.79
590.66	1940.07
591.01	1919.75
591.36	1900.00
591.71	1875.33
592.06	1853.42
592.41	1834.72
592.76	1814.17
593.10	1794.25
593.45	1779.51
593.80	1760.39
594.15	1745.31
594.50	1733.52
594.85	1720.60
595.20	1711.10
595.55	1701.78
595.90	1688.70
596.25	1671.31
596.60	1653.31
596.95	1636.29
597.30	1621.48
597.64	1661.55
597.99	1652.65
598.34	1643.10
598.69	1632.83
599.04	1621.03
599.39	1554.58
599.74	1536.14
600.09	1525.96
600.44	1512.88
600.78	1500.96
601.13	1493.10
601.48	1488.37
601.83	1479.12
602.18	1470.54
602.53	1462.25
602.88	1451.16
603.22	1440.81
603.57	1432.97
603.92	1425.85
604.27	1418.32
604.62	1411.09
604.97	1403.24
605.31	1396.74
605.66	1395.43
606.01	1389.74
606.36	1383.79
606.71	1373.73
607.05	1363.06
607.40	1348.43
607.75	1341.90
608.10	1335.44
608.44	1336.73
608.79	1331.81
609.14	1327.11
609.49	1318.75
609.84	1315.80
610.18	1311.43
610.53	1307.49
610.88	1301.10
611.23	1295.18
611.57	1287.22
611.92	1281.23
612.27	1275.99
612.62	1275.03
612.96	1273.49
613.31	1273.04
613.66	1267.89
614.00	1265.32
614.35	1258.76
614.70	1251.46
615.05	1244.86
615.39	1237.72
615.74	1233.72
616.09	1234.82
616.43	1237.72
616.78	1235.05
617.13	1233.04
617.47	1229.69
617.82	1222.88
618.17	1214.43
618.51	1211.30
618.86	1209.43
619.21	1203.92
619.55	1201.07
619.90	1201.98
620.25	1200.13
620.59	1195.97
620.94	1194.09
621.29	1194.98
621.63	1192.69
621.98	1189.74
622.32	1186.79
622.67	1186.65
623.02	1180.85
623.36	1175.58
623.71	1173.33
624.05	1175.14
624.40	1173.52
624.75	1172.07
625.09	1174.95
625.44	1173.29
625.78	1171.06
626.13	1168.65
626.48	1167.06
626.82	1161.37
627.17	1158.94
627.51	1158.61
627.86	1159.64
628.20	1160.98
628.55	1160.65
628.89	1159.15
629.24	1155.38
629.58	1153.39
629.93	1150.09
630.28	1150.12
630.62	1149.32
630.97	1148.10
631.31	1144.76
631.66	1143.94
632.00	1139.91
632.35	1141.43
632.69	1139.09
633.04	1135.91
633.38	1132.40
633.73	1132.21
634.07	1128.44
634.42	1124.65
634.76	1124.84
635.11	1127.18
635.45	1126.55
635.79	1123.04
636.14	1123.48
636.48	1122.38
636.83	1122.03
637.17	1122.43
637.52	1124.49
637.86	1125.21
638.21	1125.70
638.55	1124.58
638.89	1124.49
639.24	1123.67
639.58	1125.10
639.93	1125.77
640.27	1122.92
640.61	1120.06
640.96	1120.81
641.30	1120.41
641.65	1118.45
641.99	1119.71
642.33	1121.37
642.68	1118.59
643.02	1118.33
643.37	1119.81
643.71	1116.18
644.05	1115.31
644.40	1116.11
644.74	1117.44
645.08	1112.76
645.43	1116.44
645.77	1115.24
646.11	1117.82
646.46	1111.31
646.80	1111.85
647.14	1110.42
647.49	1111.26
647.83	1105.44
648.17	1106.61
648.52	1107.45
648.86	1106.68
649.20	1106.56
649.55	1108.57
649.89	1109.51
650.23	1109.86
650.57	1107.21
650.92	1104.36
651.26	1105.79
651.60	1103.28
651.95	1098.95
652.29	1099.77
652.63	1101.74
652.97	1100.43
653.32	1104.80
653.66	1108.57
654.00	1109.46
654.34	1107.80
654.69	1105.72
655.03	1101.57
655.37	1102.49
655.71	1102.95
656.05	1103.80
656.40	1106.37
656.74	1105.86
657.08	1103.38
657.42	1102.49
657.76	1102.56
658.11	1097.99
658.45	1097.20
658.79	1098.23
659.13	1094.76
659.47	1092.94
659.82	1095.11
660.16	1094.86
660.50	1092.91
660.84	1094.20
661.18	1093.01
661.52	1094.72
661.87	1098.83
662.21	1096.59
662.55	1094.69
662.89	1095.00
663.23	1094.36
663.57	1090.01
663.91	1092.33
664.25	1094.76
664.60	1095.23
664.94	1092.07
665.28	1096.94
665.62	1098.13
665.96	1099.93
666.30	1099.91
666.64	1100.00
666.98	1096.61
667.32	1095.63
667.66	1095.98
668.01	1095.96
668.35	1097.34
668.69	1097.64
669.03	1097.90
669.37	1097.90
669.71	1099.23
670.05	1096.89
670.39	1096.96
670.73	1095.51
671.07	1093.50
671.41	1092.02
671.75	1093.29
672.09	1095.32
672.43	1095.25
672.77	1094.20
673.11	1092.66
673.45	1092.54
673.79	1089.85
674.13	1093.29
674.47	1092.87
674.81	1094.83
675.15	1095.91
675.49	1094.65
675.83	1092.45
676.17	1093.43
676.51	1090.90
676.85	1089.26
677.19	1089.71
677.53	1090.50
677.87	1090.95
678.21	1094.29
678.55	1095.63
678.89	1097.38
679.23	1097.57
679.57	1098.06
679.90	1097.38
680.24	1098.53
680.58	1096.17
680.92	1093.15
681.26	1092.00
681.60	1092.96
681.94	1091.74
682.28	1094.57
682.62	1095.77
682.96	1097.41
683.29	1096.89
683.63	1092.94
683.97	1091.95
684.31	1092.75
684.65	1086.45
684.99	1084.25
685.33	1087.93
685.67	1087.83
686.00	1092.02
686.34	1096.38
686.68	1094.65
687.02	1092.30
687.36	1092.52
687.70	1091.16
688.03	1091.53
688.37	1092.63
688.71	1095.60
689.05	1094.53
689.39	1090.03
689.72	1091.02
690.06	1093.01
690.40	1091.39
690.74	1091.51
691.08	1093.83
691.41	1093.50
691.75	1092.63
692.09	1095.96
692.43	1098.79
692.76	1101.97
693.10	1099.61
693.44	1101.34
693.78	1100.66
694.11	1100.80
694.45	1098.06
694.79	1100.10
695.13	1097.13
695.46	1095.18
695.80	1093.73
696.14	1089.82
696.48	1090.01
696.81	1093.73
697.15	1093.90
697.49	1092.91
697.82	1093.45
698.16	1092.52
698.50	1088.82
698.83	1087.90
699.17	1089.75
699.51	1090.32
699.84	1089.94
700.18	1090.64
700.52	1090.03
700.85	1089.43
701.19	1089.94
701.53	1089.75
701.86	1086.92
702.20	1088.04
702.54	1085.40
702.87	1084.37
703.21	1085.56
703.55	1085.91
703.88	1085.05
704.22	1089.66
704.55	1090.99
704.89	1091.67
705.23	1093.80
705.56	1091.63
705.90	1087.93
706.23	1088.40
706.57	1089.14
706.91	1089.26
707.24	1092.73
707.58	1093.57
707.91	1094.93
708.25	1093.55
708.58	1095.37
708.92	1094.90
709.26	1096.99
709.59	1094.97
709.93	1094.36
710.26	1092.80
710.60	1092.45
710.93	1086.71
711.27	1085.94
711.60	1084.32
711.94	1084.32
712.27	1085.10
712.61	1087.93
712.94	1089.43
713.28	1091.98
713.61	1088.28
713.95	1088.98
714.28	1086.41
714.62	1087.46
714.95	1085.19
715.29	1091.79
715.62	1092.54
715.96	1093.12
716.29	1091.58
716.63	1094.29
716.96	1091.23
717.29	1088.35
717.63	1088.63
717.96	1084.74
718.30	1083.76
718.63	1086.71
718.97	1087.74
719.30	1087.74
719.63	1093.01
719.97	1096.07
720.30	1092.77
720.64	1089.94
720.97	1091.51
721.30	1090.92
721.64	1086.22
721.97	1086.06
722.31	1089.03
722.64	1089.00
722.97	1087.93
723.31	1086.97
723.64	1086.94
723.97	1087.86
724.31	1089.66
724.64	1089.66
724.98	1093.55
725.31	1092.96
725.64	1091.93
725.98	1092.05
726.31	1091.88
726.64	1089.59
726.97	1091.13
727.31	1089.57
727.64	1087.90
727.97	1086.50
728.31	1085.87
728.64	1086.03
728.97	1089.22
729.31	1085.70
729.64	1089.54
729.97	1091.25
730.30	1092.28
730.64	1089.96
730.97	1095.42
731.30	1093.10
731.63	1091.74
731.97	1090.32
732.30	1091.93
732.63	1090.24
732.96	1090.60
733.30	1093.19
733.63	1091.20
733.96	1090.78
734.29	1089.73
734.63	1089.89
734.96	1089.50
735.29	1088.86
735.62	1087.81
735.95	1087.81
736.29	1084.74
736.62	1084.53
736.95	1090.03
737.28	1089.31
737.61	1086.20
737.94	1088.44
738.28	1085.07
738.61	1081.51
738.94	1081.70
739.27	1083.15
739.60	1084.60
739.93	1088.35
740.27	1089.14
740.60	1092.91
740.93	1096.26
741.26	1097.78
741.59	1097.31
741.92	1095.72
742.25	1093.62
742.58	1091.32
742.91	1094.20
743.25	1091.93
743.58	1093.36
743.91	1094.13
744.24	1093.01
744.57	1089.24
744.90	1090.34
745.23	1091.18
745.56	1086.66
745.89	1089.64
746.22	1088.16
746.55	1087.53
746.88	1088.98
747.21	1093.80
747.54	1089.45
747.87	1089.78
748.20	1092.87
748.53	1091.79
748.87	1087.86
749.20	1087.72
749.53	1087.13
749.86	1083.01
750.19	1081.26
750.52	1079.38
750.85	1085.84
751.18	1082.83
751.51	1082.33
751.84	1084.14
752.16	1087.06
752.49	1085.99
752.82	1088.72
753.15	1090.01
753.48	1089.45
753.81	1088.93
754.14	1086.97
754.47	1084.35
754.80	1086.20
755.13	1081.16
755.46	1081.42
755.79	1080.30
756.12	1085.68
756.45	1084.23
756.78	1089.52
757.11	1087.37
757.43	1085.99
757.76	1084.84
758.09	1083.04
758.42	1079.10
758.75	1083.15
759.08	1084.32
759.41	1084.09
759.74	1086.76
760.07	1085.80
760.39	1083.86
760.72	1083.55
761.05	1081.09
761.38	1078.40
761.71	1081.68
762.04	1081.87
762.36	1086.22
762.69	1085.14
763.02	1087.04
763.35	1087.79
