SpectraSuite Data File
++++++++++++++++++++++++++++++++++++
Date: Mon Aug 26 10:26:29 PDT 2019
User: corrico
Dark Spectrum Present: No
Reference Spectrum Present: No
Number of Sampled Component Spectra: 1
Spectrometers: USB2+H06089
Integration Time (usec): 10000 (USB2+H06089)
Spectra Averaged: 20 (USB2+H06089)
Boxcar Smoothing: 2 (USB2+H06089)
Correct for Electrical Dark: No (USB2+H06089)
Strobe/Lamp Enabled: No (USB2+H06089)
Correct for Detector Non-linearity: No (USB2+H06089)
Correct for Stray Light: No (USB2+H06089)
Number of Pixels in Processed Spectrum: 2048
>>>>>Begin Processed Spectral Data<<<<<
339.70	1031.01
340.07	1031.01
340.45	994.87
340.82	973.99
341.19	951.40
341.57	927.16
341.94	917.35
342.31	911.08
342.69	903.05
343.06	899.26
343.43	896.03
343.81	899.91
344.18	904.48
344.55	909.42
344.93	914.89
345.30	923.46
345.67	926.90
346.04	930.85
346.42	940.97
346.79	947.19
347.16	954.42
347.54	965.05
347.91	976.82
348.28	987.78
348.65	997.86
349.03	1008.23
349.40	1015.61
349.77	1022.30
350.14	1028.34
350.52	1037.72
350.89	1045.82
351.26	1055.28
351.63	1062.91
352.01	1068.17
352.38	1072.74
352.75	1075.73
353.12	1076.18
353.50	1077.11
353.87	1079.78
354.24	1080.88
354.61	1081.05
354.98	1083.50
355.36	1086.83
355.73	1087.23
356.10	1090.55
356.47	1093.71
356.84	1094.11
357.22	1090.69
357.59	1090.53
357.96	1088.37
358.33	1088.86
358.70	1089.07
359.08	1092.84
359.45	1092.19
359.82	1091.44
360.19	1089.19
360.56	1089.36
360.94	1087.72
361.31	1087.60
361.68	1083.67
362.05	1080.58
362.42	1077.70
362.79	1077.84
363.16	1078.87
363.54	1082.59
363.91	1082.71
364.28	1082.66
364.65	1079.81
365.02	1077.07
365.39	1076.11
365.76	1077.75
366.14	1077.18
366.51	1076.69
366.88	1075.05
367.25	1073.30
367.62	1071.38
367.99	1071.03
368.36	1074.68
368.73	1077.07
369.10	1077.58
369.48	1079.29
369.85	1079.74
370.22	1079.10
370.59	1080.09
370.96	1081.37
371.33	1082.57
371.70	1080.41
372.07	1076.86
372.44	1074.19
372.81	1073.98
373.18	1075.85
373.55	1077.33
373.93	1080.09
374.30	1083.74
374.67	1083.34
375.04	1082.50
375.41	1084.25
375.78	1084.30
376.15	1082.33
376.52	1084.11
376.89	1083.32
377.26	1084.79
377.63	1084.16
378.00	1086.92
378.37	1086.29
378.74	1082.99
379.11	1081.12
379.48	1081.49
379.85	1079.97
380.22	1080.04
380.59	1081.47
380.96	1081.61
381.33	1082.61
381.70	1082.78
382.07	1082.78
382.44	1083.20
382.81	1083.08
383.18	1081.94
383.55	1082.83
383.92	1083.25
384.29	1087.27
384.66	1085.87
385.03	1085.05
385.40	1085.10
385.77	1086.29
386.14	1084.65
386.51	1087.55
386.88	1089.14
387.25	1088.02
387.62	1086.87
387.99	1085.75
388.36	1085.33
388.73	1085.33
389.10	1085.40
389.46	1086.29
389.83	1085.91
390.20	1088.26
390.57	1089.22
390.94	1088.65
391.31	1086.48
391.68	1087.51
392.05	1088.63
392.42	1087.41
392.79	1089.66
393.16	1093.19
393.53	1092.30
393.89	1091.13
394.26	1091.65
394.63	1091.09
395.00	1091.98
395.37	1093.40
395.74	1093.17
396.11	1095.70
396.48	1096.03
396.84	1093.73
397.21	1089.94
397.58	1087.25
397.95	1087.20
398.32	1088.98
398.69	1086.71
399.06	1088.40
399.42	1089.80
399.79	1086.34
400.16	1082.66
400.53	1085.42
400.90	1087.72
401.27	1090.71
401.64	1091.67
402.00	1091.30
402.37	1091.81
402.74	1091.42
403.11	1085.84
403.48	1086.31
403.84	1087.34
404.21	1086.78
404.58	1085.99
404.95	1088.75
405.32	1091.74
405.68	1091.67
406.05	1091.23
406.42	1091.13
406.79	1093.31
407.16	1090.62
407.52	1091.27
407.89	1093.38
408.26	1097.38
408.63	1098.27
408.99	1098.04
409.36	1099.49
409.73	1102.51
410.10	1100.05
410.47	1095.93
410.83	1096.28
411.20	1096.17
411.57	1091.20
411.94	1092.30
412.30	1094.72
412.67	1096.63
413.04	1097.88
413.40	1100.64
413.77	1098.37
414.14	1098.32
414.51	1098.27
414.87	1102.04
415.24	1103.19
415.61	1101.81
415.97	1101.48
416.34	1101.01
416.71	1095.79
417.08	1095.70
417.44	1096.78
417.81	1098.30
418.18	1098.65
418.54	1102.02
418.91	1100.45
419.28	1104.08
419.64	1104.69
420.01	1107.38
420.38	1105.97
420.74	1105.08
421.11	1108.97
421.48	1111.97
421.84	1112.20
422.21	1115.27
422.58	1118.35
422.94	1116.67
423.31	1115.48
423.68	1116.48
424.04	1111.43
424.41	1110.72
424.77	1111.68
425.14	1112.60
425.51	1109.84
425.87	1115.03
426.24	1116.72
426.61	1116.72
426.97	1116.67
427.34	1117.91
427.70	1119.36
428.07	1118.33
428.44	1115.45
428.80	1114.91
429.17	1115.83
429.53	1112.50
429.90	1111.33
430.27	1112.90
430.63	1112.20
431.00	1112.41
431.36	1111.71
431.73	1112.74
432.09	1111.68
432.46	1112.71
432.83	1113.14
433.19	1113.32
433.56	1112.55
433.92	1114.45
434.29	1115.24
434.65	1116.25
435.02	1116.90
435.38	1116.37
435.75	1114.96
436.11	1112.50
436.48	1113.25
436.84	1111.19
437.21	1114.94
437.57	1117.42
437.94	1118.94
438.30	1116.83
438.67	1119.10
439.03	1116.69
439.40	1112.32
439.76	1110.75
440.13	1106.63
440.49	1108.41
440.86	1110.37
441.22	1113.04
441.59	1112.57
441.95	1120.70
442.32	1116.76
442.68	1114.40
443.05	1115.99
443.41	1119.67
443.78	1115.03
444.14	1118.92
444.51	1119.53
444.87	1119.27
445.24	1118.26
445.60	1117.86
445.96	1115.24
446.33	1114.21
446.69	1112.64
447.06	1111.29
447.42	1109.48
447.79	1107.12
448.15	1107.24
448.51	1111.19
448.88	1109.44
449.24	1108.43
449.61	1109.37
449.97	1110.28
450.33	1106.72
450.70	1106.16
451.06	1108.08
451.43	1109.77
451.79	1107.89
452.15	1106.46
452.52	1107.99
452.88	1111.29
453.24	1112.27
453.61	1113.30
453.97	1115.80
454.34	1114.12
454.70	1111.45
455.06	1114.24
455.43	1117.58
455.79	1114.91
456.15	1117.63
456.52	1117.96
456.88	1113.53
457.24	1107.68
457.61	1110.37
457.97	1111.99
458.33	1112.22
458.70	1114.98
459.06	1119.15
459.42	1120.53
459.79	1119.13
460.15	1121.07
460.51	1121.84
460.88	1120.65
461.24	1119.85
461.60	1123.01
461.96	1120.63
462.33	1120.98
462.69	1123.83
463.05	1122.17
463.42	1120.95
463.78	1121.44
464.14	1120.48
464.50	1121.84
464.87	1123.69
465.23	1121.09
465.59	1121.68
465.95	1123.39
466.32	1122.83
466.68	1123.55
467.04	1127.08
467.40	1130.13
467.77	1128.72
468.13	1128.16
468.49	1127.81
468.85	1130.83
469.22	1133.80
469.58	1140.38
469.94	1142.20
470.30	1146.77
470.66	1144.87
471.03	1145.48
471.39	1144.03
471.75	1147.14
472.11	1147.49
472.47	1151.80
472.84	1154.59
473.20	1159.57
473.56	1162.05
473.92	1162.57
474.28	1166.50
474.65	1169.00
475.01	1168.58
475.37	1174.62
475.73	1179.56
476.09	1183.07
476.45	1187.00
476.81	1193.98
477.18	1196.08
477.54	1201.09
477.90	1204.09
478.26	1206.41
478.62	1214.18
478.98	1221.55
479.34	1230.21
479.71	1236.81
480.07	1247.58
480.43	1255.23
480.79	1264.92
481.15	1277.09
481.51	1289.71
481.87	1304.87
482.23	1316.29
482.59	1328.28
482.96	1339.07
483.32	1353.46
483.68	1366.66
484.04	1385.15
484.40	1402.40
484.76	1421.08
485.12	1439.97
485.48	1458.46
485.84	1478.52
486.20	1497.15
486.56	1516.85
486.92	1544.36
487.28	1570.52
487.64	1596.32
488.00	1628.15
488.37	1660.47
488.73	1690.36
489.09	1723.87
489.45	1754.79
489.81	1788.64
490.17	1828.22
490.53	1865.24
490.89	1904.19
491.25	1948.94
491.61	1996.27
491.97	2044.62
492.33	2100.19
492.69	2158.86
493.05	2215.25
493.41	2277.74
493.77	2336.53
494.13	2400.59
494.49	2469.80
494.85	2544.42
495.21	2622.43
495.57	2702.85
495.93	2783.46
496.29	2863.51
496.64	2958.55
497.00	3045.79
497.36	3148.93
497.72	3255.59
498.08	3369.32
498.44	3486.65
498.80	3620.53
499.16	3757.94
499.52	3905.37
499.88	4067.24
500.24	4226.89
500.60	4382.16
500.96	4545.25
501.32	4710.96
501.68	4877.93
502.03	5072.62
502.39	5279.62
502.75	5493.96
503.11	5728.55
503.47	5967.22
503.83	6212.41
504.19	6479.35
504.55	6756.66
504.91	7039.72
505.26	7328.17
505.62	7631.97
505.98	7951.22
506.34	8302.77
506.70	8679.36
507.06	9080.30
507.42	9480.83
507.78	9896.28
508.13	10303.48
508.49	10738.94
508.85	11207.49
509.21	11716.58
509.57	12259.68
509.93	12843.90
510.28	13461.36
510.64	14111.18
511.00	14754.53
511.36	15355.01
511.72	15961.56
512.07	16633.25
512.43	17253.28
512.79	17934.54
513.15	18664.77
513.51	19424.67
513.86	20145.41
514.22	20967.29
514.58	21761.72
514.94	22607.75
515.30	23463.22
515.65	24298.55
516.01	25174.76
516.37	26050.56
516.73	26885.45
517.08	27794.56
517.44	28674.61
517.80	29533.21
518.16	30427.76
518.51	31273.33
518.87	32036.04
519.23	32921.44
519.59	33830.13
519.94	34684.89
520.30	35567.83
520.66	36362.00
521.01	37151.14
521.37	37806.95
521.73	38458.51
522.09	39111.19
522.44	39796.06
522.80	40220.00
523.16	40598.82
523.51	40851.10
523.87	41136.53
524.23	41394.34
524.58	41700.58
524.94	42126.37
525.30	42498.11
525.65	42680.79
526.01	42734.39
526.37	42737.90
526.72	42616.92
527.08	42469.02
527.44	42305.58
527.79	42175.87
528.15	42086.60
528.51	41897.34
528.86	41687.59
529.22	41447.56
529.58	41173.70
529.93	40779.27
530.29	40326.40
530.65	39928.04
531.00	39559.85
531.36	39116.53
531.71	38680.68
532.07	38196.02
532.43	37604.73
532.78	36883.50
533.14	36232.34
533.49	35588.34
533.85	34957.35
534.21	34344.48
534.56	33815.33
534.92	33254.05
535.27	32657.52
535.63	32044.37
535.98	31391.05
536.34	30743.97
536.69	30068.46
537.05	29398.72
537.41	28876.57
537.76	28348.08
538.12	27788.17
538.47	27293.85
538.83	26863.94
539.18	26351.46
539.54	25893.30
539.89	25415.55
540.25	24870.84
540.60	24349.76
540.96	23813.62
541.31	23282.53
541.67	22854.65
542.02	22457.14
542.38	22011.08
542.73	21543.74
543.09	21165.68
543.44	20816.00
543.80	20473.79
544.15	20091.37
544.51	19769.57
544.86	19434.66
545.22	19024.55
545.57	18605.27
545.93	18213.74
546.28	17880.22
546.64	17545.92
546.99	17190.02
547.35	16870.70
547.70	16573.64
548.05	16256.82
548.41	15931.58
548.76	15643.11
549.12	15362.60
549.47	15080.98
549.83	14817.23
550.18	14509.47
550.53	14195.21
550.89	13928.48
551.24	13641.34
551.60	13337.57
551.95	13075.33
552.30	12831.19
552.66	12544.01
553.01	12275.55
553.37	11995.99
553.72	11717.42
554.07	11441.26
554.43	11146.31
554.78	10850.68
555.13	10573.00
555.49	10328.27
555.84	10122.30
556.19	9933.87
556.55	9753.43
556.90	9572.88
557.26	9376.14
557.61	9157.84
557.96	8919.97
558.32	8717.82
558.67	8503.10
559.02	8265.93
559.37	8064.01
559.73	7912.60
560.08	7740.36
560.43	7571.84
560.79	7441.22
561.14	7273.96
561.49	7099.15
561.85	6926.65
562.20	6780.58
562.55	6638.06
562.90	6517.06
563.26	6393.74
563.61	6285.23
563.96	6164.90
564.32	6029.27
564.67	5900.47
565.02	5761.72
565.37	5643.94
565.73	5527.46
566.08	5428.26
566.43	5313.25
566.78	5216.35
567.14	5101.03
567.49	4987.33
567.84	4881.37
568.19	4783.35
568.54	4684.91
568.90	4594.14
569.25	4516.46
569.60	4440.60
569.95	4364.14
570.31	4284.00
570.66	4210.93
571.01	4124.91
571.36	4031.39
571.71	3948.98
572.06	3871.34
572.42	3795.86
572.77	3732.01
573.12	3673.75
573.47	3613.11
573.82	3552.54
574.18	3495.22
574.53	3434.29
574.88	3382.00
575.23	3326.23
575.58	3278.58
575.93	3223.25
576.28	3169.93
576.64	3109.28
576.99	3046.72
577.34	2985.40
577.69	2931.01
578.04	2873.73
578.39	2825.00
578.74	2785.38
579.09	2746.50
579.44	2706.64
579.80	2669.03
580.15	2624.79
580.50	2588.75
580.85	2547.06
581.20	2514.69
581.55	2484.20
581.90	2456.23
582.25	2415.62
582.60	2381.10
582.95	2340.28
583.30	2298.55
583.65	2259.39
584.00	2229.31
584.35	2199.35
584.71	2166.21
585.06	2143.84
585.41	2116.08
585.76	2084.62
586.11	2057.87
586.46	2035.49
586.81	2003.48
587.16	1982.53
587.51	1959.64
587.86	1935.95
588.21	1911.89
588.56	1890.31
588.91	1864.26
589.26	1842.14
589.61	1823.11
589.96	1807.74
590.31	1789.78
590.66	1776.40
591.01	1763.83
591.36	1746.95
591.71	1725.35
592.06	1708.59
592.41	1691.88
592.76	1680.53
593.10	1668.99
593.45	1659.00
593.80	1642.00
594.15	1625.81
594.50	1608.28
594.85	1591.07
595.20	1577.59
595.55	1571.46
595.90	1560.39
596.25	1551.94
596.60	1539.23
596.95	1526.05
597.30	1512.83
597.64	1552.71
597.99	1541.71
598.34	1534.24
598.69	1524.37
599.04	1518.68
599.39	1458.25
599.74	1444.11
600.09	1439.85
600.44	1431.14
600.78	1419.63
601.13	1413.99
601.48	1409.63
601.83	1394.63
602.18	1389.95
602.53	1383.47
602.88	1376.87
603.22	1370.76
603.57	1368.42
603.92	1363.08
604.27	1356.53
604.62	1350.58
604.97	1341.45
605.31	1334.06
605.66	1326.66
606.01	1322.08
606.36	1316.32
606.71	1310.61
607.05	1304.73
607.40	1298.83
607.75	1291.98
608.10	1287.41
608.44	1284.86
608.79	1278.03
609.14	1272.53
609.49	1271.64
609.84	1268.66
610.18	1268.01
610.53	1268.29
610.88	1268.92
611.23	1263.68
611.57	1260.00
611.92	1255.30
612.27	1249.96
612.62	1246.31
612.96	1243.46
613.31	1239.50
613.66	1236.62
614.00	1230.75
614.35	1223.87
614.70	1220.52
615.05	1217.50
615.39	1211.60
615.74	1210.53
616.09	1206.71
616.43	1203.88
616.78	1198.14
617.13	1196.60
617.47	1194.23
617.82	1193.91
618.17	1193.09
618.51	1193.79
618.86	1192.29
619.21	1188.99
619.55	1188.34
619.90	1180.75
620.25	1178.20
620.59	1173.26
620.94	1171.67
621.29	1167.39
621.63	1171.30
621.98	1170.08
622.32	1170.34
622.67	1169.26
623.02	1167.81
623.36	1165.21
623.71	1160.20
624.05	1158.03
624.40	1158.75
624.75	1156.58
625.09	1155.52
625.44	1156.51
625.78	1154.02
626.13	1150.75
626.48	1151.89
626.82	1148.57
627.17	1144.48
627.51	1146.00
627.86	1140.87
628.20	1137.24
628.55	1134.83
628.89	1132.47
629.24	1129.10
629.58	1134.57
629.93	1134.57
630.28	1133.38
630.62	1134.64
630.97	1135.72
631.31	1136.00
631.66	1134.34
632.00	1135.07
632.35	1134.13
632.69	1133.01
633.04	1126.24
633.38	1127.88
633.73	1124.28
634.07	1122.26
634.42	1121.19
634.76	1123.39
635.11	1118.73
635.45	1117.40
635.79	1117.40
636.14	1114.75
636.48	1111.05
636.83	1112.88
637.17	1114.49
637.52	1115.15
637.86	1115.73
638.21	1116.67
638.55	1114.49
638.89	1112.78
639.24	1112.69
639.58	1111.22
639.93	1110.07
640.27	1108.76
640.61	1107.94
640.96	1103.00
641.30	1102.49
641.65	1100.10
641.99	1100.73
642.33	1103.31
642.68	1106.00
643.02	1104.17
643.37	1107.66
643.71	1107.49
644.05	1104.99
644.40	1105.48
644.74	1107.07
645.08	1105.88
645.43	1105.27
645.77	1105.65
646.11	1104.64
646.46	1104.64
646.80	1105.74
647.14	1104.22
647.49	1101.71
647.83	1099.75
648.17	1100.33
648.52	1099.14
648.86	1101.85
649.20	1104.73
649.55	1108.10
649.89	1107.94
650.23	1106.37
650.57	1103.75
650.92	1102.06
651.26	1101.57
651.60	1099.14
651.95	1098.02
652.29	1099.00
652.63	1098.41
652.97	1094.93
653.32	1095.86
653.66	1097.83
654.00	1097.15
654.34	1098.39
654.69	1097.24
655.03	1095.07
655.37	1096.03
655.71	1096.68
656.05	1096.99
656.40	1098.41
656.74	1097.59
657.08	1094.18
657.42	1092.00
657.76	1091.34
658.11	1092.09
658.45	1092.07
658.79	1095.07
659.13	1096.94
659.47	1098.83
659.82	1099.63
660.16	1101.29
660.50	1097.97
660.84	1095.46
661.18	1093.01
661.52	1090.39
661.87	1089.47
662.21	1093.62
662.55	1096.07
662.89	1097.27
663.23	1099.56
663.57	1101.43
663.91	1100.36
664.25	1099.02
664.60	1096.96
664.94	1097.34
665.28	1096.12
665.62	1096.03
665.96	1096.96
666.30	1095.86
666.64	1094.74
666.98	1095.37
667.32	1093.94
667.66	1093.57
668.01	1095.16
668.35	1091.32
668.69	1091.23
669.03	1090.10
669.37	1088.19
669.71	1088.40
670.05	1092.26
670.39	1091.86
670.73	1089.19
671.07	1090.71
671.41	1091.09
671.75	1092.16
672.09	1091.13
672.43	1097.13
672.77	1095.79
673.11	1095.96
673.45	1092.91
673.79	1097.17
674.13	1092.61
674.47	1092.70
674.81	1092.30
675.15	1093.83
675.49	1090.34
675.83	1092.40
676.17	1094.46
676.51	1091.13
676.85	1090.78
677.19	1090.41
677.53	1090.43
677.87	1090.57
678.21	1092.23
678.55	1090.97
678.89	1090.76
679.23	1092.35
679.57	1088.51
679.90	1087.27
680.24	1088.14
680.58	1087.46
680.92	1087.23
681.26	1090.01
681.60	1090.29
681.94	1091.44
682.28	1092.47
682.62	1089.82
682.96	1087.06
683.29	1085.40
683.63	1086.01
683.97	1086.48
684.31	1089.17
684.65	1091.02
684.99	1093.19
685.33	1094.55
685.67	1093.52
686.00	1091.20
686.34	1091.30
686.68	1091.37
687.02	1086.34
687.36	1087.97
687.70	1087.18
688.03	1085.24
688.37	1086.45
688.71	1088.28
689.05	1085.96
689.39	1086.17
689.72	1088.51
690.06	1087.67
690.40	1087.60
690.74	1086.17
691.08	1088.49
691.41	1085.21
691.75	1085.10
692.09	1084.60
692.43	1086.38
692.76	1084.65
693.10	1086.24
693.44	1086.22
693.78	1086.34
694.11	1091.25
694.45	1091.30
694.79	1092.05
695.13	1093.50
695.46	1095.84
695.80	1091.58
696.14	1095.56
696.48	1098.62
696.81	1095.89
697.15	1093.76
697.49	1093.22
697.82	1087.25
698.16	1084.30
698.50	1086.55
698.83	1086.59
699.17	1087.48
699.51	1088.26
699.84	1088.14
700.18	1091.13
700.52	1091.93
700.85	1092.56
701.19	1092.23
701.53	1093.22
701.86	1090.50
702.20	1087.53
702.54	1084.42
702.87	1085.26
703.21	1085.80
703.55	1084.07
703.88	1085.61
704.22	1086.80
704.55	1086.71
704.89	1086.45
705.23	1090.39
705.56	1090.88
705.90	1091.81
706.23	1093.50
706.57	1089.10
706.91	1088.44
707.24	1088.42
707.58	1089.87
707.91	1088.77
708.25	1092.16
708.58	1092.40
708.92	1092.28
709.26	1087.86
709.59	1086.76
709.93	1087.79
710.26	1085.75
710.60	1086.01
710.93	1088.89
711.27	1089.24
711.60	1087.30
711.94	1088.23
712.27	1088.09
712.61	1084.91
712.94	1084.81
713.28	1084.11
713.61	1083.95
713.95	1082.92
714.28	1084.96
714.62	1086.57
714.95	1087.06
715.29	1084.42
715.62	1087.69
715.96	1086.94
716.29	1089.78
716.63	1091.93
716.96	1094.83
717.29	1092.63
717.63	1092.49
717.96	1087.23
718.30	1084.37
718.63	1085.66
718.97	1085.87
719.30	1087.27
719.63	1087.16
719.97	1089.52
720.30	1085.28
720.64	1086.34
720.97	1087.34
721.30	1088.84
721.64	1089.52
721.97	1089.99
722.31	1088.82
722.64	1087.72
722.97	1086.99
723.31	1084.77
723.64	1085.14
723.97	1084.89
724.31	1085.21
724.64	1084.49
724.98	1084.30
725.31	1085.28
725.64	1085.63
725.98	1085.07
726.31	1086.87
726.64	1086.99
726.97	1086.59
727.31	1088.00
727.64	1087.32
727.97	1080.60
728.31	1080.88
728.64	1080.18
728.97	1078.38
729.31	1080.86
729.64	1086.92
729.97	1085.00
730.30	1085.05
730.64	1085.19
730.97	1080.32
731.30	1077.84
731.63	1080.88
731.97	1081.61
732.30	1081.66
732.63	1085.49
732.96	1090.24
733.30	1090.32
733.63	1090.64
733.96	1090.64
734.29	1089.78
734.63	1089.45
734.96	1088.07
735.29	1087.16
735.62	1084.56
735.95	1085.33
736.29	1084.91
736.62	1088.21
736.95	1086.03
737.28	1088.37
737.61	1089.00
737.94	1088.28
738.28	1083.62
738.61	1088.23
738.94	1088.93
739.27	1088.47
739.60	1087.81
739.93	1089.96
740.27	1087.93
740.60	1087.39
740.93	1088.00
741.26	1088.63
741.59	1088.37
741.92	1089.89
742.25	1089.73
742.58	1088.42
742.91	1086.48
743.25	1084.49
743.58	1082.31
743.91	1083.27
744.24	1085.33
744.57	1088.63
744.90	1091.86
745.23	1093.12
745.56	1093.31
745.89	1092.16
746.22	1092.91
746.55	1092.89
746.88	1092.89
747.21	1093.78
747.54	1092.19
747.87	1088.61
748.20	1086.43
748.53	1084.07
748.87	1085.05
749.20	1085.24
749.53	1085.52
749.86	1084.91
750.19	1082.83
750.52	1077.61
750.85	1077.98
751.18	1080.74
751.51	1081.00
751.84	1086.41
752.16	1089.29
752.49	1086.87
752.82	1082.33
753.15	1081.87
753.48	1080.60
753.81	1079.29
754.14	1080.13
754.47	1082.80
754.80	1084.30
755.13	1084.93
755.46	1086.62
755.79	1090.55
756.12	1094.67
756.45	1093.66
756.78	1091.23
757.11	1089.99
757.43	1088.23
757.76	1082.12
758.09	1084.42
758.42	1085.89
758.75	1086.22
759.08	1084.39
759.41	1084.91
759.74	1080.67
760.07	1079.36
760.39	1081.16
760.72	1081.75
761.05	1084.11
761.38	1084.49
761.71	1084.18
762.04	1083.83
762.36	1085.19
762.69	1086.36
763.02	1088.00
763.35	1089.99
