SpectraSuite Data File
++++++++++++++++++++++++++++++++++++
Date: Mon Aug 26 10:26:25 PDT 2019
User: corrico
Dark Spectrum Present: No
Reference Spectrum Present: No
Number of Sampled Component Spectra: 1
Spectrometers: USB2+H06089
Integration Time (usec): 10000 (USB2+H06089)
Spectra Averaged: 20 (USB2+H06089)
Boxcar Smoothing: 2 (USB2+H06089)
Correct for Electrical Dark: No (USB2+H06089)
Strobe/Lamp Enabled: No (USB2+H06089)
Correct for Detector Non-linearity: No (USB2+H06089)
Correct for Stray Light: No (USB2+H06089)
Number of Pixels in Processed Spectrum: 2048
>>>>>Begin Processed Spectral Data<<<<<
339.70	1024.69
340.07	1024.69
340.45	993.65
340.82	972.61
341.19	950.87
341.57	926.15
341.94	918.61
342.31	911.15
342.69	907.87
343.06	906.84
343.43	906.49
343.81	904.03
344.18	903.47
344.55	904.97
344.93	908.39
345.30	917.35
345.67	924.79
346.04	930.29
346.42	936.47
346.79	945.97
347.16	953.89
347.54	965.17
347.91	976.89
348.28	986.70
348.65	992.43
349.03	999.29
349.40	1004.51
349.77	1011.13
350.14	1019.87
350.52	1025.69
350.89	1032.39
351.26	1040.41
351.63	1046.73
352.01	1053.90
352.38	1058.86
352.75	1061.48
353.12	1062.09
353.50	1066.07
353.87	1068.31
354.24	1071.94
354.61	1072.85
354.98	1078.80
355.36	1080.13
355.73	1077.40
356.10	1078.96
356.47	1081.61
356.84	1079.83
357.22	1079.67
357.59	1084.39
357.96	1084.56
358.33	1082.05
358.70	1081.26
359.08	1080.44
359.45	1078.12
359.82	1078.45
360.19	1080.58
360.56	1082.08
360.94	1080.48
361.31	1079.41
361.68	1078.21
362.05	1077.33
362.42	1077.70
362.79	1079.17
363.16	1079.01
363.54	1076.51
363.91	1074.70
364.28	1068.71
364.65	1069.20
365.02	1067.61
365.39	1069.18
365.76	1069.70
366.14	1073.11
366.51	1068.59
366.88	1068.22
367.25	1070.09
367.62	1073.67
367.99	1073.84
368.36	1075.59
368.73	1075.76
369.10	1070.75
369.48	1067.99
369.85	1064.45
370.22	1065.88
370.59	1066.00
370.96	1070.82
371.33	1068.74
371.70	1069.09
372.07	1068.38
372.44	1068.95
372.81	1068.76
373.18	1067.94
373.55	1068.13
373.93	1070.47
374.30	1070.89
374.67	1067.33
375.04	1068.74
375.41	1069.93
375.78	1068.36
376.15	1066.32
376.52	1065.58
376.89	1065.13
377.26	1065.62
377.63	1064.26
378.00	1066.86
378.37	1068.20
378.74	1068.76
379.11	1071.75
379.48	1071.05
379.85	1073.58
380.22	1072.48
380.59	1071.43
380.96	1069.70
381.33	1072.64
381.70	1069.84
382.07	1072.57
382.44	1073.86
382.81	1072.39
383.18	1074.31
383.55	1074.26
383.92	1072.71
384.29	1075.76
384.66	1075.03
385.03	1073.30
385.40	1073.95
385.77	1073.07
386.14	1071.92
386.51	1074.07
386.88	1073.95
387.25	1073.23
387.62	1075.38
387.99	1076.81
388.36	1076.67
388.73	1075.90
389.10	1075.10
389.46	1078.24
389.83	1077.51
390.20	1076.79
390.57	1076.41
390.94	1079.27
391.31	1076.23
391.68	1075.45
392.05	1076.01
392.42	1077.98
392.79	1074.94
393.16	1077.04
393.53	1077.72
393.89	1076.90
394.26	1077.21
394.63	1078.40
395.00	1079.36
395.37	1076.41
395.74	1077.82
396.11	1075.20
396.48	1075.36
396.84	1072.53
397.21	1075.41
397.58	1076.86
397.95	1078.68
398.32	1079.62
398.69	1079.90
399.06	1078.19
399.42	1076.81
399.79	1078.38
400.16	1077.37
400.53	1075.43
400.90	1074.84
401.27	1074.61
401.64	1071.54
402.00	1070.51
402.37	1073.65
402.74	1076.20
403.11	1075.10
403.48	1076.74
403.84	1077.51
404.21	1075.13
404.58	1073.51
404.95	1076.51
405.32	1074.94
405.68	1078.87
406.05	1079.67
406.42	1082.05
406.79	1081.98
407.16	1081.07
407.52	1078.87
407.89	1079.20
408.26	1079.06
408.63	1077.84
408.99	1081.61
409.36	1081.19
409.73	1080.81
410.10	1077.44
410.47	1076.55
410.83	1072.18
411.20	1070.23
411.57	1068.10
411.94	1070.56
412.30	1070.91
412.67	1074.47
413.04	1077.11
413.40	1077.68
413.77	1074.96
414.14	1077.28
414.51	1078.89
414.87	1076.08
415.24	1081.02
415.61	1084.35
415.97	1083.04
416.34	1080.58
416.71	1084.39
417.08	1081.14
417.44	1076.48
417.81	1075.69
418.18	1072.39
418.54	1069.67
418.91	1070.37
419.28	1076.18
419.64	1074.24
420.01	1078.54
420.38	1077.35
420.74	1074.17
421.11	1073.07
421.48	1076.76
421.84	1077.84
422.21	1078.78
422.58	1080.04
422.94	1079.50
423.31	1075.48
423.68	1072.39
424.04	1070.80
424.41	1071.26
424.77	1073.39
425.14	1077.70
425.51	1077.98
425.87	1079.06
426.24	1079.10
426.61	1077.70
426.97	1076.97
427.34	1078.80
427.70	1081.44
428.07	1082.08
428.44	1082.47
428.80	1080.98
429.17	1081.26
429.53	1081.12
429.90	1081.61
430.27	1077.93
430.63	1078.40
431.00	1077.35
431.36	1076.06
431.73	1077.00
432.09	1079.46
432.46	1078.05
432.83	1076.69
433.19	1076.18
433.56	1076.15
433.92	1076.01
434.29	1077.42
434.65	1078.59
435.02	1079.24
435.38	1077.00
435.75	1075.22
436.11	1077.04
436.48	1082.29
436.84	1085.59
437.21	1090.34
437.57	1092.63
437.94	1088.56
438.30	1082.83
438.67	1079.74
439.03	1078.26
439.40	1076.39
439.76	1079.08
440.13	1079.38
440.49	1081.96
440.86	1081.16
441.22	1080.70
441.59	1082.05
441.95	1084.30
442.32	1084.09
442.68	1082.08
443.05	1083.88
443.41	1084.32
443.78	1080.56
444.14	1080.09
444.51	1083.53
444.87	1083.32
445.24	1080.65
445.60	1081.84
445.96	1081.82
446.33	1080.65
446.69	1080.84
447.06	1083.88
447.42	1087.09
447.79	1087.25
448.15	1082.90
448.51	1083.27
448.88	1081.56
449.24	1081.30
449.61	1080.02
449.97	1084.58
450.33	1083.62
450.70	1079.31
451.06	1077.96
451.43	1076.58
451.79	1075.20
452.15	1076.53
452.52	1077.68
452.88	1079.08
453.24	1081.80
453.61	1082.69
453.97	1083.46
454.34	1086.97
454.70	1083.20
455.06	1081.33
455.43	1083.06
455.79	1083.39
456.15	1081.70
456.52	1085.35
456.88	1086.15
457.24	1085.33
457.61	1083.32
457.97	1085.19
458.33	1081.63
458.70	1080.70
459.06	1079.22
459.42	1079.71
459.79	1078.78
460.15	1082.92
460.51	1082.80
460.88	1084.60
461.24	1083.48
461.60	1082.94
461.96	1079.74
462.33	1078.36
462.69	1076.97
463.05	1078.47
463.42	1082.10
463.78	1081.94
464.14	1083.55
464.50	1085.07
464.87	1085.12
465.23	1084.30
465.59	1084.16
465.95	1086.66
466.32	1083.74
466.68	1081.94
467.04	1080.41
467.40	1080.56
467.77	1081.70
468.13	1085.80
468.49	1088.58
468.85	1088.37
469.22	1090.46
469.58	1090.13
469.94	1087.32
470.30	1085.14
470.66	1085.70
471.03	1086.69
471.39	1089.07
471.75	1086.85
472.11	1089.26
472.47	1091.06
472.84	1087.20
473.20	1086.34
473.56	1088.89
473.92	1086.48
474.28	1086.41
474.65	1090.50
475.01	1091.02
475.37	1093.45
475.73	1096.99
476.09	1098.79
476.45	1099.30
476.81	1100.43
477.18	1099.49
477.54	1097.57
477.90	1098.76
478.26	1100.64
478.62	1097.15
478.98	1098.58
479.34	1099.42
479.71	1098.37
480.07	1098.79
480.43	1099.42
480.79	1100.47
481.15	1104.66
481.51	1105.67
481.87	1106.28
482.23	1108.50
482.59	1110.14
482.96	1111.05
483.32	1111.17
483.68	1112.41
484.04	1115.87
484.40	1119.31
484.76	1119.88
485.12	1124.02
485.48	1129.12
485.84	1129.75
486.20	1129.64
486.56	1136.45
486.92	1140.47
487.28	1140.47
487.64	1145.32
488.00	1152.64
488.37	1153.25
488.73	1158.80
489.09	1162.68
489.45	1166.55
489.81	1168.72
490.17	1173.43
490.53	1174.29
490.89	1180.89
491.25	1186.18
491.61	1193.58
491.97	1198.26
492.33	1207.37
492.69	1215.77
493.05	1226.98
493.41	1233.88
493.77	1245.07
494.13	1255.25
494.49	1262.02
494.85	1267.10
495.21	1275.85
495.57	1285.82
495.93	1294.62
496.29	1307.54
496.64	1321.33
497.00	1331.06
497.36	1342.09
497.72	1353.25
498.08	1365.23
498.44	1377.55
498.80	1395.24
499.16	1412.49
499.52	1431.10
499.88	1446.52
500.24	1466.81
500.60	1485.47
500.96	1506.13
501.32	1525.14
501.68	1548.33
502.03	1569.96
502.39	1597.30
502.75	1623.89
503.11	1651.22
503.47	1681.42
503.83	1713.08
504.19	1745.36
504.55	1783.09
504.91	1821.19
505.26	1863.46
505.62	1909.50
505.98	1952.73
506.34	1991.84
506.70	2031.12
507.06	2069.83
507.42	2110.46
507.78	2152.19
508.13	2205.84
508.49	2269.55
508.85	2327.50
509.21	2390.48
509.57	2456.56
509.93	2521.11
510.28	2585.50
510.64	2661.24
511.00	2739.67
511.36	2817.63
511.72	2898.54
512.07	2983.43
512.43	3066.92
512.79	3143.01
513.15	3230.13
513.51	3304.49
513.86	3385.28
514.22	3473.07
514.58	3562.13
514.94	3652.27
515.30	3759.06
515.65	3861.91
516.01	3964.47
516.37	4071.41
516.73	4185.02
517.08	4297.27
517.44	4402.34
517.80	4507.87
518.16	4615.00
518.51	4705.83
518.87	4791.78
519.23	4888.09
519.59	4982.81
519.94	5067.40
520.30	5160.81
520.66	5245.05
521.01	5323.53
521.37	5391.61
521.73	5464.68
522.09	5533.17
522.44	5609.89
522.80	5672.05
523.16	5754.86
523.51	5821.87
523.87	5884.18
524.23	5929.98
524.58	5976.30
524.94	6001.27
525.30	6025.76
525.65	6040.71
526.01	6047.36
526.37	6043.36
526.72	6040.81
527.08	6043.01
527.44	6035.35
527.79	6015.64
528.15	5992.36
528.51	5953.76
528.86	5905.76
529.22	5860.12
529.58	5820.68
529.93	5773.19
530.29	5719.71
530.65	5658.99
531.00	5590.70
531.36	5536.19
531.71	5487.90
532.07	5428.40
532.43	5380.82
532.78	5321.70
533.14	5250.50
533.49	5167.53
533.85	5105.04
534.21	5032.97
534.56	4970.67
534.92	4901.62
535.27	4841.87
535.63	4774.46
535.98	4693.76
536.34	4618.86
536.69	4551.87
537.05	4486.99
537.41	4418.60
537.76	4366.46
538.12	4303.29
538.47	4242.78
538.83	4183.61
539.18	4128.78
539.54	4064.11
539.89	4012.92
540.25	3956.07
540.60	3900.92
540.96	3836.61
541.31	3783.52
541.67	3727.70
542.02	3673.61
542.38	3616.74
542.73	3565.08
543.09	3517.47
543.44	3469.38
543.80	3421.25
544.15	3379.92
544.51	3339.41
544.86	3294.28
545.22	3251.92
545.57	3213.11
545.93	3166.74
546.28	3127.47
546.64	3089.16
546.99	3043.68
547.35	2999.84
547.70	2962.77
548.05	2923.75
548.41	2877.34
548.76	2839.84
549.12	2803.77
549.47	2765.25
549.83	2730.09
550.18	2699.32
550.53	2667.16
550.89	2630.06
551.24	2596.26
551.60	2563.40
551.95	2528.13
552.30	2499.04
552.66	2472.33
553.01	2441.60
553.37	2402.79
553.72	2373.91
554.07	2335.92
554.43	2299.79
554.78	2263.86
555.13	2234.84
555.49	2203.80
555.84	2171.81
556.19	2147.63
556.55	2123.94
556.90	2098.43
557.26	2078.93
557.61	2063.74
557.96	2037.02
558.32	2015.79
558.67	1997.90
559.02	1971.78
559.37	1942.69
559.73	1923.69
560.08	1903.30
560.43	1881.35
560.79	1862.69
561.14	1846.50
561.49	1824.10
561.85	1802.82
562.20	1780.77
562.55	1759.92
562.90	1745.17
563.26	1730.24
563.61	1712.06
563.96	1700.63
564.32	1687.25
564.67	1669.74
565.02	1655.67
565.37	1643.64
565.73	1625.97
566.08	1611.18
566.43	1597.25
566.78	1584.14
567.14	1571.79
567.49	1559.69
567.84	1547.56
568.19	1537.17
568.54	1527.34
568.90	1519.27
569.25	1512.15
569.60	1503.21
569.95	1490.73
570.31	1477.63
570.66	1462.23
571.01	1449.49
571.36	1436.29
571.71	1427.61
572.06	1417.87
572.42	1410.80
572.77	1398.00
573.12	1392.92
573.47	1387.21
573.82	1379.68
574.18	1373.08
574.53	1371.44
574.88	1362.61
575.23	1352.36
575.58	1350.42
575.93	1347.68
576.28	1336.94
576.64	1331.13
576.99	1327.04
577.34	1316.13
577.69	1306.44
578.04	1305.39
578.39	1297.99
578.74	1289.82
579.09	1285.68
579.44	1284.21
579.80	1277.46
580.15	1275.83
580.50	1273.11
580.85	1271.36
581.20	1265.83
581.55	1260.64
581.90	1252.09
582.25	1249.59
582.60	1243.06
582.95	1238.61
583.30	1233.37
583.65	1232.06
584.00	1226.18
584.35	1222.51
584.71	1215.88
585.06	1213.83
585.41	1209.71
585.76	1204.32
586.11	1201.00
586.46	1200.46
586.81	1196.41
587.16	1193.28
587.51	1191.12
587.86	1188.31
588.21	1183.84
588.56	1184.15
588.91	1183.30
589.26	1179.63
589.61	1176.87
589.96	1174.53
590.31	1172.54
590.66	1166.97
591.01	1169.21
591.36	1164.58
591.71	1165.10
592.06	1159.99
592.41	1158.71
592.76	1152.83
593.10	1152.64
593.45	1148.10
593.80	1146.14
594.15	1146.04
594.50	1146.25
594.85	1141.17
595.20	1138.95
595.55	1140.54
595.90	1136.24
596.25	1132.91
596.60	1134.22
596.95	1133.17
597.30	1130.53
597.64	1181.83
597.99	1183.80
598.34	1183.00
598.69	1182.11
599.04	1181.29
599.39	1128.09
599.74	1124.58
600.09	1124.56
600.44	1123.95
600.78	1122.85
601.13	1125.80
601.48	1127.25
601.83	1125.17
602.18	1122.40
602.53	1121.80
602.88	1118.54
603.22	1119.85
603.57	1118.94
603.92	1118.66
604.27	1118.73
604.62	1113.72
604.97	1107.10
605.31	1104.08
605.66	1103.82
606.01	1101.39
606.36	1106.35
606.71	1106.82
607.05	1110.47
607.40	1109.51
607.75	1111.22
608.10	1105.29
608.44	1104.80
608.79	1101.53
609.14	1101.39
609.49	1097.22
609.84	1100.68
610.18	1100.40
610.53	1098.81
610.88	1101.15
611.23	1105.95
611.57	1105.72
611.92	1102.18
612.27	1108.13
612.62	1106.35
612.96	1103.68
613.31	1100.33
613.66	1103.80
614.00	1099.54
614.35	1096.92
614.70	1094.15
615.05	1094.04
615.39	1092.14
615.74	1090.39
616.09	1092.63
616.43	1092.98
616.78	1094.93
617.13	1096.89
617.47	1100.24
617.82	1096.75
618.17	1095.11
618.51	1092.89
618.86	1092.98
619.21	1090.62
619.55	1092.45
619.90	1092.35
620.25	1090.41
620.59	1090.62
620.94	1088.30
621.29	1090.06
621.63	1088.91
621.98	1093.76
622.32	1092.19
622.67	1094.72
623.02	1091.91
623.36	1095.02
623.71	1093.19
624.05	1089.78
624.40	1090.17
624.75	1090.06
625.09	1089.96
625.44	1089.61
625.78	1089.26
626.13	1086.59
626.48	1087.30
626.82	1084.25
627.17	1083.29
627.51	1084.35
627.86	1085.54
628.20	1083.83
628.55	1084.32
628.89	1084.67
629.24	1084.37
629.58	1082.61
629.93	1083.36
630.28	1084.18
630.62	1081.61
630.97	1081.70
631.31	1084.28
631.66	1082.66
632.00	1082.17
632.35	1085.61
632.69	1090.29
633.04	1088.91
633.38	1092.68
633.73	1093.36
634.07	1093.17
634.42	1090.81
634.76	1092.84
635.11	1091.20
635.45	1092.84
635.79	1092.30
636.14	1089.12
636.48	1088.23
636.83	1086.90
637.17	1085.61
637.52	1085.54
637.86	1087.74
638.21	1085.05
638.55	1086.48
638.89	1083.36
639.24	1083.74
639.58	1081.14
639.93	1082.66
640.27	1080.32
640.61	1082.17
640.96	1080.77
641.30	1081.40
641.65	1084.11
641.99	1085.49
642.33	1084.14
642.68	1084.21
643.02	1084.53
643.37	1082.15
643.71	1081.30
644.05	1083.18
644.40	1083.46
644.74	1081.54
645.08	1082.38
645.43	1079.57
645.77	1078.40
646.11	1078.31
646.46	1079.71
646.80	1081.12
647.14	1082.94
647.49	1081.23
647.83	1079.24
648.17	1083.36
648.52	1080.77
648.86	1081.26
649.20	1088.04
649.55	1089.40
649.89	1086.45
650.23	1088.77
650.57	1092.75
650.92	1088.14
651.26	1088.28
651.60	1088.07
651.95	1080.81
652.29	1076.76
652.63	1075.08
652.97	1076.18
653.32	1076.62
653.66	1079.17
654.00	1080.74
654.34	1081.77
654.69	1081.33
655.03	1080.30
655.37	1082.64
655.71	1082.83
656.05	1085.12
656.40	1082.54
656.74	1085.24
657.08	1084.39
657.42	1081.91
657.76	1078.38
658.11	1077.72
658.45	1078.07
658.79	1079.50
659.13	1081.75
659.47	1086.99
659.82	1090.67
660.16	1086.29
660.50	1087.69
660.84	1085.99
661.18	1083.86
661.52	1083.39
661.87	1084.16
662.21	1084.65
662.55	1085.05
662.89	1082.47
663.23	1081.49
663.57	1080.02
663.91	1075.80
664.25	1077.65
664.60	1077.35
664.94	1075.48
665.28	1078.54
665.62	1078.75
665.96	1077.40
666.30	1079.46
666.64	1081.40
666.98	1080.30
667.32	1078.87
667.66	1078.75
668.01	1079.31
668.35	1078.17
668.69	1077.30
669.03	1081.14
669.37	1078.59
669.71	1078.40
670.05	1080.41
670.39	1084.65
670.73	1082.83
671.07	1085.73
671.41	1082.97
671.75	1083.39
672.09	1079.06
672.43	1080.37
672.77	1077.37
673.11	1079.57
673.45	1079.20
673.79	1081.30
674.13	1080.37
674.47	1083.88
674.81	1084.46
675.15	1081.96
675.49	1083.86
675.83	1085.10
676.17	1087.76
676.51	1087.90
676.85	1091.16
677.19	1088.98
677.53	1088.26
677.87	1088.65
678.21	1085.56
678.55	1086.78
678.89	1087.69
679.23	1085.54
679.57	1080.58
679.90	1081.49
680.24	1076.08
680.58	1072.97
680.92	1071.26
681.26	1071.33
681.60	1073.56
681.94	1076.06
682.28	1080.53
682.62	1083.39
682.96	1083.34
683.29	1082.01
683.63	1079.92
683.97	1077.56
684.31	1075.55
684.65	1072.85
684.99	1075.29
685.33	1076.58
685.67	1074.98
686.00	1076.25
686.34	1079.15
686.68	1076.04
687.02	1076.97
687.36	1077.70
687.70	1081.42
688.03	1079.53
688.37	1079.69
688.71	1078.87
689.05	1079.15
689.39	1077.77
689.72	1077.82
690.06	1076.27
690.40	1075.97
690.74	1076.11
691.08	1075.97
691.41	1078.40
691.75	1081.47
692.09	1081.70
692.43	1081.89
692.76	1080.84
693.10	1079.83
693.44	1080.37
693.78	1080.11
694.11	1079.17
694.45	1077.72
694.79	1077.79
695.13	1075.64
695.46	1079.08
695.80	1078.89
696.14	1080.95
696.48	1080.77
696.81	1082.43
697.15	1081.02
697.49	1080.98
697.82	1081.61
698.16	1086.59
698.50	1087.53
698.83	1086.71
699.17	1085.63
699.51	1082.01
699.84	1076.15
700.18	1072.78
700.52	1070.05
700.85	1070.75
701.19	1072.29
701.53	1072.11
701.86	1074.82
702.20	1076.44
702.54	1079.15
702.87	1079.62
703.21	1080.67
703.55	1077.86
703.88	1080.44
704.22	1079.43
704.55	1078.10
704.89	1079.10
705.23	1077.49
705.56	1075.20
705.90	1073.79
706.23	1072.85
706.57	1071.99
706.91	1074.31
707.24	1073.32
707.58	1075.80
707.91	1076.72
708.25	1076.55
708.58	1076.01
708.92	1076.01
709.26	1074.98
709.59	1077.16
709.93	1078.07
710.26	1079.50
710.60	1078.92
710.93	1080.86
711.27	1077.89
711.60	1080.48
711.94	1083.18
712.27	1085.49
712.61	1084.79
712.94	1086.73
713.28	1083.62
713.61	1077.93
713.95	1078.17
714.28	1077.42
714.62	1074.73
714.95	1076.06
715.29	1079.48
715.62	1081.98
715.96	1081.98
716.29	1084.51
716.63	1085.61
716.96	1084.18
717.29	1081.47
717.63	1079.83
717.96	1078.99
718.30	1077.89
718.63	1077.07
718.97	1078.80
719.30	1080.56
719.63	1081.23
719.97	1079.55
720.30	1083.01
720.64	1082.19
720.97	1080.20
721.30	1083.43
721.64	1087.11
721.97	1085.77
722.31	1084.79
722.64	1085.12
722.97	1082.87
723.31	1080.18
723.64	1079.36
723.97	1081.58
724.31	1082.22
724.64	1080.20
724.98	1076.95
725.31	1078.24
725.64	1074.80
725.98	1074.42
726.31	1075.71
726.64	1082.33
726.97	1080.16
727.31	1081.28
727.64	1081.30
727.97	1079.55
728.31	1075.78
728.64	1075.17
728.97	1073.51
729.31	1074.77
729.64	1079.74
729.97	1077.96
730.30	1081.44
730.64	1080.86
730.97	1080.23
731.30	1075.76
731.63	1076.97
731.97	1076.04
732.30	1079.88
732.63	1078.75
732.96	1082.52
733.30	1086.01
733.63	1084.79
733.96	1082.12
734.29	1083.93
734.63	1079.60
734.96	1080.91
735.29	1079.34
735.62	1081.51
735.95	1079.34
736.29	1082.76
736.62	1080.91
736.95	1079.57
737.28	1077.96
737.61	1079.69
737.94	1075.05
738.28	1072.04
738.61	1074.35
738.94	1074.24
739.27	1074.66
739.60	1078.75
739.93	1078.99
740.27	1079.50
740.60	1077.61
740.93	1074.59
741.26	1073.67
741.59	1075.43
741.92	1075.24
742.25	1075.17
742.58	1078.26
742.91	1077.86
743.25	1077.65
743.58	1079.17
743.91	1080.34
744.24	1080.48
744.57	1083.32
744.90	1081.16
745.23	1080.44
745.56	1081.14
745.89	1081.26
746.22	1078.85
746.55	1079.95
746.88	1078.57
747.21	1080.34
747.54	1082.19
747.87	1084.53
748.20	1083.97
748.53	1082.15
748.87	1083.53
749.20	1080.58
749.53	1077.79
749.86	1077.98
750.19	1079.34
750.52	1078.26
750.85	1079.24
751.18	1078.31
751.51	1079.29
751.84	1077.79
752.16	1078.07
752.49	1078.00
752.82	1078.66
753.15	1076.81
753.48	1079.71
753.81	1076.37
754.14	1076.39
754.47	1076.76
754.80	1077.82
755.13	1076.88
755.46	1077.77
755.79	1078.66
756.12	1082.92
756.45	1084.39
756.78	1084.67
757.11	1085.80
757.43	1084.21
757.76	1076.81
758.09	1076.90
758.42	1078.99
758.75	1075.34
759.08	1075.59
759.41	1078.89
759.74	1078.66
760.07	1078.36
760.39	1081.44
760.72	1082.26
761.05	1081.00
761.38	1080.46
761.71	1079.24
762.04	1078.33
762.36	1076.67
762.69	1080.72
763.02	1080.79
763.35	1084.00
763.68	1084.91
764.01	1085.07
764.33	1083.69
764.66	1083.83
764.99	1082.15
765.32	1081.70
765.65	1082.24
765.97	1082.50
766.30	1084.09
