SpectraSuite Data File
++++++++++++++++++++++++++++++++++++
Date: Mon Aug 26 10:26:31 PDT 2019
User: corrico
Dark Spectrum Present: No
Reference Spectrum Present: No
Number of Sampled Component Spectra: 1
Spectrometers: USB2+H06089
Integration Time (usec): 10000 (USB2+H06089)
Spectra Averaged: 20 (USB2+H06089)
Boxcar Smoothing: 2 (USB2+H06089)
Correct for Electrical Dark: No (USB2+H06089)
Strobe/Lamp Enabled: No (USB2+H06089)
Correct for Detector Non-linearity: No (USB2+H06089)
Correct for Stray Light: No (USB2+H06089)
Number of Pixels in Processed Spectrum: 2048
>>>>>Begin Processed Spectral Data<<<<<
339.70	1025.04
340.07	1025.04
340.45	991.76
340.82	969.52
341.19	946.56
341.57	926.69
341.94	915.38
342.31	910.94
342.69	910.14
343.06	907.89
343.43	904.15
343.81	903.21
344.18	904.78
344.55	906.42
344.93	912.13
345.30	918.94
345.67	932.40
346.04	938.93
346.42	946.16
346.79	954.66
347.16	961.56
347.54	965.66
347.91	974.74
348.28	985.60
348.65	994.24
349.03	1001.28
349.40	1006.90
349.77	1014.08
350.14	1024.24
350.52	1031.85
350.89	1044.23
351.26	1054.11
351.63	1062.30
352.01	1061.88
352.38	1065.53
352.75	1065.22
353.12	1068.50
353.50	1069.46
353.87	1074.52
354.24	1079.17
354.61	1081.47
354.98	1081.68
355.36	1085.26
355.73	1085.38
356.10	1083.15
356.47	1085.52
356.84	1089.82
357.22	1091.16
357.59	1093.76
357.96	1095.21
358.33	1094.46
358.70	1092.42
359.08	1092.87
359.45	1089.03
359.82	1089.29
360.19	1088.42
360.56	1089.47
360.94	1086.17
361.31	1091.32
361.68	1090.36
362.05	1086.10
362.42	1086.20
362.79	1086.52
363.16	1082.66
363.54	1080.25
363.91	1086.20
364.28	1082.36
364.65	1081.56
365.02	1081.58
365.39	1080.79
365.76	1078.12
366.14	1079.78
366.51	1080.18
366.88	1078.54
367.25	1078.38
367.62	1078.85
367.99	1079.95
368.36	1076.69
368.73	1079.99
369.10	1084.23
369.48	1084.35
369.85	1082.03
370.22	1084.18
370.59	1081.96
370.96	1078.17
371.33	1075.87
371.70	1076.93
372.07	1079.31
372.44	1080.88
372.81	1081.09
373.18	1082.19
373.55	1082.24
373.93	1082.31
374.30	1082.71
374.67	1085.31
375.04	1087.39
375.41	1086.66
375.78	1083.57
376.15	1083.83
376.52	1081.07
376.89	1078.89
377.26	1078.38
377.63	1079.69
378.00	1077.35
378.37	1078.00
378.74	1078.80
379.11	1083.04
379.48	1084.53
379.85	1086.17
380.22	1086.38
380.59	1086.90
380.96	1083.50
381.33	1080.23
381.70	1079.36
382.07	1083.34
382.44	1081.63
382.81	1081.05
383.18	1083.95
383.55	1084.84
383.92	1081.68
384.29	1082.85
384.66	1082.08
385.03	1082.45
385.40	1080.27
385.77	1080.44
386.14	1080.81
386.51	1082.50
386.88	1081.75
387.25	1083.88
387.62	1085.17
387.99	1086.34
388.36	1086.66
388.73	1087.53
389.10	1087.48
389.46	1088.65
389.83	1088.84
390.20	1090.32
390.57	1089.73
390.94	1088.91
391.31	1089.38
391.68	1089.38
392.05	1089.45
392.42	1090.06
392.79	1090.81
393.16	1090.34
393.53	1090.85
393.89	1090.08
394.26	1089.14
394.63	1089.22
395.00	1087.83
395.37	1084.16
395.74	1081.80
396.11	1082.90
396.48	1083.79
396.84	1079.64
397.21	1081.23
397.58	1083.57
397.95	1083.11
398.32	1082.87
398.69	1088.65
399.06	1089.57
399.42	1087.39
399.79	1090.13
400.16	1089.92
400.53	1087.39
400.90	1087.46
401.27	1090.90
401.64	1089.12
402.00	1087.25
402.37	1087.46
402.74	1088.96
403.11	1088.89
403.48	1090.17
403.84	1093.45
404.21	1094.39
404.58	1094.60
404.95	1092.87
405.32	1093.57
405.68	1092.73
406.05	1096.40
406.42	1097.22
406.79	1098.81
407.16	1098.72
407.52	1100.61
407.89	1098.04
408.26	1099.98
408.63	1101.25
408.99	1099.21
409.36	1098.30
409.73	1098.67
410.10	1097.38
410.47	1096.68
410.83	1100.15
411.20	1101.74
411.57	1101.06
411.94	1098.39
412.30	1099.63
412.67	1097.62
413.04	1095.84
413.40	1096.38
413.77	1098.51
414.14	1097.34
414.51	1098.27
414.87	1098.48
415.24	1102.13
415.61	1103.05
415.97	1103.19
416.34	1101.67
416.71	1103.19
417.08	1103.26
417.44	1102.98
417.81	1106.61
418.18	1107.73
418.54	1106.72
418.91	1103.02
419.28	1103.75
419.64	1105.72
420.01	1106.79
420.38	1108.69
420.74	1111.54
421.11	1110.40
421.48	1102.91
421.84	1104.31
422.21	1100.50
422.58	1097.95
422.94	1100.94
423.31	1105.69
423.68	1104.69
424.04	1108.62
424.41	1111.15
424.77	1110.49
425.14	1109.62
425.51	1111.68
425.87	1113.09
426.24	1115.05
426.61	1112.55
426.97	1114.89
427.34	1115.17
427.70	1115.24
428.07	1112.20
428.44	1113.74
428.80	1112.78
429.17	1110.68
429.53	1113.07
429.90	1114.66
430.27	1115.64
430.63	1113.23
431.00	1114.10
431.36	1112.41
431.73	1113.30
432.09	1111.47
432.46	1114.05
432.83	1113.88
433.19	1115.64
433.56	1115.24
433.92	1117.21
434.29	1118.73
434.65	1117.79
435.02	1115.99
435.38	1112.11
435.75	1116.76
436.11	1114.73
436.48	1119.64
436.84	1118.94
437.21	1125.49
437.57	1118.96
437.94	1118.03
438.30	1114.63
438.67	1112.76
439.03	1109.44
439.40	1111.19
439.76	1110.72
440.13	1111.31
440.49	1111.59
440.86	1112.64
441.22	1112.01
441.59	1110.91
441.95	1108.13
442.32	1111.03
442.68	1107.49
443.05	1107.68
443.41	1113.14
443.78	1115.71
444.14	1113.74
444.51	1117.42
444.87	1116.51
445.24	1114.80
445.60	1116.53
445.96	1116.34
446.33	1115.27
446.69	1116.18
447.06	1113.81
447.42	1111.26
447.79	1106.91
448.15	1105.95
448.51	1104.43
448.88	1106.11
449.24	1103.98
449.61	1102.58
449.97	1103.73
450.33	1106.65
450.70	1106.58
451.06	1107.80
451.43	1114.10
451.79	1114.84
452.15	1115.36
452.52	1113.46
452.88	1114.66
453.24	1110.42
453.61	1110.63
453.97	1109.62
454.34	1109.86
454.70	1109.25
455.06	1112.25
455.43	1112.88
455.79	1113.37
456.15	1117.32
456.52	1117.25
456.88	1116.74
457.24	1116.90
457.61	1114.91
457.97	1112.13
458.33	1112.36
458.70	1112.81
459.06	1111.03
459.42	1112.48
459.79	1114.28
460.15	1117.61
460.51	1120.60
460.88	1118.66
461.24	1122.47
461.60	1121.28
461.96	1120.16
462.33	1122.19
462.69	1126.92
463.05	1126.01
463.42	1126.52
463.78	1125.61
464.14	1121.61
464.50	1122.92
464.87	1121.87
465.23	1123.13
465.59	1124.79
465.95	1125.38
466.32	1128.54
466.68	1132.33
467.04	1133.43
467.40	1134.76
467.77	1138.76
468.13	1135.65
468.49	1133.24
468.85	1133.31
469.22	1134.93
469.58	1134.86
469.94	1135.67
470.30	1138.93
470.66	1140.87
471.03	1142.35
471.39	1146.09
471.75	1148.69
472.11	1148.06
472.47	1150.91
472.84	1153.49
473.20	1153.77
473.56	1157.28
473.92	1162.90
474.28	1166.52
474.65	1168.33
475.01	1172.58
475.37	1177.36
475.73	1177.85
476.09	1182.25
476.45	1184.01
476.81	1189.20
477.18	1191.24
477.54	1199.27
477.90	1204.02
478.26	1213.80
478.62	1218.18
478.98	1223.94
479.34	1231.78
479.71	1239.43
480.07	1244.63
480.43	1257.50
480.79	1269.83
481.15	1277.25
481.51	1288.79
481.87	1304.36
482.23	1312.22
482.59	1322.47
482.96	1339.18
483.32	1352.15
483.68	1363.62
484.04	1382.27
484.40	1399.92
484.76	1412.98
485.12	1432.71
485.48	1449.52
485.84	1464.78
486.20	1484.55
486.56	1511.03
486.92	1534.62
487.28	1562.07
487.64	1591.31
488.00	1620.82
488.37	1648.84
488.73	1678.02
489.09	1709.78
489.45	1744.10
489.81	1775.60
490.17	1812.82
490.53	1855.20
490.89	1900.23
491.25	1944.33
491.61	1993.95
491.97	2043.08
492.33	2093.00
492.69	2147.09
493.05	2203.75
493.41	2266.57
493.77	2330.85
494.13	2394.53
494.49	2462.01
494.85	2533.00
495.21	2604.95
495.57	2682.65
495.93	2765.97
496.29	2851.10
496.64	2949.50
497.00	3044.45
497.36	3142.82
497.72	3252.92
498.08	3363.70
498.44	3473.31
498.80	3597.36
499.16	3738.30
499.52	3874.52
499.88	4034.94
500.24	4200.93
500.60	4362.90
500.96	4518.66
501.32	4696.80
501.68	4869.44
502.03	5056.54
502.39	5271.54
502.75	5486.33
503.11	5716.36
503.47	5943.04
503.83	6184.12
504.19	6429.12
504.55	6700.53
504.91	6976.22
505.26	7264.58
505.62	7569.78
505.98	7893.81
506.34	8240.42
506.70	8602.87
507.06	9006.48
507.42	9415.93
507.78	9836.92
508.13	10254.28
508.49	10690.89
508.85	11148.67
509.21	11648.71
509.57	12179.05
509.93	12746.81
510.28	13348.57
510.64	13988.98
511.00	14616.27
511.36	15213.11
511.72	15809.71
512.07	16463.40
512.43	17082.54
512.79	17746.88
513.15	18495.12
513.51	19270.26
513.86	20029.20
514.22	20864.80
514.58	21672.52
514.94	22503.43
515.30	23350.78
515.65	24157.84
516.01	25010.80
516.37	25893.60
516.73	26702.96
517.08	27604.00
517.44	28477.16
517.80	29299.76
518.16	30170.51
518.51	30995.36
518.87	31746.25
519.23	32616.65
519.59	33563.59
519.94	34414.21
520.30	35317.35
520.66	36089.98
521.01	36909.64
521.37	37550.78
521.73	38173.93
522.09	38786.26
522.44	39474.87
522.80	39905.08
523.16	40269.20
523.51	40527.24
523.87	40842.91
524.23	41116.28
524.58	41399.86
524.94	41831.86
525.30	42215.77
525.65	42414.63
526.01	42446.65
526.37	42456.19
526.72	42348.55
527.08	42228.58
527.44	42044.85
527.79	41901.25
528.15	41781.21
528.51	41538.75
528.86	41276.49
529.22	41034.20
529.58	40774.54
529.93	40397.11
530.29	39964.86
530.65	39578.48
531.00	39209.47
531.36	38755.55
531.71	38320.61
532.07	37859.34
532.43	37284.97
532.78	36584.26
533.14	35975.37
533.49	35337.81
533.85	34699.12
534.21	34071.88
534.56	33532.18
534.92	32944.30
535.27	32332.61
535.63	31690.32
535.98	31052.80
536.34	30408.15
536.69	29746.83
537.05	29102.06
537.41	28584.49
537.76	28088.23
538.12	27535.75
538.47	27045.15
538.83	26611.07
539.18	26142.33
539.54	25640.33
539.89	25150.06
540.25	24613.78
540.60	24100.68
540.96	23551.22
541.31	23067.78
541.67	22651.80
542.02	22249.16
542.38	21821.77
542.73	21382.43
543.09	20988.94
543.44	20625.95
543.80	20285.54
544.15	19872.79
544.51	19538.21
544.86	19212.15
545.22	18828.46
545.57	18425.19
545.93	18056.98
546.28	17735.60
546.64	17391.40
546.99	17038.84
547.35	16694.69
547.70	16379.93
548.05	16038.52
548.41	15726.18
548.76	15430.45
549.12	15157.22
549.47	14888.08
549.83	14635.91
550.18	14314.60
550.53	13993.90
550.89	13719.10
551.24	13435.12
551.60	13129.66
551.95	12863.56
552.30	12631.61
552.66	12373.57
553.01	12102.02
553.37	11822.84
553.72	11537.62
554.07	11251.68
554.43	10954.34
554.78	10677.50
555.13	10412.88
555.49	10196.24
555.84	10005.84
556.19	9813.14
556.55	9617.33
556.90	9430.98
557.26	9219.11
557.61	8992.46
557.96	8753.49
558.32	8552.08
558.67	8338.63
559.02	8115.57
559.37	7924.96
559.73	7772.57
560.08	7608.68
560.43	7460.34
560.79	7335.94
561.14	7175.43
561.49	7006.67
561.85	6838.13
562.20	6679.00
562.55	6545.19
562.90	6412.67
563.26	6295.27
563.61	6184.87
563.96	6066.41
564.32	5931.85
564.67	5813.96
565.02	5682.38
565.37	5569.98
565.73	5467.94
566.08	5364.53
566.43	5255.74
566.78	5150.56
567.14	5041.30
567.49	4926.29
567.84	4816.73
568.19	4713.18
568.54	4621.83
568.90	4532.73
569.25	4458.74
569.60	4387.47
569.95	4315.74
570.31	4238.03
570.66	4157.94
571.01	4065.74
571.36	3970.02
571.71	3887.02
572.06	3819.12
572.42	3754.45
572.77	3697.67
573.12	3636.02
573.47	3575.22
573.82	3508.56
574.18	3442.18
574.53	3380.18
574.88	3333.39
575.23	3281.99
575.58	3231.23
575.93	3185.40
576.28	3131.24
576.64	3071.09
576.99	3012.36
577.34	2952.07
577.69	2893.37
578.04	2844.64
578.39	2797.46
578.74	2756.96
579.09	2723.92
579.44	2683.26
579.80	2640.62
580.15	2596.80
580.50	2554.81
580.85	2517.71
581.20	2482.65
581.55	2450.47
581.90	2427.74
582.25	2393.97
582.60	2354.27
582.95	2321.95
583.30	2284.99
583.65	2247.34
584.00	2215.04
584.35	2183.37
584.71	2154.09
585.06	2122.77
585.41	2090.52
585.76	2060.56
586.11	2039.00
586.46	2009.37
586.81	1990.34
587.16	1968.65
587.51	1951.75
587.86	1927.57
588.21	1907.86
588.56	1888.02
588.91	1865.90
589.26	1842.66
589.61	1823.98
589.96	1804.62
590.31	1787.23
590.66	1772.02
591.01	1757.27
591.36	1742.95
591.71	1726.99
592.06	1706.09
592.41	1692.11
592.76	1676.74
593.10	1657.45
593.45	1642.14
593.80	1628.22
594.15	1606.61
594.50	1593.72
594.85	1580.49
595.20	1567.67
595.55	1557.77
595.90	1553.76
596.25	1539.98
596.60	1530.45
596.95	1517.98
597.30	1506.81
597.64	1546.91
597.99	1539.74
598.34	1530.87
598.69	1525.21
599.04	1521.30
599.39	1461.20
599.74	1453.38
600.09	1444.16
600.44	1435.52
600.78	1422.44
601.13	1414.46
601.48	1405.44
601.83	1401.30
602.18	1395.40
602.53	1388.41
602.88	1383.16
603.22	1374.81
603.57	1367.46
603.92	1357.96
604.27	1353.32
604.62	1342.51
604.97	1336.47
605.31	1329.05
605.66	1323.99
606.01	1319.59
606.36	1316.60
606.71	1312.34
607.05	1304.12
607.40	1299.30
607.75	1292.33
608.10	1289.87
608.44	1283.55
608.79	1281.14
609.14	1275.83
609.49	1271.47
609.84	1265.67
610.18	1262.18
610.53	1260.66
610.88	1258.74
611.23	1260.14
611.57	1256.98
611.92	1254.78
612.27	1248.51
612.62	1245.94
612.96	1238.42
613.31	1234.54
613.66	1231.99
614.00	1229.48
614.35	1223.12
614.70	1218.27
615.05	1215.77
615.39	1213.12
615.74	1209.19
616.09	1204.93
616.43	1204.58
616.78	1205.40
617.13	1199.24
617.47	1197.44
617.82	1201.70
618.17	1196.65
618.51	1191.40
618.86	1192.76
619.21	1188.73
619.55	1181.13
619.90	1180.61
620.25	1176.63
620.59	1169.64
620.94	1168.33
621.29	1169.73
621.63	1168.44
621.98	1167.44
622.32	1167.46
622.67	1167.62
623.02	1165.47
623.36	1162.43
623.71	1159.78
624.05	1160.60
624.40	1156.79
624.75	1151.82
625.09	1154.21
625.44	1151.66
625.78	1148.01
626.13	1146.86
626.48	1148.95
626.82	1145.01
627.17	1147.75
627.51	1145.60
627.86	1144.38
628.20	1143.68
628.55	1141.57
628.89	1138.46
629.24	1136.75
629.58	1136.03
629.93	1132.09
630.28	1129.19
630.62	1128.93
630.97	1131.93
631.31	1133.57
631.66	1132.73
632.00	1136.68
632.35	1132.52
632.69	1129.82
633.04	1128.11
633.38	1127.34
633.73	1122.73
634.07	1122.66
634.42	1120.91
634.76	1117.42
635.11	1113.37
635.45	1111.26
635.79	1114.19
636.14	1115.22
636.48	1116.58
636.83	1119.43
637.17	1122.33
637.52	1120.34
637.86	1120.65
638.21	1121.26
638.55	1119.95
638.89	1118.52
639.24	1118.80
639.58	1114.91
639.93	1113.18
640.27	1112.43
640.61	1109.60
640.96	1108.20
641.30	1107.89
641.65	1106.58
641.99	1109.48
642.33	1111.87
642.68	1110.42
643.02	1114.68
643.37	1113.09
643.71	1110.77
644.05	1108.22
644.40	1111.19
644.74	1105.67
645.08	1107.75
645.43	1107.14
645.77	1109.09
646.11	1106.23
646.46	1107.10
646.80	1106.44
647.14	1107.80
647.49	1105.65
647.83	1105.67
648.17	1106.39
648.52	1105.81
648.86	1102.51
649.20	1103.00
649.55	1101.34
649.89	1101.22
650.23	1103.09
650.57	1104.26
650.92	1105.20
651.26	1104.41
651.60	1103.61
651.95	1099.91
652.29	1098.58
652.63	1096.66
652.97	1097.01
653.32	1097.83
653.66	1096.99
654.00	1094.86
654.34	1093.24
654.69	1092.26
655.03	1091.32
655.37	1093.31
655.71	1096.00
656.05	1096.92
656.40	1097.80
656.74	1095.09
657.08	1091.65
657.42	1092.77
657.76	1092.35
658.11	1095.60
658.45	1097.20
658.79	1099.28
659.13	1098.20
659.47	1099.09
659.82	1093.78
660.16	1093.10
660.50	1096.38
660.84	1097.66
661.18	1096.19
661.52	1100.89
661.87	1101.99
662.21	1099.58
662.55	1096.19
662.89	1097.17
663.23	1092.49
663.57	1092.16
663.91	1094.01
664.25	1094.65
664.60	1093.62
664.94	1094.15
665.28	1094.50
665.62	1093.10
665.96	1093.17
666.30	1093.85
666.64	1095.49
666.98	1093.85
667.32	1092.94
667.66	1096.03
668.01	1095.63
668.35	1095.56
668.69	1095.14
669.03	1093.36
669.37	1087.20
669.71	1088.47
670.05	1086.73
670.39	1087.88
670.73	1090.15
671.07	1095.35
671.41	1095.35
671.75	1096.07
672.09	1094.83
672.43	1093.01
672.77	1090.20
673.11	1090.53
673.45	1089.59
673.79	1092.05
674.13	1090.95
674.47	1091.84
674.81	1091.56
675.15	1088.26
675.49	1087.16
675.83	1090.74
676.17	1089.78
676.51	1090.78
676.85	1094.76
677.19	1092.23
677.53	1090.48
677.87	1092.00
678.21	1090.41
678.55	1089.47
678.89	1093.90
679.23	1092.05
679.57	1092.05
679.90	1091.58
680.24	1091.11
680.58	1089.12
680.92	1091.74
681.26	1092.14
681.60	1089.87
681.94	1091.16
682.28	1091.34
682.62	1092.07
682.96	1090.43
683.29	1093.15
683.63	1095.77
683.97	1095.39
684.31	1093.24
684.65	1093.55
684.99	1092.47
685.33	1087.95
685.67	1089.61
686.00	1092.70
686.34	1092.73
686.68	1092.96
687.02	1093.47
687.36	1092.00
687.70	1085.56
688.03	1082.08
688.37	1082.26
688.71	1084.84
689.05	1087.72
689.39	1091.20
689.72	1094.53
690.06	1093.87
690.40	1092.12
690.74	1088.75
691.08	1087.02
691.41	1086.55
691.75	1085.38
692.09	1084.35
692.43	1088.00
692.76	1092.70
693.10	1092.77
693.44	1092.68
693.78	1093.99
694.11	1091.88
694.45	1088.68
694.79	1090.95
695.13	1092.45
695.46	1093.83
695.80	1091.98
696.14	1093.31
696.48	1091.70
696.81	1092.28
697.15	1089.54
697.49	1090.17
697.82	1089.78
698.16	1088.40
698.50	1088.21
698.83	1091.04
699.17	1089.61
699.51	1089.87
699.84	1091.18
700.18	1090.57
700.52	1087.65
700.85	1085.17
701.19	1084.00
701.53	1082.76
701.86	1083.97
702.20	1086.55
702.54	1089.61
702.87	1091.98
703.21	1092.40
703.55	1093.76
703.88	1090.95
704.22	1092.87
704.55	1091.72
704.89	1094.95
705.23	1094.53
705.56	1096.75
705.90	1093.38
706.23	1088.12
706.57	1087.27
706.91	1087.53
707.24	1086.52
707.58	1088.44
707.91	1091.09
708.25	1088.89
708.58	1085.45
708.92	1084.44
709.26	1083.13
709.59	1080.72
709.93	1083.64
710.26	1085.45
710.60	1086.99
710.93	1089.92
711.27	1093.92
711.60	1088.65
711.94	1087.32
712.27	1086.57
712.61	1083.62
712.94	1082.97
713.28	1086.87
713.61	1085.56
713.95	1087.37
714.28	1089.24
714.62	1088.47
714.95	1087.93
715.29	1088.63
715.62	1087.69
715.96	1087.39
716.29	1089.10
716.63	1084.56
716.96	1083.97
717.29	1082.85
717.63	1082.83
717.96	1082.52
718.30	1088.47
718.63	1089.36
718.97	1090.46
719.30	1088.16
719.63	1084.98
719.97	1081.58
720.30	1082.05
720.64	1080.63
720.97	1082.94
721.30	1083.71
721.64	1085.00
721.97	1083.88
722.31	1087.83
722.64	1088.49
722.97	1090.74
723.31	1091.27
723.64	1092.59
723.97	1090.55
724.31	1091.72
724.64	1090.97
724.98	1091.84
725.31	1092.56
725.64	1091.46
725.98	1089.17
726.31	1085.40
726.64	1083.71
726.97	1081.96
727.31	1081.14
727.64	1079.41
727.97	1085.45
728.31	1085.00
728.64	1086.66
728.97	1089.17
729.31	1091.60
729.64	1090.24
729.97	1091.81
730.30	1093.12
730.64	1091.04
730.97	1091.51
731.30	1090.27
731.63	1087.76
731.97	1085.66
732.30	1088.02
732.63	1087.55
732.96	1087.67
733.30	1089.94
733.63	1092.28
733.96	1091.88
734.29	1089.19
734.63	1088.70
734.96	1087.65
735.29	1083.39
735.62	1083.48
735.95	1085.70
736.29	1087.44
736.62	1088.96
736.95	1089.45
737.28	1087.55
737.61	1085.21
737.94	1084.91
738.28	1082.19
738.61	1086.10
738.94	1087.74
739.27	1087.90
739.60	1084.96
739.93	1087.25
740.27	1085.61
740.60	1085.66
740.93	1087.74
741.26	1094.01
741.59	1095.49
741.92	1096.92
742.25	1095.65
742.58	1094.76
742.91	1092.68
743.25	1087.93
743.58	1088.16
743.91	1090.32
744.24	1092.94
744.57	1090.08
744.90	1092.94
745.23	1092.05
745.56	1087.90
745.89	1085.75
746.22	1087.18
746.55	1084.56
746.88	1084.16
747.21	1083.08
747.54	1081.58
747.87	1080.32
748.20	1080.93
748.53	1078.80
748.87	1081.63
749.20	1082.78
749.53	1081.21
749.86	1084.37
750.19	1083.90
750.52	1085.82
750.85	1088.89
751.18	1089.99
751.51	1088.42
751.84	1089.57
752.16	1086.97
752.49	1082.10
752.82	1085.96
753.15	1088.21
753.48	1088.63
753.81	1089.38
754.14	1091.44
754.47	1089.96
754.80	1085.94
755.13	1086.99
755.46	1082.66
755.79	1081.70
756.12	1080.84
756.45	1083.81
756.78	1084.00
757.11	1088.33
757.43	1090.43
757.76	1092.94
758.09	1090.01
758.42	1089.05
758.75	1087.90
759.08	1087.95
759.41	1087.90
759.74	1089.33
760.07	1088.98
760.39	1089.52
760.72	1089.05
761.05	1087.11
761.38	1084.00
761.71	1083.50
762.04	1086.01
762.36	1086.73
762.69	1088.86
763.02	1089.92
763.35	1091.34
