SpectraSuite Data File
++++++++++++++++++++++++++++++++++++
Date: Mon Aug 26 10:26:37 PDT 2019
User: corrico
Dark Spectrum Present: No
Reference Spectrum Present: No
Number of Sampled Component Spectra: 1
Spectrometers: USB2+H06089
Integration Time (usec): 10000 (USB2+H06089)
Spectra Averaged: 20 (USB2+H06089)
Boxcar Smoothing: 2 (USB2+H06089)
Correct for Electrical Dark: No (USB2+H06089)
Strobe/Lamp Enabled: No (USB2+H06089)
Correct for Detector Non-linearity: No (USB2+H06089)
Correct for Stray Light: No (USB2+H06089)
Number of Pixels in Processed Spectrum: 2048
>>>>>Begin Processed Spectral Data<<<<<
339.70	1024.34
340.07	1024.34
340.45	995.29
340.82	974.74
341.19	951.73
341.57	927.65
341.94	912.81
342.31	904.06
342.69	902.18
343.06	902.67
343.43	907.38
343.81	913.30
344.18	913.82
344.55	913.96
344.93	918.43
345.30	918.38
345.67	923.34
346.04	935.21
346.42	944.66
346.79	949.41
347.16	958.43
347.54	966.57
347.91	975.39
348.28	982.95
348.65	996.62
349.03	1008.47
349.40	1019.58
349.77	1026.23
350.14	1037.77
350.52	1041.98
350.89	1045.89
351.26	1048.21
351.63	1052.75
352.01	1053.48
352.38	1057.69
352.75	1063.54
353.12	1071.10
353.50	1077.09
353.87	1083.20
354.24	1084.84
354.61	1086.24
354.98	1086.85
355.36	1088.33
355.73	1087.25
356.10	1088.37
356.47	1090.83
356.84	1090.10
357.22	1087.11
357.59	1086.17
357.96	1090.53
358.33	1088.44
358.70	1090.76
359.08	1092.73
359.45	1094.27
359.82	1092.23
360.19	1091.25
360.56	1088.51
360.94	1086.50
361.31	1084.16
361.68	1082.80
362.05	1078.89
362.42	1078.24
362.79	1076.88
363.16	1078.12
363.54	1078.21
363.91	1080.98
364.28	1079.50
364.65	1080.70
365.02	1079.90
365.39	1079.60
365.76	1082.05
366.14	1082.19
366.51	1082.15
366.88	1083.04
367.25	1081.98
367.62	1078.28
367.99	1078.78
368.36	1074.84
368.73	1071.05
369.10	1069.25
369.48	1069.60
369.85	1068.95
370.22	1075.45
370.59	1078.26
370.96	1079.38
371.33	1080.46
371.70	1079.57
372.07	1076.90
372.44	1077.35
372.81	1081.63
373.18	1084.14
373.55	1085.03
373.93	1086.34
374.30	1085.77
374.67	1083.08
375.04	1083.01
375.41	1081.33
375.78	1079.83
376.15	1082.26
376.52	1082.61
376.89	1082.59
377.26	1087.34
377.63	1087.93
378.00	1090.32
378.37	1086.59
378.74	1084.84
379.11	1082.03
379.48	1081.63
379.85	1077.70
380.22	1079.95
380.59	1083.25
380.96	1084.81
381.33	1085.61
381.70	1085.00
382.07	1083.90
382.44	1081.07
382.81	1081.68
383.18	1085.73
383.55	1087.88
383.92	1092.89
384.29	1093.43
384.66	1091.06
385.03	1084.25
385.40	1086.08
385.77	1083.39
386.14	1088.12
386.51	1088.54
386.88	1093.05
387.25	1090.83
387.62	1090.27
387.99	1085.00
388.36	1086.90
388.73	1085.33
389.10	1081.21
389.46	1083.60
389.83	1085.07
390.20	1084.32
390.57	1083.50
390.94	1089.47
391.31	1088.75
391.68	1084.93
392.05	1085.00
392.42	1086.08
392.79	1084.74
393.16	1084.58
393.53	1087.13
393.89	1090.20
394.26	1089.31
394.63	1091.42
395.00	1092.75
395.37	1094.11
395.74	1090.17
396.11	1090.60
396.48	1089.59
396.84	1088.21
397.21	1085.77
397.58	1085.70
397.95	1086.57
398.32	1084.72
398.69	1084.46
399.06	1086.94
399.42	1090.34
399.79	1092.73
400.16	1094.32
400.53	1096.05
400.90	1096.59
401.27	1095.07
401.64	1096.03
402.00	1096.73
402.37	1092.47
402.74	1093.45
403.11	1095.32
403.48	1093.80
403.84	1092.56
404.21	1095.96
404.58	1094.69
404.95	1092.21
405.32	1091.63
405.68	1094.29
406.05	1095.02
406.42	1094.97
406.79	1096.49
407.16	1096.87
407.52	1092.94
407.89	1092.30
408.26	1093.33
408.63	1093.76
408.99	1094.46
409.36	1099.82
409.73	1101.78
410.10	1099.12
410.47	1097.88
410.83	1096.31
411.20	1094.08
411.57	1092.45
411.94	1098.02
412.30	1101.83
412.67	1106.00
413.04	1105.29
413.40	1106.42
413.77	1104.45
414.14	1101.95
414.51	1099.49
414.87	1101.22
415.24	1100.80
415.61	1100.92
415.97	1100.87
416.34	1101.81
416.71	1100.73
417.08	1101.06
417.44	1100.22
417.81	1102.42
418.18	1101.71
418.54	1103.82
418.91	1103.89
419.28	1107.24
419.64	1108.15
420.01	1108.48
420.38	1108.43
420.74	1111.15
421.11	1110.98
421.48	1110.00
421.84	1110.94
422.21	1112.99
422.58	1112.15
422.94	1111.33
423.31	1113.51
423.68	1115.55
424.04	1115.71
424.41	1115.36
424.77	1113.25
425.14	1113.30
425.51	1111.78
425.87	1108.20
426.24	1107.87
426.61	1107.03
426.97	1106.04
427.34	1105.60
427.70	1107.82
428.07	1105.04
428.44	1106.98
428.80	1105.97
429.17	1106.02
429.53	1104.05
429.90	1108.88
430.27	1109.02
430.63	1111.31
431.00	1111.87
431.36	1113.88
431.73	1113.21
432.09	1113.37
432.46	1111.57
432.83	1112.34
433.19	1112.88
433.56	1113.91
433.92	1114.73
434.29	1112.41
434.65	1109.74
435.02	1110.65
435.38	1109.13
435.75	1110.07
436.11	1113.11
436.48	1116.58
436.84	1116.11
437.21	1114.24
437.57	1112.67
437.94	1111.94
438.30	1109.88
438.67	1107.82
439.03	1109.48
439.40	1108.36
439.76	1108.59
440.13	1110.84
440.49	1111.68
440.86	1111.05
441.22	1112.48
441.59	1111.47
441.95	1111.75
442.32	1112.04
442.68	1115.57
443.05	1112.92
443.41	1116.32
443.78	1116.67
444.14	1115.76
444.51	1115.73
444.87	1117.75
445.24	1115.08
445.60	1112.95
445.96	1113.11
446.33	1112.36
446.69	1114.02
447.06	1111.12
447.42	1113.53
447.79	1114.59
448.15	1111.82
448.51	1110.84
448.88	1110.51
449.24	1107.38
449.61	1105.20
449.97	1104.33
450.33	1104.01
450.70	1108.99
451.06	1108.20
451.43	1110.37
451.79	1114.56
452.15	1116.90
452.52	1119.27
452.88	1121.16
453.24	1121.40
453.61	1118.07
453.97	1114.82
454.34	1110.89
454.70	1111.01
455.06	1111.01
455.43	1109.93
455.79	1112.13
456.15	1116.06
456.52	1115.34
456.88	1111.71
457.24	1115.66
457.61	1116.06
457.97	1113.51
458.33	1116.18
458.70	1118.73
459.06	1118.47
459.42	1117.65
459.79	1116.32
460.15	1115.10
460.51	1112.32
460.88	1111.01
461.24	1111.66
461.60	1113.46
461.96	1114.49
462.33	1117.54
462.69	1119.60
463.05	1120.13
463.42	1121.33
463.78	1118.92
464.14	1118.87
464.50	1119.34
464.87	1119.78
465.23	1120.20
465.59	1123.41
465.95	1124.37
466.32	1123.69
466.68	1127.62
467.04	1125.31
467.40	1126.45
467.77	1126.50
468.13	1124.39
468.49	1123.13
468.85	1129.38
469.22	1130.97
469.58	1133.73
469.94	1139.84
470.30	1143.49
470.66	1143.82
471.03	1145.72
471.39	1146.11
471.75	1147.00
472.11	1145.46
472.47	1148.38
472.84	1152.78
473.20	1155.38
473.56	1158.52
473.92	1163.74
474.28	1165.96
474.65	1164.81
475.01	1169.10
475.37	1174.74
475.73	1176.35
476.09	1180.85
476.45	1187.56
476.81	1195.15
477.18	1198.59
477.54	1203.83
477.90	1209.64
478.26	1214.90
478.62	1220.00
478.98	1225.08
479.34	1233.02
479.71	1238.21
480.07	1244.56
480.43	1252.51
480.79	1262.41
481.15	1274.19
481.51	1284.86
481.87	1295.25
482.23	1307.10
482.59	1324.51
482.96	1333.19
483.32	1347.59
483.68	1362.92
484.04	1380.80
484.40	1392.83
484.76	1410.95
485.12	1428.27
485.48	1443.74
485.84	1459.37
486.20	1481.35
486.56	1505.43
486.92	1529.00
487.28	1563.10
487.64	1591.38
488.00	1616.37
488.37	1645.72
488.73	1680.67
489.09	1711.05
489.45	1744.45
489.81	1782.72
490.17	1820.56
490.53	1859.51
490.89	1898.39
491.25	1940.58
491.61	1983.81
491.97	2028.85
492.33	2076.59
492.69	2127.83
493.05	2182.90
493.41	2241.84
493.77	2305.50
494.13	2370.82
494.49	2444.57
494.85	2517.55
495.21	2590.55
495.57	2666.92
495.93	2747.41
496.29	2826.88
496.64	2919.75
497.00	3012.83
497.36	3115.51
497.72	3212.29
498.08	3328.73
498.44	3444.80
498.80	3568.01
499.16	3696.81
499.52	3841.64
499.88	3986.19
500.24	4139.19
500.60	4291.75
500.96	4453.52
501.32	4629.28
501.68	4803.76
502.03	4996.29
502.39	5211.88
502.75	5426.53
503.11	5652.02
503.47	5878.56
503.83	6112.43
504.19	6356.82
504.55	6626.29
504.91	6898.94
505.26	7188.00
505.62	7492.73
505.98	7818.63
506.34	8156.56
506.70	8511.66
507.06	8894.50
507.42	9296.21
507.78	9695.04
508.13	10101.92
508.49	10540.09
508.85	11003.40
509.21	11479.60
509.57	12002.29
509.93	12560.44
510.28	13156.95
510.64	13772.77
511.00	14381.89
511.36	14962.44
511.72	15554.08
512.07	16189.13
512.43	16796.22
512.79	17460.02
513.15	18196.89
513.51	18934.49
513.86	19661.76
514.22	20500.00
514.58	21311.35
514.94	22138.21
515.30	23000.23
515.65	23822.07
516.01	24663.98
516.37	25528.71
516.73	26320.14
517.08	27183.47
517.44	28019.07
517.80	28814.01
518.16	29645.69
518.51	30482.08
518.87	31244.68
519.23	32118.21
519.59	32997.22
519.94	33823.83
520.30	34689.62
520.66	35452.91
521.01	36228.15
521.37	36924.55
521.73	37552.40
522.09	38155.20
522.44	38811.47
522.80	39248.86
523.16	39586.53
523.51	39845.79
523.87	40126.85
524.23	40386.79
524.58	40661.21
524.94	41034.93
525.30	41372.92
525.65	41565.60
526.01	41585.54
526.37	41572.03
526.72	41495.47
527.08	41368.15
527.44	41183.34
527.79	41025.80
528.15	40903.04
528.51	40651.20
528.86	40425.85
529.22	40192.45
529.58	39946.95
529.93	39560.37
530.29	39127.77
530.65	38743.82
531.00	38379.45
531.36	37924.33
531.71	37483.05
532.07	37015.17
532.43	36423.04
532.78	35760.55
533.14	35177.03
533.49	34574.07
533.85	33980.30
534.21	33391.72
534.56	32846.24
534.92	32245.91
535.27	31615.18
535.63	30981.11
535.98	30331.92
536.34	29686.42
536.69	29037.36
537.05	28445.56
537.41	27938.37
537.76	27461.15
538.12	26907.06
538.47	26429.68
538.83	25987.37
539.18	25508.89
539.54	25037.86
539.89	24595.61
540.25	24081.51
540.60	23584.99
540.96	23076.70
541.31	22574.77
541.67	22150.29
542.02	21759.23
542.38	21315.54
542.73	20868.45
543.09	20485.77
543.44	20120.25
543.80	19770.58
544.15	19388.90
544.51	19070.43
544.86	18748.72
545.22	18386.62
545.57	18005.13
545.93	17653.00
546.28	17339.18
546.64	17024.47
546.99	16669.60
547.35	16344.62
547.70	16063.68
548.05	15747.17
548.41	15434.24
548.76	15156.65
549.12	14879.16
549.47	14590.92
549.83	14318.70
550.18	14003.59
550.53	13673.81
550.89	13386.72
551.24	13113.13
551.60	12823.35
551.95	12570.24
552.30	12352.46
552.66	12114.26
553.01	11861.09
553.37	11589.68
553.72	11310.38
554.07	11026.08
554.43	10743.32
554.78	10460.18
555.13	10202.09
555.49	9985.12
555.84	9797.97
556.19	9614.34
556.55	9419.84
556.90	9233.41
557.26	9021.10
557.61	8800.95
557.96	8564.79
558.32	8368.37
558.67	8168.10
559.02	7955.36
559.37	7769.22
559.73	7609.18
560.08	7452.87
560.43	7305.21
560.79	7180.06
561.14	7022.38
561.49	6866.24
561.85	6716.40
562.20	6554.30
562.55	6417.33
562.90	6289.79
563.26	6171.41
563.61	6046.45
563.96	5940.02
564.32	5828.47
564.67	5709.32
565.02	5586.44
565.37	5475.31
565.73	5366.33
566.08	5256.68
566.43	5153.67
566.78	5039.29
567.14	4932.05
567.49	4823.63
567.84	4721.80
568.19	4620.99
568.54	4535.12
568.90	4443.32
569.25	4364.21
569.60	4287.14
569.95	4214.79
570.31	4135.02
570.66	4061.77
571.01	3975.63
571.36	3880.00
571.71	3800.70
572.06	3737.72
572.42	3670.33
572.77	3614.09
573.12	3568.03
573.47	3510.66
573.82	3449.25
574.18	3386.99
574.53	3325.46
574.88	3273.15
575.23	3223.81
575.58	3175.43
575.93	3128.95
576.28	3077.73
576.64	3021.12
576.99	2960.15
577.34	2903.32
577.69	2851.54
578.04	2803.66
578.39	2751.30
578.74	2711.49
579.09	2670.57
579.44	2631.16
579.80	2594.98
580.15	2554.67
580.50	2510.62
580.85	2475.58
581.20	2442.28
581.55	2410.38
581.90	2387.07
582.25	2359.70
582.60	2328.74
582.95	2295.25
583.30	2256.32
583.65	2215.13
584.00	2183.09
584.35	2149.36
584.71	2113.95
585.06	2084.97
585.41	2058.69
585.76	2029.01
586.11	2007.20
586.46	1987.44
586.81	1965.07
587.16	1946.13
587.51	1928.11
587.86	1903.28
588.21	1882.05
588.56	1865.03
588.91	1845.47
589.26	1825.97
589.61	1811.62
589.96	1794.21
590.31	1773.12
590.66	1757.51
591.01	1744.05
591.36	1725.16
591.71	1708.92
592.06	1696.63
592.41	1681.07
592.76	1660.10
593.10	1647.85
593.45	1632.55
593.80	1611.51
594.15	1592.55
594.50	1583.89
594.85	1567.57
595.20	1557.30
595.55	1548.71
595.90	1535.84
596.25	1523.74
596.60	1511.14
596.95	1498.22
597.30	1487.62
597.64	1531.30
597.99	1529.70
598.34	1521.09
598.69	1515.85
599.04	1512.97
599.39	1452.72
599.74	1436.64
600.09	1429.55
600.44	1415.91
600.78	1408.56
601.13	1406.03
601.48	1402.80
601.83	1398.54
602.18	1398.94
602.53	1388.52
602.88	1380.73
603.22	1370.52
603.57	1362.07
603.92	1350.75
604.27	1343.40
604.62	1337.27
604.97	1330.08
605.31	1322.66
605.66	1317.53
606.01	1315.64
606.36	1309.65
606.71	1305.36
607.05	1301.69
607.40	1298.25
607.75	1290.92
608.10	1286.85
608.44	1280.69
608.79	1274.87
609.14	1269.76
609.49	1264.01
609.84	1260.64
610.18	1261.90
610.53	1263.33
610.88	1258.44
611.23	1257.57
611.57	1255.00
611.92	1250.64
612.27	1244.25
612.62	1244.35
612.96	1241.72
613.31	1234.38
613.66	1229.04
614.00	1224.43
614.35	1220.40
614.70	1216.52
615.05	1216.14
615.39	1209.12
615.74	1206.36
616.09	1201.75
616.43	1200.41
616.78	1194.82
617.13	1193.84
617.47	1189.79
617.82	1187.66
618.17	1183.07
618.51	1181.76
618.86	1181.06
619.21	1180.54
619.55	1176.26
619.90	1173.83
620.25	1171.41
620.59	1166.73
620.94	1163.55
621.29	1160.67
621.63	1159.43
621.98	1156.39
622.32	1160.55
622.67	1161.07
623.02	1163.43
623.36	1165.19
623.71	1167.37
624.05	1162.01
624.40	1158.87
624.75	1157.25
625.09	1151.80
625.44	1146.00
625.78	1145.65
626.13	1144.73
626.48	1142.95
626.82	1143.38
627.17	1147.45
627.51	1145.76
627.86	1147.26
628.20	1145.83
628.55	1143.14
628.89	1137.76
629.24	1141.03
629.58	1136.73
629.93	1136.68
630.28	1136.82
630.62	1137.57
630.97	1131.65
631.31	1131.98
631.66	1128.37
632.00	1127.13
632.35	1124.56
632.69	1124.21
633.04	1125.49
633.38	1124.02
633.73	1118.38
634.07	1117.77
634.42	1115.87
634.76	1112.50
635.11	1113.98
635.45	1117.79
635.79	1118.12
636.14	1119.97
636.48	1119.67
636.83	1117.58
637.17	1114.31
637.52	1111.52
637.86	1108.45
638.21	1108.59
638.55	1109.79
638.89	1111.29
639.24	1116.46
639.58	1119.38
639.93	1117.68
640.27	1116.72
640.61	1115.20
640.96	1110.19
641.30	1108.92
641.65	1109.06
641.99	1107.10
642.33	1109.39
642.68	1110.44
643.02	1108.29
643.37	1106.02
643.71	1107.33
644.05	1104.78
644.40	1104.62
644.74	1105.01
645.08	1109.39
645.43	1107.31
645.77	1111.01
646.11	1110.56
646.46	1111.94
646.80	1108.08
647.14	1110.56
647.49	1105.01
647.83	1104.08
648.17	1099.33
648.52	1097.27
648.86	1095.53
649.20	1099.14
649.55	1099.40
649.89	1100.10
650.23	1102.30
650.57	1101.57
650.92	1102.39
651.26	1104.10
651.60	1102.49
651.95	1102.13
652.29	1100.61
652.63	1095.56
652.97	1093.31
653.32	1099.21
653.66	1099.51
654.00	1100.26
654.34	1102.28
654.69	1102.88
655.03	1100.38
655.37	1101.71
655.71	1101.78
656.05	1102.28
656.40	1101.39
656.74	1099.68
657.08	1099.26
657.42	1097.55
657.76	1095.28
658.11	1095.32
658.45	1094.83
658.79	1092.37
659.13	1092.26
659.47	1095.09
659.82	1097.24
660.16	1098.09
660.50	1097.24
660.84	1099.75
661.18	1097.20
661.52	1094.97
661.87	1092.37
662.21	1095.77
662.55	1093.76
662.89	1093.83
663.23	1093.55
663.57	1096.07
663.91	1094.22
664.25	1095.32
664.60	1093.31
664.94	1091.51
665.28	1090.71
665.62	1090.17
665.96	1091.93
666.30	1094.86
666.64	1094.27
666.98	1095.32
667.32	1096.47
667.66	1093.97
668.01	1094.20
668.35	1098.72
668.69	1095.82
669.03	1095.39
669.37	1097.06
669.71	1097.76
670.05	1093.66
670.39	1093.38
670.73	1093.80
671.07	1091.67
671.41	1089.26
671.75	1087.88
672.09	1088.40
672.43	1085.26
672.77	1086.76
673.11	1085.94
673.45	1092.00
673.79	1096.59
674.13	1097.57
674.47	1097.48
674.81	1095.46
675.15	1093.05
675.49	1088.54
675.83	1088.47
676.17	1089.75
676.51	1093.83
676.85	1091.27
677.19	1093.71
677.53	1097.38
677.87	1094.76
678.21	1093.69
678.55	1096.42
678.89	1097.78
679.23	1093.45
679.57	1095.28
679.90	1095.56
680.24	1094.88
680.58	1093.73
680.92	1096.47
681.26	1096.33
681.60	1094.72
681.94	1093.31
682.28	1092.23
682.62	1089.87
682.96	1088.54
683.29	1088.96
683.63	1091.93
683.97	1089.94
684.31	1093.19
684.65	1091.86
684.99	1091.46
685.33	1087.67
685.67	1086.62
686.00	1084.65
686.34	1087.51
686.68	1088.04
687.02	1089.73
687.36	1092.37
687.70	1090.17
688.03	1087.48
688.37	1088.82
688.71	1088.91
689.05	1090.64
689.39	1091.16
689.72	1092.21
690.06	1093.52
690.40	1094.53
690.74	1092.94
691.08	1093.40
691.41	1093.83
691.75	1089.78
692.09	1089.82
692.43	1089.94
692.76	1087.51
693.10	1087.55
693.44	1091.65
693.78	1091.70
694.11	1092.40
694.45	1094.76
694.79	1095.23
695.13	1091.60
695.46	1091.02
695.80	1090.20
696.14	1092.23
696.48	1094.48
696.81	1094.29
697.15	1092.07
697.49	1091.51
697.82	1088.35
698.16	1086.03
698.50	1084.63
698.83	1086.13
699.17	1087.93
699.51	1091.42
699.84	1088.75
700.18	1091.88
700.52	1091.11
700.85	1087.83
701.19	1086.03
701.53	1089.73
701.86	1089.45
702.20	1088.35
702.54	1089.68
702.87	1086.36
703.21	1084.53
703.55	1086.48
703.88	1091.79
704.22	1089.96
704.55	1093.10
704.89	1091.53
705.23	1090.62
705.56	1085.03
705.90	1084.58
706.23	1080.11
706.57	1082.47
706.91	1079.76
707.24	1082.71
707.58	1083.83
707.91	1089.03
708.25	1088.09
708.58	1093.97
708.92	1093.19
709.26	1094.74
709.59	1094.36
709.93	1094.01
710.26	1089.57
710.60	1088.12
710.93	1086.06
711.27	1082.64
711.60	1082.85
711.94	1082.38
712.27	1083.13
712.61	1082.59
712.94	1083.22
713.28	1082.94
713.61	1082.94
713.95	1081.05
714.28	1081.30
714.62	1082.90
714.95	1083.79
715.29	1087.76
715.62	1088.91
715.96	1088.56
716.29	1088.75
716.63	1087.13
716.96	1083.93
717.29	1083.74
717.63	1085.59
717.96	1087.06
718.30	1090.20
718.63	1089.57
718.97	1089.80
719.30	1089.68
719.63	1089.43
719.97	1087.27
720.30	1089.50
720.64	1090.06
720.97	1086.41
721.30	1087.16
721.64	1084.91
721.97	1083.06
722.31	1082.38
722.64	1082.24
722.97	1081.96
723.31	1082.40
723.64	1084.35
723.97	1085.35
724.31	1089.12
724.64	1087.53
724.98	1089.07
725.31	1087.74
725.64	1086.66
725.98	1089.22
726.31	1089.66
726.64	1091.77
726.97	1087.55
727.31	1086.15
727.64	1085.14
727.97	1088.40
728.31	1086.52
728.64	1086.50
728.97	1085.52
729.31	1086.08
729.64	1079.92
729.97	1079.17
730.30	1082.80
730.64	1083.86
730.97	1081.05
731.30	1084.51
731.63	1085.21
731.97	1083.62
732.30	1085.17
732.63	1088.82
732.96	1088.30
733.30	1087.65
733.63	1090.34
733.96	1089.52
734.29	1089.71
734.63	1087.67
734.96	1088.89
735.29	1088.23
735.62	1087.23
735.95	1082.40
736.29	1082.50
736.62	1081.89
736.95	1078.54
737.28	1079.46
737.61	1080.70
737.94	1080.93
738.28	1078.61
738.61	1080.13
738.94	1084.23
739.27	1085.80
739.60	1085.33
739.93	1087.30
740.27	1087.13
740.60	1083.34
740.93	1084.28
741.26	1084.11
741.59	1084.70
741.92	1083.13
742.25	1086.90
742.58	1084.39
742.91	1087.69
743.25	1086.45
743.58	1092.30
743.91	1090.78
744.24	1091.56
744.57	1088.40
744.90	1089.52
745.23	1087.13
745.56	1086.29
745.89	1088.23
746.22	1090.57
746.55	1093.47
746.88	1093.26
747.21	1090.85
747.54	1088.33
747.87	1084.42
748.20	1080.04
748.53	1079.27
748.87	1081.98
749.20	1085.70
749.53	1088.19
749.86	1090.50
750.19	1089.99
750.52	1088.54
750.85	1082.24
751.18	1081.51
751.51	1080.93
751.84	1082.38
752.16	1083.15
752.49	1085.84
752.82	1084.84
753.15	1084.72
753.48	1084.46
753.81	1087.97
754.14	1088.56
754.47	1092.91
754.80	1092.12
755.13	1092.05
755.46	1088.82
755.79	1091.42
756.12	1091.23
756.45	1092.77
756.78	1090.71
757.11	1090.10
757.43	1087.76
757.76	1085.38
758.09	1084.58
758.42	1084.49
758.75	1085.77
759.08	1085.35
759.41	1083.79
759.74	1083.01
760.07	1083.43
760.39	1082.45
760.72	1079.41
761.05	1083.93
761.38	1086.62
761.71	1088.19
762.04	1090.36
762.36	1093.73
762.69	1088.12
763.02	1083.79
763.35	1081.96
