SpectraSuite Data File
++++++++++++++++++++++++++++++++++++
Date: Mon Aug 26 10:26:34 PDT 2019
User: corrico
Dark Spectrum Present: No
Reference Spectrum Present: No
Number of Sampled Component Spectra: 1
Spectrometers: USB2+H06089
Integration Time (usec): 10000 (USB2+H06089)
Spectra Averaged: 20 (USB2+H06089)
Boxcar Smoothing: 2 (USB2+H06089)
Correct for Electrical Dark: No (USB2+H06089)
Strobe/Lamp Enabled: No (USB2+H06089)
Correct for Detector Non-linearity: No (USB2+H06089)
Correct for Stray Light: No (USB2+H06089)
Number of Pixels in Processed Spectrum: 2048
>>>>>Begin Processed Spectral Data<<<<<
339.70	1025.39
340.07	1025.39
340.45	995.73
340.82	976.07
341.19	952.50
341.57	925.35
341.94	912.36
342.31	905.44
342.69	898.95
343.06	899.14
343.43	900.71
343.81	904.20
344.18	903.87
344.55	909.20
344.93	911.50
345.30	917.58
345.67	922.78
346.04	933.29
346.42	939.61
346.79	949.74
347.16	961.54
347.54	971.21
347.91	979.02
348.28	990.80
348.65	1002.05
349.03	1011.95
349.40	1017.78
349.77	1027.89
350.14	1034.73
350.52	1038.92
350.89	1041.02
351.26	1047.46
351.63	1050.36
352.01	1055.37
352.38	1064.57
352.75	1071.85
353.12	1075.34
353.50	1077.04
353.87	1080.32
354.24	1078.24
354.61	1082.15
354.98	1087.81
355.36	1094.65
355.73	1096.85
356.10	1096.54
356.47	1095.09
356.84	1093.71
357.22	1091.06
357.59	1088.30
357.96	1087.16
358.33	1087.97
358.70	1091.37
359.08	1089.52
359.45	1088.04
359.82	1090.43
360.19	1086.01
360.56	1081.77
360.94	1085.26
361.31	1085.52
361.68	1088.14
362.05	1089.66
362.42	1091.32
362.79	1089.78
363.16	1090.50
363.54	1087.83
363.91	1085.75
364.28	1084.44
364.65	1083.83
365.02	1082.05
365.39	1083.13
365.76	1085.07
366.14	1084.65
366.51	1081.42
366.88	1083.55
367.25	1078.43
367.62	1077.07
367.99	1077.58
368.36	1077.89
368.73	1079.20
369.10	1082.80
369.48	1081.96
369.85	1081.00
370.22	1081.21
370.59	1078.50
370.96	1075.05
371.33	1074.68
371.70	1073.84
372.07	1074.49
372.44	1076.62
372.81	1079.83
373.18	1080.32
373.55	1079.76
373.93	1081.35
374.30	1081.14
374.67	1082.29
375.04	1082.97
375.41	1083.93
375.78	1081.63
376.15	1082.08
376.52	1079.88
376.89	1079.81
377.26	1080.67
377.63	1079.97
378.00	1076.74
378.37	1080.88
378.74	1083.76
379.11	1084.07
379.48	1084.70
379.85	1085.61
380.22	1081.35
380.59	1079.76
380.96	1078.28
381.33	1081.19
381.70	1084.32
382.07	1084.58
382.44	1087.11
382.81	1087.48
383.18	1085.73
383.55	1086.03
383.92	1086.13
384.29	1081.35
384.66	1081.98
385.03	1080.20
385.40	1075.08
385.77	1079.43
386.14	1082.19
386.51	1083.04
386.88	1085.99
387.25	1089.31
387.62	1086.17
387.99	1088.44
388.36	1088.91
388.73	1087.95
389.10	1090.29
389.46	1089.36
389.83	1088.54
390.20	1090.69
390.57	1090.95
390.94	1089.26
391.31	1089.24
391.68	1090.24
392.05	1085.61
392.42	1086.59
392.79	1085.54
393.16	1084.72
393.53	1081.73
393.89	1086.03
394.26	1086.29
394.63	1087.16
395.00	1088.61
395.37	1089.57
395.74	1087.06
396.11	1088.93
396.48	1090.39
396.84	1089.75
397.21	1087.95
397.58	1086.94
397.95	1087.86
398.32	1086.76
398.69	1088.07
399.06	1090.74
399.42	1093.94
399.79	1091.63
400.16	1093.29
400.53	1094.53
400.90	1096.94
401.27	1100.03
401.64	1097.64
402.00	1095.84
402.37	1095.16
402.74	1094.20
403.11	1088.70
403.48	1092.80
403.84	1093.40
404.21	1092.80
404.58	1091.02
404.95	1092.33
405.32	1092.00
405.68	1091.49
406.05	1091.79
406.42	1093.01
406.79	1091.95
407.16	1090.76
407.52	1092.52
407.89	1095.11
408.26	1095.53
408.63	1099.00
408.99	1099.14
409.36	1100.89
409.73	1099.14
410.10	1099.79
410.47	1101.22
410.83	1101.11
411.20	1100.78
411.57	1100.40
411.94	1099.98
412.30	1100.17
412.67	1099.93
413.04	1096.31
413.40	1098.11
413.77	1098.58
414.14	1097.08
414.51	1099.07
414.87	1102.53
415.24	1100.12
415.61	1101.76
415.97	1102.04
416.34	1102.39
416.71	1099.98
417.08	1105.67
417.44	1108.06
417.81	1106.77
418.18	1107.66
418.54	1109.32
418.91	1106.18
419.28	1104.17
419.64	1108.20
420.01	1105.88
420.38	1108.85
420.74	1109.55
421.11	1108.08
421.48	1107.33
421.84	1108.74
422.21	1108.85
422.58	1108.08
422.94	1109.41
423.31	1108.01
423.68	1108.45
424.04	1106.65
424.41	1106.02
424.77	1102.79
425.14	1103.66
425.51	1105.36
425.87	1105.90
426.24	1109.16
426.61	1109.04
426.97	1109.55
427.34	1110.37
427.70	1109.18
428.07	1104.85
428.44	1107.68
428.80	1108.22
429.17	1106.04
429.53	1109.30
429.90	1113.18
430.27	1113.56
430.63	1113.18
431.00	1114.56
431.36	1111.54
431.73	1112.69
432.09	1112.78
432.46	1115.36
432.83	1111.66
433.19	1111.52
433.56	1110.70
433.92	1110.05
434.29	1109.18
434.65	1111.71
435.02	1111.61
435.38	1108.38
435.75	1108.81
436.11	1104.94
436.48	1108.50
436.84	1111.75
437.21	1114.19
437.57	1113.35
437.94	1112.55
438.30	1112.64
438.67	1111.97
439.03	1113.88
439.40	1113.88
439.76	1117.56
440.13	1117.58
440.49	1116.01
440.86	1112.50
441.22	1110.79
441.59	1107.07
441.95	1101.71
442.32	1102.77
442.68	1105.22
443.05	1107.07
443.41	1107.47
443.78	1110.96
444.14	1110.47
444.51	1108.43
444.87	1111.43
445.24	1112.83
445.60	1110.61
445.96	1110.47
446.33	1112.55
446.69	1110.23
447.06	1109.16
447.42	1107.64
447.79	1107.26
448.15	1107.31
448.51	1105.01
448.88	1106.65
449.24	1111.92
449.61	1113.53
449.97	1111.50
450.33	1114.42
450.70	1118.24
451.06	1113.53
451.43	1111.80
451.79	1113.49
452.15	1111.92
452.52	1108.08
452.88	1110.51
453.24	1109.39
453.61	1107.38
453.97	1107.49
454.34	1109.18
454.70	1107.92
455.06	1111.36
455.43	1115.71
455.79	1118.26
456.15	1115.29
456.52	1116.86
456.88	1111.71
457.24	1108.69
457.61	1107.80
457.97	1108.41
458.33	1107.61
458.70	1112.53
459.06	1113.46
459.42	1111.94
459.79	1114.70
460.15	1119.01
460.51	1119.74
460.88	1120.88
461.24	1125.73
461.60	1125.05
461.96	1121.19
462.33	1120.70
462.69	1118.64
463.05	1116.62
463.42	1116.58
463.78	1121.02
464.14	1121.07
464.50	1123.27
464.87	1125.00
465.23	1123.81
465.59	1120.53
465.95	1120.18
466.32	1119.45
466.68	1119.41
467.04	1121.68
467.40	1120.09
467.77	1123.41
468.13	1124.96
468.49	1127.79
468.85	1130.71
469.22	1135.37
469.58	1133.57
469.94	1135.07
470.30	1132.54
470.66	1134.53
471.03	1135.35
471.39	1135.23
471.75	1140.80
472.11	1144.57
472.47	1145.29
472.84	1147.80
473.20	1154.35
473.56	1152.81
473.92	1156.20
474.28	1161.70
474.65	1167.69
475.01	1169.64
475.37	1175.67
475.73	1179.49
476.09	1180.43
476.45	1182.88
476.81	1190.86
477.18	1195.10
477.54	1200.79
477.90	1207.32
478.26	1211.72
478.62	1218.72
478.98	1228.85
479.34	1236.48
479.71	1244.30
480.07	1255.35
480.43	1266.09
480.79	1269.25
481.15	1280.46
481.51	1292.51
481.87	1301.31
482.23	1311.40
482.59	1325.38
482.96	1334.85
483.32	1348.78
483.68	1365.82
484.04	1377.08
484.40	1392.81
484.76	1413.00
485.12	1430.98
485.48	1446.78
485.84	1468.10
486.20	1489.21
486.56	1511.85
486.92	1531.25
487.28	1561.39
487.64	1586.63
488.00	1619.23
488.37	1646.54
488.73	1683.64
489.09	1714.44
489.45	1748.10
489.81	1780.28
490.17	1821.01
490.53	1858.74
490.89	1894.08
491.25	1938.74
491.61	1986.88
491.97	2034.21
492.33	2085.11
492.69	2142.15
493.05	2198.65
493.41	2256.11
493.77	2321.67
494.13	2393.99
494.49	2462.55
494.85	2538.12
495.21	2612.48
495.57	2690.12
495.93	2763.56
496.29	2849.09
496.64	2944.11
497.00	3035.25
497.36	3128.17
497.72	3230.55
498.08	3344.11
498.44	3455.15
498.80	3584.20
499.16	3729.04
499.52	3873.82
499.88	4023.01
500.24	4178.63
500.60	4337.15
500.96	4494.86
501.32	4666.77
501.68	4836.69
502.03	5031.54
502.39	5245.89
502.75	5463.63
503.11	5696.65
503.47	5940.26
503.83	6187.86
504.19	6436.85
504.55	6711.35
504.91	6991.44
505.26	7282.20
505.62	7584.01
505.98	7903.33
506.34	8235.60
506.70	8600.32
507.06	8987.21
507.42	9385.88
507.78	9804.15
508.13	10231.30
508.49	10660.58
508.85	11130.60
509.21	11617.93
509.57	12145.84
509.93	12702.18
510.28	13310.39
510.64	13935.39
511.00	14561.71
511.36	15153.52
511.72	15753.49
512.07	16397.75
512.43	17019.91
512.79	17698.66
513.15	18426.29
513.51	19171.12
513.86	19907.01
514.22	20715.82
514.58	21515.70
514.94	22369.65
515.30	23236.02
515.65	24067.28
516.01	24922.75
516.37	25775.59
516.73	26552.14
517.08	27417.39
517.44	28244.79
517.80	29093.56
518.16	29972.53
518.51	30818.84
518.87	31571.53
519.23	32463.98
519.59	33327.96
519.94	34160.91
520.30	35041.45
520.66	35811.16
521.01	36594.21
521.37	37276.07
521.73	37907.25
522.09	38504.18
522.44	39170.90
522.80	39588.62
523.16	39937.97
523.51	40183.72
523.87	40490.59
524.23	40727.33
524.58	40999.91
524.94	41392.68
525.30	41730.60
525.65	41877.33
526.01	41960.09
526.37	41963.39
526.72	41865.47
527.08	41745.07
527.44	41620.18
527.79	41473.71
528.15	41394.81
528.51	41190.90
528.86	40990.64
529.22	40727.87
529.58	40462.85
529.93	40051.95
530.29	39599.95
530.65	39195.55
531.00	38840.02
531.36	38388.37
531.71	37925.95
532.07	37430.32
532.43	36841.23
532.78	36155.31
533.14	35535.09
533.49	34948.43
533.85	34354.83
534.21	33743.78
534.56	33190.48
534.92	32619.60
535.27	32023.02
535.63	31409.43
535.98	30781.56
536.34	30159.30
536.69	29480.83
537.05	28832.17
537.41	28293.94
537.76	27795.57
538.12	27243.18
538.47	26780.83
538.83	26345.23
539.18	25874.79
539.54	25400.08
539.89	24948.66
540.25	24409.77
540.60	23893.22
540.96	23380.15
541.31	22883.09
541.67	22444.43
542.02	22046.25
542.38	21636.47
542.73	21167.57
543.09	20749.46
543.44	20366.92
543.80	20026.91
544.15	19609.64
544.51	19301.98
544.86	18986.38
545.22	18622.99
545.57	18238.98
545.93	17893.30
546.28	17556.59
546.64	17241.93
546.99	16902.86
547.35	16567.27
547.70	16258.27
548.05	15950.80
548.41	15636.25
548.76	15342.00
549.12	15063.13
549.47	14805.15
549.83	14547.81
550.18	14235.19
550.53	13911.16
550.89	13645.39
551.24	13350.86
551.60	13032.17
551.95	12765.68
552.30	12524.28
552.66	12257.15
553.01	11995.25
553.37	11731.84
553.72	11457.39
554.07	11192.56
554.43	10913.71
554.78	10634.13
555.13	10378.10
555.49	10151.21
555.84	9945.57
556.19	9762.23
556.55	9571.55
556.90	9375.34
557.26	9171.55
557.61	8955.31
557.96	8704.83
558.32	8499.49
558.67	8303.03
559.02	8086.01
559.37	7903.85
559.73	7762.43
560.08	7598.34
560.43	7442.74
560.79	7313.38
561.14	7152.07
561.49	6972.62
561.85	6809.32
562.20	6653.56
562.55	6514.62
562.90	6389.43
563.26	6273.43
563.61	6163.80
563.96	6057.82
564.32	5930.85
564.67	5801.32
565.02	5674.30
565.37	5562.68
565.73	5447.43
566.08	5344.40
566.43	5238.66
566.78	5136.47
567.14	5023.59
567.49	4907.10
567.84	4801.30
568.19	4697.60
568.54	4598.90
568.90	4512.60
569.25	4427.66
569.60	4353.82
569.95	4284.07
570.31	4207.09
570.66	4126.76
571.01	4045.24
571.36	3945.02
571.71	3861.49
572.06	3794.06
572.42	3726.46
572.77	3668.27
573.12	3626.52
573.47	3564.21
573.82	3502.14
574.18	3439.09
574.53	3378.49
574.88	3320.61
575.23	3271.58
575.58	3222.12
575.93	3172.76
576.28	3119.30
576.64	3061.75
576.99	3005.04
577.34	2947.25
577.69	2894.05
578.04	2842.28
578.39	2791.60
578.74	2747.48
579.09	2709.15
579.44	2666.13
579.80	2626.08
580.15	2582.55
580.50	2547.95
580.85	2513.45
581.20	2485.25
581.55	2453.00
581.90	2425.03
582.25	2391.28
582.60	2353.99
582.95	2316.08
583.30	2280.62
583.65	2243.24
584.00	2206.07
584.35	2173.70
584.71	2139.81
585.06	2110.79
585.41	2079.82
585.76	2052.77
586.11	2028.21
586.46	2004.76
586.81	1982.57
587.16	1968.67
587.51	1951.42
587.86	1928.53
588.21	1907.75
588.56	1886.99
588.91	1864.14
589.26	1840.29
589.61	1822.08
589.96	1803.97
590.31	1787.33
590.66	1770.64
591.01	1754.33
591.36	1739.98
591.71	1722.03
592.06	1704.38
592.41	1686.82
592.76	1670.86
593.10	1655.58
593.45	1641.37
593.80	1624.05
594.15	1608.65
594.50	1594.65
594.85	1577.52
595.20	1563.97
595.55	1551.63
595.90	1544.50
596.25	1535.04
596.60	1524.55
596.95	1512.62
597.30	1502.72
597.64	1541.52
597.99	1535.58
598.34	1528.77
598.69	1522.10
599.04	1512.20
599.39	1452.63
599.74	1437.37
600.09	1427.02
600.44	1417.64
600.78	1418.15
601.13	1412.12
601.48	1411.13
601.83	1403.83
602.18	1398.26
602.53	1385.15
602.88	1376.40
603.22	1365.14
603.57	1358.17
603.92	1350.91
604.27	1344.85
604.62	1338.95
604.97	1333.19
605.31	1326.66
605.66	1326.29
606.01	1321.58
606.36	1317.77
606.71	1311.75
607.05	1306.84
607.40	1296.70
607.75	1290.88
608.10	1285.49
608.44	1278.14
608.79	1274.40
609.14	1273.56
609.49	1271.61
609.84	1265.57
610.18	1267.49
610.53	1266.65
610.88	1262.56
611.23	1255.84
611.57	1254.08
611.92	1247.53
612.27	1240.46
612.62	1234.84
612.96	1238.19
613.31	1236.15
613.66	1231.36
614.00	1227.89
614.35	1222.93
614.70	1214.90
615.05	1207.69
615.39	1209.50
615.74	1207.97
616.09	1205.45
616.43	1199.88
616.78	1199.55
617.13	1195.78
617.47	1192.22
617.82	1191.01
618.17	1188.78
618.51	1181.64
618.86	1179.44
619.21	1176.52
619.55	1175.35
619.90	1174.90
620.25	1178.18
620.59	1173.15
620.94	1173.29
621.29	1170.78
621.63	1169.57
621.98	1167.74
622.32	1169.94
622.67	1169.33
623.02	1168.44
623.36	1168.25
623.71	1165.87
624.05	1161.70
624.40	1158.00
624.75	1155.12
625.09	1153.42
625.44	1151.66
625.78	1151.96
626.13	1148.03
626.48	1146.37
626.82	1145.11
627.17	1142.81
627.51	1142.06
627.86	1143.38
628.20	1143.40
628.55	1137.95
628.89	1135.84
629.24	1131.74
629.58	1131.72
629.93	1129.14
630.28	1131.11
630.62	1131.93
630.97	1134.83
631.31	1133.47
631.66	1135.32
632.00	1135.09
632.35	1132.98
632.69	1129.29
633.04	1128.21
633.38	1123.11
633.73	1121.77
634.07	1121.37
634.42	1120.20
634.76	1119.71
635.11	1119.27
635.45	1119.74
635.79	1120.53
636.14	1120.70
636.48	1118.28
636.83	1119.81
637.17	1117.84
637.52	1114.91
637.86	1111.99
638.21	1110.94
638.55	1108.97
638.89	1107.47
639.24	1107.56
639.58	1109.53
639.93	1111.73
640.27	1114.59
640.61	1115.50
640.96	1115.99
641.30	1114.63
641.65	1114.59
641.99	1110.75
642.33	1112.67
642.68	1110.47
643.02	1110.56
643.37	1109.04
643.71	1108.06
644.05	1104.57
644.40	1105.48
644.74	1105.95
645.08	1103.02
645.43	1106.21
645.77	1106.75
646.11	1109.06
646.46	1108.36
646.80	1106.56
647.14	1104.59
647.49	1104.45
647.83	1104.17
648.17	1102.44
648.52	1104.03
648.86	1102.56
649.20	1103.87
649.55	1101.39
649.89	1101.85
650.23	1100.52
650.57	1102.88
650.92	1097.85
651.26	1096.87
651.60	1096.47
651.95	1098.67
652.29	1098.51
652.63	1102.16
652.97	1103.47
653.32	1103.33
653.66	1101.69
654.00	1100.45
654.34	1096.28
654.69	1094.83
655.03	1095.23
655.37	1096.03
655.71	1096.00
656.05	1099.09
656.40	1101.25
656.74	1102.11
657.08	1101.92
657.42	1102.74
657.76	1102.18
658.11	1103.47
658.45	1100.96
658.79	1102.23
659.13	1101.41
659.47	1100.38
659.82	1097.01
660.16	1097.13
660.50	1095.28
660.84	1093.73
661.18	1092.26
661.52	1091.88
661.87	1091.93
662.21	1095.16
662.55	1092.84
662.89	1094.76
663.23	1093.45
663.57	1095.65
663.91	1095.18
664.25	1096.68
664.60	1097.50
664.94	1099.75
665.28	1098.67
665.62	1096.31
665.96	1097.92
666.30	1096.63
666.64	1092.98
666.98	1089.66
667.32	1091.70
667.66	1092.07
668.01	1092.30
668.35	1094.46
668.69	1096.61
669.03	1092.80
669.37	1090.46
669.71	1085.87
670.05	1088.07
670.39	1087.67
670.73	1090.60
671.07	1092.63
671.41	1097.45
671.75	1094.95
672.09	1096.54
672.43	1095.21
672.77	1093.52
673.11	1091.98
673.45	1092.80
673.79	1092.84
674.13	1092.14
674.47	1092.14
674.81	1094.34
675.15	1093.03
675.49	1093.10
675.83	1094.06
676.17	1093.66
676.51	1095.60
676.85	1099.09
677.19	1100.08
677.53	1098.20
677.87	1097.92
678.21	1093.38
678.55	1087.25
678.89	1082.29
679.23	1082.52
679.57	1085.75
679.90	1087.53
680.24	1091.93
680.58	1092.96
680.92	1092.49
681.26	1089.59
681.60	1090.99
681.94	1088.96
682.28	1092.05
682.62	1094.46
682.96	1096.54
683.29	1095.86
683.63	1095.72
683.97	1093.01
684.31	1093.45
684.65	1095.67
684.99	1093.55
685.33	1096.40
685.67	1097.52
686.00	1097.85
686.34	1091.56
686.68	1090.53
687.02	1089.52
687.36	1090.71
687.70	1089.99
688.03	1092.59
688.37	1094.83
688.71	1095.67
689.05	1093.36
689.39	1094.15
689.72	1094.83
690.06	1096.19
690.40	1093.47
690.74	1095.04
691.08	1094.76
691.41	1093.45
691.75	1091.98
692.09	1093.62
692.43	1091.46
692.76	1089.78
693.10	1088.75
693.44	1088.89
693.78	1089.82
694.11	1088.93
694.45	1088.12
694.79	1089.57
695.13	1087.55
695.46	1086.13
695.80	1088.56
696.14	1091.13
696.48	1092.54
696.81	1093.57
697.15	1096.17
697.49	1095.51
697.82	1091.32
698.16	1090.06
698.50	1089.52
698.83	1085.35
699.17	1083.83
699.51	1087.09
699.84	1088.33
700.18	1088.19
700.52	1090.69
700.85	1089.10
701.19	1085.66
701.53	1085.91
701.86	1087.58
702.20	1088.09
702.54	1089.07
702.87	1089.14
703.21	1087.25
703.55	1085.77
703.88	1086.13
704.22	1086.41
704.55	1088.98
704.89	1088.21
705.23	1087.53
705.56	1087.67
705.90	1091.98
706.23	1091.18
706.57	1091.25
706.91	1094.01
707.24	1095.44
707.58	1093.36
707.91	1093.78
708.25	1095.35
708.58	1093.78
708.92	1090.53
709.26	1089.66
709.59	1086.99
709.93	1084.70
710.26	1083.53
710.60	1079.83
710.93	1080.34
711.27	1080.67
711.60	1083.20
711.94	1086.13
712.27	1088.02
712.61	1089.22
712.94	1088.98
713.28	1089.96
713.61	1088.02
713.95	1091.63
714.28	1089.85
714.62	1093.57
714.95	1091.98
715.29	1091.77
715.62	1087.46
715.96	1087.97
716.29	1084.81
716.63	1083.36
716.96	1083.08
717.29	1086.22
717.63	1084.74
717.96	1089.80
718.30	1091.93
718.63	1091.72
718.97	1091.11
719.30	1093.50
719.63	1088.49
719.97	1086.97
720.30	1085.17
720.64	1088.58
720.97	1084.42
721.30	1086.99
721.64	1086.85
721.97	1086.27
722.31	1082.61
722.64	1085.84
722.97	1085.66
723.31	1084.86
723.64	1087.48
723.97	1084.72
724.31	1086.45
724.64	1087.02
724.98	1084.07
725.31	1084.44
725.64	1084.18
725.98	1081.87
726.31	1079.99
726.64	1085.14
726.97	1085.73
727.31	1088.89
727.64	1089.36
727.97	1089.85
728.31	1085.66
728.64	1084.72
728.97	1081.63
729.31	1083.81
729.64	1087.83
729.97	1091.91
730.30	1093.10
730.64	1100.75
730.97	1100.38
731.30	1095.58
731.63	1094.27
731.97	1091.53
732.30	1084.21
732.63	1080.60
732.96	1082.19
733.30	1082.05
733.63	1084.74
733.96	1085.63
734.29	1087.86
734.63	1088.79
734.96	1088.91
735.29	1087.51
735.62	1088.79
735.95	1091.25
736.29	1087.16
736.62	1085.21
736.95	1084.60
737.28	1086.24
737.61	1083.97
737.94	1087.41
738.28	1087.44
738.61	1090.22
738.94	1086.55
739.27	1088.44
739.60	1088.23
739.93	1090.10
740.27	1088.96
740.60	1090.48
740.93	1089.50
741.26	1088.65
741.59	1089.64
741.92	1088.42
742.25	1089.43
742.58	1086.24
742.91	1085.91
743.25	1086.15
743.58	1088.54
743.91	1091.11
744.24	1093.73
744.57	1096.52
744.90	1092.68
745.23	1088.72
745.56	1084.77
745.89	1083.25
746.22	1081.73
746.55	1083.29
746.88	1085.26
747.21	1084.04
747.54	1084.67
747.87	1083.67
748.20	1085.96
748.53	1083.95
748.87	1087.48
749.20	1084.00
749.53	1084.49
749.86	1084.25
750.19	1088.72
750.52	1087.23
750.85	1091.44
751.18	1092.82
751.51	1091.16
751.84	1087.69
752.16	1086.85
752.49	1083.74
752.82	1083.18
753.15	1085.12
753.48	1087.72
753.81	1090.48
754.14	1090.24
754.47	1090.06
754.80	1089.33
755.13	1087.88
755.46	1086.22
755.79	1089.92
756.12	1092.77
756.45	1093.66
756.78	1094.25
757.11	1092.66
757.43	1093.31
757.76	1086.87
758.09	1085.17
758.42	1083.15
758.75	1082.47
759.08	1081.09
759.41	1082.76
759.74	1081.70
760.07	1082.17
760.39	1086.27
760.72	1086.59
761.05	1086.83
761.38	1088.09
761.71	1089.43
762.04	1088.19
762.36	1086.80
762.69	1086.76
763.02	1085.14
763.35	1086.08
