SpectraSuite Data File
++++++++++++++++++++++++++++++++++++
Date: Mon Aug 26 10:26:37 PDT 2019
User: corrico
Dark Spectrum Present: No
Reference Spectrum Present: No
Number of Sampled Component Spectra: 1
Spectrometers: USB2+H06089
Integration Time (usec): 10000 (USB2+H06089)
Spectra Averaged: 20 (USB2+H06089)
Boxcar Smoothing: 2 (USB2+H06089)
Correct for Electrical Dark: No (USB2+H06089)
Strobe/Lamp Enabled: No (USB2+H06089)
Correct for Detector Non-linearity: No (USB2+H06089)
Correct for Stray Light: No (USB2+H06089)
Number of Pixels in Processed Spectrum: 2048
>>>>>Begin Processed Spectral Data<<<<<
339.70	1041.30
340.07	1041.30
340.45	1005.54
340.82	984.41
341.19	959.85
341.57	933.80
341.94	925.00
342.31	919.13
342.69	910.68
343.06	909.34
343.43	908.08
343.81	904.31
344.18	903.54
344.55	908.92
344.93	909.09
345.30	914.82
345.67	924.35
346.04	930.27
346.42	937.34
346.79	948.62
347.16	958.64
347.54	968.86
347.91	979.51
348.28	989.20
348.65	1000.04
349.03	1008.58
349.40	1017.03
349.77	1023.68
350.14	1029.41
350.52	1034.05
350.89	1041.42
351.26	1047.37
351.63	1056.59
352.01	1060.78
352.38	1065.60
352.75	1066.58
353.12	1067.47
353.50	1068.64
353.87	1076.06
354.24	1077.16
354.61	1082.47
354.98	1086.41
355.36	1085.38
355.73	1083.04
356.10	1085.03
356.47	1084.65
356.84	1082.31
357.22	1084.37
357.59	1087.81
357.96	1088.79
358.33	1087.60
358.70	1091.13
359.08	1089.54
359.45	1090.46
359.82	1091.11
360.19	1089.59
360.56	1088.19
360.94	1089.89
361.31	1089.59
361.68	1087.72
362.05	1087.32
362.42	1085.12
362.79	1084.21
363.16	1080.04
363.54	1078.99
363.91	1077.40
364.28	1079.90
364.65	1080.79
365.02	1080.79
365.39	1076.41
365.76	1078.64
366.14	1076.32
366.51	1073.23
366.88	1072.88
367.25	1079.24
367.62	1078.28
367.99	1078.71
368.36	1076.95
368.73	1076.88
369.10	1075.80
369.48	1077.16
369.85	1075.87
370.22	1082.22
370.59	1079.74
370.96	1078.14
371.33	1074.91
371.70	1077.42
372.07	1075.90
372.44	1078.19
372.81	1078.61
373.18	1081.30
373.55	1080.46
373.93	1080.46
374.30	1082.76
374.67	1082.57
375.04	1081.12
375.41	1079.38
375.78	1078.05
376.15	1076.46
376.52	1078.38
376.89	1077.23
377.26	1080.20
377.63	1082.12
378.00	1083.01
378.37	1080.74
378.74	1083.41
379.11	1081.42
379.48	1079.78
379.85	1080.16
380.22	1080.06
380.59	1081.02
380.96	1079.88
381.33	1080.06
381.70	1081.30
382.07	1084.49
382.44	1084.60
382.81	1087.16
383.18	1087.95
383.55	1088.42
383.92	1087.79
384.29	1087.58
384.66	1087.32
385.03	1086.71
385.40	1087.95
385.77	1087.02
386.14	1086.87
386.51	1087.20
386.88	1087.02
387.25	1082.40
387.62	1083.43
387.99	1087.16
388.36	1085.35
388.73	1088.96
389.10	1090.99
389.46	1090.27
389.83	1089.45
390.20	1092.12
390.57	1090.90
390.94	1090.78
391.31	1090.81
391.68	1091.32
392.05	1092.98
392.42	1091.72
392.79	1092.96
393.16	1093.47
393.53	1090.95
393.89	1089.29
394.26	1089.94
394.63	1091.06
395.00	1091.06
395.37	1091.58
395.74	1092.28
396.11	1089.10
396.48	1085.99
396.84	1086.90
397.21	1088.19
397.58	1086.90
397.95	1089.80
398.32	1092.59
398.69	1090.85
399.06	1091.86
399.42	1092.52
399.79	1094.65
400.16	1091.95
400.53	1093.76
400.90	1091.56
401.27	1091.58
401.64	1088.47
402.00	1090.43
402.37	1085.00
402.74	1084.07
403.11	1082.05
403.48	1083.43
403.84	1081.75
404.21	1088.16
404.58	1090.99
404.95	1091.23
405.32	1091.79
405.68	1092.63
406.05	1094.43
406.42	1093.94
406.79	1096.49
407.16	1098.81
407.52	1102.28
407.89	1099.44
408.26	1098.90
408.63	1100.17
408.99	1098.32
409.36	1095.75
409.73	1097.88
410.10	1102.79
410.47	1106.23
410.83	1107.68
411.20	1110.96
411.57	1111.99
411.94	1107.31
412.30	1106.14
412.67	1102.93
413.04	1100.29
413.40	1099.09
413.77	1101.22
414.14	1096.42
414.51	1097.52
414.87	1097.48
415.24	1096.61
415.61	1094.41
415.97	1096.96
416.34	1100.29
416.71	1102.21
417.08	1105.81
417.44	1107.31
417.81	1106.35
418.18	1105.15
418.54	1104.78
418.91	1105.58
419.28	1105.48
419.64	1105.81
420.01	1108.20
420.38	1107.35
420.74	1105.72
421.11	1107.17
421.48	1111.22
421.84	1108.27
422.21	1110.07
422.58	1108.38
422.94	1109.11
423.31	1105.65
423.68	1107.54
424.04	1107.42
424.41	1105.32
424.77	1103.63
425.14	1105.97
425.51	1104.55
425.87	1104.01
426.24	1109.53
426.61	1110.40
426.97	1111.87
427.34	1112.20
427.70	1114.56
428.07	1116.44
428.44	1118.19
428.80	1114.98
429.17	1118.05
429.53	1115.57
429.90	1109.37
430.27	1106.98
430.63	1110.33
431.00	1108.64
431.36	1110.96
431.73	1113.77
432.09	1115.20
432.46	1114.59
432.83	1115.12
433.19	1116.01
433.56	1116.30
433.92	1115.94
434.29	1114.26
434.65	1113.70
435.02	1110.19
435.38	1110.56
435.75	1109.04
436.11	1108.74
436.48	1110.96
436.84	1111.33
437.21	1111.43
437.57	1112.69
437.94	1112.39
438.30	1107.73
438.67	1108.55
439.03	1106.07
439.40	1106.37
439.76	1106.46
440.13	1106.09
440.49	1107.47
440.86	1109.20
441.22	1107.40
441.59	1107.21
441.95	1112.04
442.32	1110.07
442.68	1110.00
443.05	1113.58
443.41	1113.44
443.78	1108.52
444.14	1106.86
444.51	1108.59
444.87	1105.34
445.24	1106.04
445.60	1107.05
445.96	1108.88
446.33	1105.29
446.69	1104.92
447.06	1105.81
447.42	1106.82
447.79	1106.37
448.15	1108.29
448.51	1112.01
448.88	1110.16
449.24	1110.63
449.61	1114.59
449.97	1115.52
450.33	1112.08
450.70	1110.68
451.06	1112.81
451.43	1109.16
451.79	1108.17
452.15	1110.30
452.52	1112.83
452.88	1112.81
453.24	1114.24
453.61	1113.42
453.97	1112.01
454.34	1111.54
454.70	1109.02
455.06	1109.34
455.43	1112.53
455.79	1111.99
456.15	1110.40
456.52	1109.95
456.88	1109.74
457.24	1108.34
457.61	1110.63
457.97	1113.86
458.33	1117.16
458.70	1115.62
459.06	1114.00
459.42	1112.74
459.79	1115.90
460.15	1110.96
460.51	1114.87
460.88	1115.03
461.24	1114.10
461.60	1110.54
461.96	1114.75
462.33	1110.19
462.69	1109.77
463.05	1110.58
463.42	1112.76
463.78	1112.69
464.14	1113.23
464.50	1116.34
464.87	1118.89
465.23	1119.38
465.59	1116.79
465.95	1120.16
466.32	1118.26
466.68	1120.79
467.04	1121.91
467.40	1126.97
467.77	1129.03
468.13	1129.92
468.49	1125.12
468.85	1123.78
469.22	1124.44
469.58	1126.80
469.94	1129.47
470.30	1135.86
470.66	1141.32
471.03	1144.66
471.39	1145.79
471.75	1147.17
472.11	1150.79
472.47	1151.59
472.84	1153.35
473.20	1153.25
473.56	1157.14
473.92	1158.19
474.28	1162.47
474.65	1164.51
475.01	1169.73
475.37	1173.15
475.73	1176.42
476.09	1179.37
476.45	1186.77
476.81	1189.62
477.18	1194.66
477.54	1200.30
477.90	1204.21
478.26	1209.07
478.62	1215.93
478.98	1223.61
479.34	1231.73
479.71	1241.14
480.07	1249.33
480.43	1261.41
480.79	1271.61
481.15	1282.64
481.51	1293.47
481.87	1303.07
482.23	1314.80
482.59	1327.97
482.96	1339.35
483.32	1348.38
483.68	1364.13
484.04	1375.51
484.40	1392.36
484.76	1409.10
485.12	1430.37
485.48	1446.87
485.84	1469.60
486.20	1489.66
486.56	1511.00
486.92	1537.99
487.28	1565.96
487.64	1591.94
488.00	1622.69
488.37	1653.17
488.73	1685.47
489.09	1717.25
489.45	1749.90
489.81	1785.38
490.17	1825.31
490.53	1858.64
490.89	1898.76
491.25	1946.23
491.61	1983.96
491.97	2030.74
492.33	2083.15
492.69	2134.52
493.05	2184.70
493.41	2247.85
493.77	2307.79
494.13	2373.07
494.49	2447.36
494.85	2521.88
495.21	2595.19
495.57	2673.76
495.93	2754.58
496.29	2837.92
496.64	2929.02
497.00	3025.42
497.36	3125.25
497.72	3231.11
498.08	3340.58
498.44	3453.91
498.80	3579.10
499.16	3715.53
499.52	3851.28
499.88	4003.23
500.24	4156.28
500.60	4304.60
500.96	4457.85
501.32	4633.28
501.68	4802.12
502.03	4991.99
502.39	5209.78
502.75	5430.07
503.11	5658.43
503.47	5889.09
503.83	6137.82
504.19	6383.72
504.55	6656.11
504.91	6930.44
505.26	7209.53
505.62	7510.62
505.98	7831.53
506.34	8164.30
506.70	8520.49
507.06	8914.40
507.42	9322.19
507.78	9727.50
508.13	10145.75
508.49	10584.02
508.85	11039.60
509.21	11518.50
509.57	12049.10
509.93	12597.35
510.28	13195.17
510.64	13817.66
511.00	14424.42
511.36	14989.80
511.72	15586.63
512.07	16245.56
512.43	16872.20
512.79	17535.04
513.15	18283.45
513.51	19028.51
513.86	19736.26
514.22	20566.24
514.58	21374.68
514.94	22203.68
515.30	23054.74
515.65	23891.02
516.01	24718.80
516.37	25603.75
516.73	26388.51
517.08	27263.78
517.44	28096.59
517.80	28894.57
518.16	29701.77
518.51	30530.49
518.87	31258.02
519.23	32126.12
519.59	33015.55
519.94	33839.04
520.30	34735.70
520.66	35534.67
521.01	36325.49
521.37	36998.02
521.73	37654.49
522.09	38237.52
522.44	38896.68
522.80	39290.71
523.16	39651.60
523.51	39901.71
523.87	40206.75
524.23	40440.69
524.58	40743.58
524.94	41142.94
525.30	41483.05
525.65	41659.83
526.01	41712.09
526.37	41698.21
526.72	41590.92
527.08	41457.79
527.44	41274.20
527.79	41119.30
528.15	41009.16
528.51	40778.73
528.86	40555.09
529.22	40312.40
529.58	40042.91
529.93	39641.93
530.29	39193.98
530.65	38815.12
531.00	38449.29
531.36	38010.42
531.71	37560.71
532.07	37104.98
532.43	36518.42
532.78	35872.24
533.14	35289.52
533.49	34691.58
533.85	34070.05
534.21	33475.70
534.56	32922.98
534.92	32313.67
535.27	31718.92
535.63	31106.07
535.98	30471.01
536.34	29823.25
536.69	29184.94
537.05	28570.97
537.41	28045.63
537.76	27547.15
538.12	27011.84
538.47	26524.45
538.83	26064.11
539.18	25580.07
539.54	25102.95
539.89	24623.70
540.25	24108.38
540.60	23613.41
540.96	23119.37
541.31	22624.84
541.67	22219.15
542.02	21824.28
542.38	21397.32
542.73	20955.59
543.09	20564.58
543.44	20189.91
543.80	19829.39
544.15	19433.68
544.51	19108.53
544.86	18791.01
545.22	18422.66
545.57	18059.18
545.93	17703.25
546.28	17387.16
546.64	17076.41
546.99	16739.68
547.35	16411.53
547.70	16101.20
548.05	15770.55
548.41	15431.43
548.76	15128.78
549.12	14838.74
549.47	14576.08
549.83	14322.60
550.18	14011.97
550.53	13692.51
550.89	13419.09
551.24	13141.08
551.60	12848.72
551.95	12598.19
552.30	12379.05
552.66	12132.49
553.01	11880.75
553.37	11614.44
553.72	11353.56
554.07	11076.75
554.43	10787.46
554.78	10510.62
555.13	10245.16
555.49	10015.46
555.84	9817.63
556.19	9637.74
556.55	9441.88
556.90	9256.54
557.26	9045.37
557.61	8826.77
557.96	8582.30
558.32	8386.58
558.67	8179.33
559.02	7966.67
559.37	7778.91
559.73	7632.09
560.08	7470.71
560.43	7324.52
560.79	7201.88
561.14	7048.64
561.49	6885.39
561.85	6728.36
562.20	6572.90
562.55	6433.34
562.90	6304.84
563.26	6186.93
563.61	6068.63
563.96	5959.31
564.32	5841.70
564.67	5719.82
565.02	5592.94
565.37	5488.30
565.73	5380.31
566.08	5272.74
566.43	5171.51
566.78	5069.62
567.14	4957.77
567.49	4850.27
567.84	4745.88
568.19	4641.19
568.54	4548.27
568.90	4464.67
569.25	4388.22
569.60	4317.35
569.95	4247.02
570.31	4174.60
570.66	4089.13
571.01	3997.64
571.36	3902.66
571.71	3823.55
572.06	3753.75
572.42	3697.23
572.77	3637.61
573.12	3583.38
573.47	3519.39
573.82	3457.35
574.18	3383.34
574.53	3326.49
574.88	3277.62
575.23	3233.01
575.58	3188.44
575.93	3146.55
576.28	3090.56
576.64	3034.72
576.99	2974.19
577.34	2914.46
577.69	2861.07
578.04	2812.13
578.39	2757.97
578.74	2720.43
579.09	2679.94
579.44	2640.94
579.80	2606.26
580.15	2570.61
580.50	2533.30
580.85	2496.13
581.20	2461.03
581.55	2424.70
581.90	2397.74
582.25	2358.11
582.60	2323.08
582.95	2285.98
583.30	2250.64
583.65	2215.34
584.00	2186.13
584.35	2153.76
584.71	2124.29
585.06	2095.34
585.41	2063.67
585.76	2037.93
586.11	2011.25
586.46	1989.34
586.81	1965.21
587.16	1945.13
587.51	1926.21
587.86	1910.37
588.21	1892.91
588.56	1875.45
588.91	1853.66
589.26	1829.97
589.61	1812.51
589.96	1791.17
590.31	1771.60
590.66	1760.76
591.01	1746.41
591.36	1730.03
591.71	1708.03
592.06	1696.35
592.41	1676.92
592.76	1662.79
593.10	1644.58
593.45	1633.83
593.80	1616.09
594.15	1599.85
594.50	1587.77
594.85	1572.44
595.20	1562.66
595.55	1552.64
595.90	1544.50
596.25	1535.65
596.60	1526.66
596.95	1514.98
597.30	1506.88
597.64	1546.88
597.99	1537.43
598.34	1531.93
598.69	1523.27
599.04	1512.83
599.39	1453.50
599.74	1442.26
600.09	1431.50
600.44	1423.19
600.78	1414.01
601.13	1411.11
601.48	1402.07
601.83	1398.21
602.18	1392.01
602.53	1385.41
602.88	1373.87
603.22	1369.28
603.57	1361.49
603.92	1356.60
604.27	1351.80
604.62	1344.75
604.97	1334.15
605.31	1325.68
605.66	1318.28
606.01	1309.67
606.36	1304.73
606.71	1299.51
607.05	1294.69
607.40	1290.52
607.75	1286.69
608.10	1282.92
608.44	1281.33
608.79	1277.46
609.14	1277.32
609.49	1274.59
609.84	1273.23
610.18	1270.35
610.53	1267.07
610.88	1258.06
611.23	1257.78
611.57	1249.03
611.92	1246.36
612.27	1243.20
612.62	1238.38
612.96	1232.01
613.31	1234.02
613.66	1229.95
614.00	1223.80
614.35	1222.39
614.70	1216.40
615.05	1210.55
615.39	1204.39
615.74	1204.65
616.09	1202.01
616.43	1197.35
616.78	1194.12
617.13	1193.74
617.47	1189.83
617.82	1185.65
618.17	1186.82
618.51	1184.80
618.86	1181.03
619.21	1178.93
619.55	1179.09
619.90	1177.27
620.25	1174.01
620.59	1173.31
620.94	1171.04
621.29	1170.06
621.63	1167.67
621.98	1168.49
622.32	1165.21
622.67	1165.00
623.02	1160.74
623.36	1161.21
623.71	1155.55
624.05	1158.40
624.40	1153.63
624.75	1150.37
625.09	1147.47
625.44	1151.66
625.78	1148.95
626.13	1148.71
626.48	1149.69
626.82	1148.31
627.17	1143.12
627.51	1140.38
627.86	1137.08
628.20	1136.82
628.55	1133.71
628.89	1133.87
629.24	1130.22
629.58	1131.60
629.93	1128.09
630.28	1130.13
630.62	1127.11
630.97	1132.37
631.31	1130.69
631.66	1131.77
632.00	1126.29
632.35	1124.49
632.69	1121.23
633.04	1122.29
633.38	1120.48
633.73	1126.41
634.07	1129.19
634.42	1128.75
634.76	1124.88
635.11	1128.61
635.45	1123.29
635.79	1121.02
636.14	1118.64
636.48	1119.50
636.83	1115.08
637.17	1117.02
637.52	1116.25
637.86	1115.34
638.21	1114.59
638.55	1116.41
638.89	1115.87
639.24	1116.51
639.58	1116.83
639.93	1117.96
640.27	1114.19
640.61	1112.20
640.96	1110.23
641.30	1110.70
641.65	1106.89
641.99	1106.54
642.33	1105.46
642.68	1104.33
643.02	1101.43
643.37	1104.66
643.71	1105.95
644.05	1106.72
644.40	1107.73
644.74	1109.51
645.08	1107.68
645.43	1104.22
645.77	1105.62
646.11	1105.93
646.46	1103.73
646.80	1104.26
647.14	1105.01
647.49	1100.29
647.83	1098.13
648.17	1098.06
648.52	1096.68
648.86	1097.38
649.20	1103.42
649.55	1103.96
649.89	1103.31
650.23	1101.06
650.57	1100.45
650.92	1097.34
651.26	1096.85
651.60	1095.82
651.95	1098.04
652.29	1098.58
652.63	1098.98
652.97	1101.32
653.32	1103.96
653.66	1104.66
654.00	1105.29
654.34	1100.89
654.69	1098.09
655.03	1096.31
655.37	1096.40
655.71	1094.90
656.05	1094.27
656.40	1095.98
656.74	1095.63
657.08	1092.94
657.42	1089.19
657.76	1094.41
658.11	1092.12
658.45	1092.33
658.79	1094.88
659.13	1098.60
659.47	1097.36
659.82	1098.98
660.16	1098.48
660.50	1097.24
660.84	1099.51
661.18	1099.86
661.52	1097.20
661.87	1098.16
662.21	1098.34
662.55	1094.36
662.89	1093.10
663.23	1090.83
663.57	1089.54
663.91	1089.66
664.25	1091.02
664.60	1090.48
664.94	1093.31
665.28	1094.60
665.62	1092.73
665.96	1094.22
666.30	1093.43
666.64	1094.29
666.98	1091.20
667.32	1093.19
667.66	1091.81
668.01	1094.97
668.35	1091.46
668.69	1093.05
669.03	1093.08
669.37	1091.25
669.71	1086.69
670.05	1090.85
670.39	1091.27
670.73	1091.02
671.07	1092.87
671.41	1092.37
671.75	1089.78
672.09	1088.23
672.43	1088.21
672.77	1088.42
673.11	1088.23
673.45	1087.69
673.79	1089.52
674.13	1088.12
674.47	1086.36
674.81	1086.17
675.15	1089.52
675.49	1089.14
675.83	1088.04
676.17	1087.81
676.51	1088.56
676.85	1086.87
677.19	1089.54
677.53	1092.61
677.87	1095.18
678.21	1096.68
678.55	1098.46
678.89	1095.09
679.23	1093.55
679.57	1093.47
679.90	1094.41
680.24	1093.64
680.58	1096.28
680.92	1094.65
681.26	1093.62
681.60	1094.06
681.94	1097.34
682.28	1095.89
682.62	1096.42
682.96	1094.74
683.29	1093.66
683.63	1090.99
683.97	1091.20
684.31	1090.81
684.65	1091.13
684.99	1090.50
685.33	1087.72
685.67	1088.12
686.00	1090.55
686.34	1091.02
686.68	1091.02
687.02	1093.78
687.36	1093.55
687.70	1094.06
688.03	1092.75
688.37	1093.80
688.71	1090.41
689.05	1090.78
689.39	1088.65
689.72	1092.00
690.06	1090.67
690.40	1093.17
690.74	1091.98
691.08	1095.53
691.41	1091.95
691.75	1092.80
692.09	1092.00
692.43	1091.23
692.76	1089.26
693.10	1090.57
693.44	1090.74
693.78	1091.13
694.11	1087.97
694.45	1086.90
694.79	1084.86
695.13	1082.47
695.46	1083.36
695.80	1084.89
696.14	1083.74
696.48	1085.49
696.81	1087.13
697.15	1082.43
697.49	1082.83
697.82	1083.34
698.16	1083.20
698.50	1087.27
698.83	1089.24
699.17	1090.71
699.51	1089.75
699.84	1090.57
700.18	1087.97
700.52	1087.27
700.85	1086.34
701.19	1085.96
701.53	1087.04
701.86	1085.91
702.20	1087.20
702.54	1087.32
702.87	1091.23
703.21	1090.64
703.55	1087.51
703.88	1090.29
704.22	1091.93
704.55	1090.43
704.89	1089.03
705.23	1089.78
705.56	1087.90
705.90	1087.32
706.23	1086.34
706.57	1088.56
706.91	1089.07
707.24	1086.17
707.58	1085.56
707.91	1084.96
708.25	1085.03
708.58	1086.52
708.92	1090.08
709.26	1094.36
709.59	1095.86
709.93	1095.70
710.26	1098.34
710.60	1098.04
710.93	1093.24
711.27	1092.42
711.60	1093.76
711.94	1090.81
712.27	1090.55
712.61	1092.19
712.94	1092.16
713.28	1089.85
713.61	1088.35
713.95	1089.94
714.28	1089.24
714.62	1089.12
714.95	1087.25
715.29	1088.72
715.62	1088.40
715.96	1087.90
716.29	1088.98
716.63	1090.06
716.96	1090.32
717.29	1090.90
717.63	1089.38
717.96	1088.84
718.30	1089.75
718.63	1089.22
718.97	1089.33
719.30	1091.20
719.63	1089.99
719.97	1087.93
720.30	1089.14
720.64	1087.02
720.97	1087.20
721.30	1088.70
721.64	1087.83
721.97	1089.17
722.31	1089.12
722.64	1089.80
722.97	1089.96
723.31	1089.96
723.64	1087.27
723.97	1086.99
724.31	1084.70
724.64	1084.37
724.98	1083.29
725.31	1082.73
725.64	1080.79
725.98	1082.26
726.31	1081.77
726.64	1085.75
726.97	1085.82
727.31	1085.19
727.64	1082.47
727.97	1083.11
728.31	1082.85
728.64	1082.19
728.97	1085.73
729.31	1088.23
729.64	1085.21
729.97	1085.47
730.30	1083.83
730.64	1081.49
730.97	1079.17
731.30	1081.61
731.63	1079.85
731.97	1080.77
732.30	1081.33
732.63	1082.85
732.96	1080.11
733.30	1081.35
733.63	1082.43
733.96	1084.63
734.29	1084.98
734.63	1088.51
734.96	1087.79
735.29	1089.80
735.62	1087.90
735.95	1088.44
736.29	1087.90
736.62	1088.51
736.95	1087.86
737.28	1084.72
737.61	1083.18
737.94	1080.81
738.28	1080.18
738.61	1081.26
738.94	1084.65
739.27	1085.61
739.60	1086.15
739.93	1085.05
740.27	1083.39
740.60	1085.24
740.93	1086.20
741.26	1087.86
741.59	1088.98
741.92	1089.94
742.25	1086.76
742.58	1087.27
742.91	1089.19
743.25	1092.63
743.58	1090.01
743.91	1091.23
744.24	1088.61
744.57	1087.37
744.90	1084.23
745.23	1087.11
745.56	1084.65
745.89	1088.02
746.22	1084.77
746.55	1086.57
746.88	1084.96
747.21	1087.90
747.54	1085.52
747.87	1088.12
748.20	1084.96
748.53	1086.20
748.87	1086.43
749.20	1087.32
749.53	1089.10
749.86	1089.40
750.19	1090.43
750.52	1090.95
750.85	1092.14
751.18	1089.17
751.51	1089.43
751.84	1087.55
752.16	1084.84
752.49	1083.69
752.82	1083.74
753.15	1086.71
753.48	1084.53
753.81	1084.44
754.14	1085.52
754.47	1087.02
754.80	1085.03
755.13	1089.40
755.46	1091.53
755.79	1090.46
756.12	1090.69
756.45	1088.96
756.78	1088.77
757.11	1088.00
757.43	1085.31
757.76	1085.38
758.09	1087.53
758.42	1087.30
758.75	1087.44
759.08	1088.33
759.41	1086.41
759.74	1086.55
760.07	1085.14
760.39	1084.79
760.72	1086.08
761.05	1085.77
761.38	1082.80
761.71	1080.95
762.04	1078.66
762.36	1080.84
762.69	1082.36
763.02	1082.64
763.35	1082.92
