SpectraSuite Data File
++++++++++++++++++++++++++++++++++++
Date: Mon Aug 26 10:26:28 PDT 2019
User: corrico
Dark Spectrum Present: No
Reference Spectrum Present: No
Number of Sampled Component Spectra: 1
Spectrometers: USB2+H06089
Integration Time (usec): 10000 (USB2+H06089)
Spectra Averaged: 20 (USB2+H06089)
Boxcar Smoothing: 2 (USB2+H06089)
Correct for Electrical Dark: No (USB2+H06089)
Strobe/Lamp Enabled: No (USB2+H06089)
Correct for Detector Non-linearity: No (USB2+H06089)
Correct for Stray Light: No (USB2+H06089)
Number of Pixels in Processed Spectrum: 2048
>>>>>Begin Processed Spectral Data<<<<<
339.70	1023.98
340.07	1023.98
340.45	989.98
340.82	973.03
341.19	950.98
341.57	929.75
341.94	921.02
342.31	915.62
342.69	907.24
343.06	906.02
343.43	902.91
343.81	902.37
344.18	904.31
344.55	908.48
344.93	912.74
345.30	919.88
345.67	928.09
346.04	936.03
346.42	945.27
346.79	952.62
347.16	962.66
347.54	974.04
347.91	985.53
348.28	995.15
348.65	1003.08
349.03	1008.47
349.40	1015.86
349.77	1025.51
350.14	1032.34
350.52	1041.77
350.89	1051.91
351.26	1054.43
351.63	1057.45
352.01	1064.59
352.38	1068.01
352.75	1071.33
353.12	1075.97
353.50	1078.36
353.87	1079.01
354.24	1082.40
354.61	1084.14
354.98	1087.72
355.36	1087.93
355.73	1089.24
356.10	1089.59
356.47	1090.95
356.84	1089.99
357.22	1094.41
357.59	1094.88
357.96	1093.80
358.33	1092.70
358.70	1095.16
359.08	1093.45
359.45	1092.19
359.82	1090.90
360.19	1087.95
360.56	1083.81
360.94	1077.96
361.31	1076.34
361.68	1078.47
362.05	1079.17
362.42	1080.23
362.79	1081.87
363.16	1084.23
363.54	1083.39
363.91	1082.94
364.28	1084.65
364.65	1084.04
365.02	1084.25
365.39	1084.00
365.76	1083.74
366.14	1083.41
366.51	1084.58
366.88	1083.29
367.25	1078.28
367.62	1078.00
367.99	1074.89
368.36	1074.68
368.73	1072.90
369.10	1076.48
369.48	1077.18
369.85	1075.76
370.22	1075.15
370.59	1076.27
370.96	1077.89
371.33	1079.90
371.70	1080.13
372.07	1080.93
372.44	1081.66
372.81	1084.53
373.18	1081.23
373.55	1082.10
373.93	1081.44
374.30	1081.05
374.67	1076.69
375.04	1080.25
375.41	1083.32
375.78	1084.46
376.15	1081.96
376.52	1081.77
376.89	1079.43
377.26	1078.92
377.63	1076.74
378.00	1081.33
378.37	1084.65
378.74	1086.31
379.11	1085.66
379.48	1086.03
379.85	1085.03
380.22	1086.03
380.59	1084.72
380.96	1083.83
381.33	1084.91
381.70	1082.76
382.07	1081.09
382.44	1080.93
382.81	1080.65
383.18	1081.61
383.55	1080.81
383.92	1077.79
384.29	1079.90
384.66	1085.17
385.03	1085.12
385.40	1084.49
385.77	1088.40
386.14	1088.54
386.51	1083.50
386.88	1086.78
387.25	1092.21
387.62	1091.65
387.99	1087.95
388.36	1091.42
388.73	1090.39
389.10	1091.60
389.46	1090.08
389.83	1092.37
390.20	1093.26
390.57	1093.05
390.94	1090.76
391.31	1092.14
391.68	1092.61
392.05	1091.06
392.42	1089.22
392.79	1088.23
393.16	1090.41
393.53	1088.42
393.89	1088.49
394.26	1089.00
394.63	1090.62
395.00	1090.78
395.37	1093.22
395.74	1091.58
396.11	1090.27
396.48	1087.06
396.84	1081.98
397.21	1083.67
397.58	1085.38
397.95	1086.62
398.32	1088.42
398.69	1092.12
399.06	1088.91
399.42	1089.19
399.79	1089.07
400.16	1088.37
400.53	1088.91
400.90	1091.65
401.27	1091.70
401.64	1092.47
402.00	1091.30
402.37	1092.26
402.74	1093.94
403.11	1093.47
403.48	1094.32
403.84	1098.58
404.21	1096.89
404.58	1094.55
404.95	1094.48
405.32	1096.99
405.68	1096.03
406.05	1092.87
406.42	1093.15
406.79	1092.80
407.16	1088.86
407.52	1090.15
407.89	1094.29
408.26	1095.51
408.63	1098.48
408.99	1097.38
409.36	1098.18
409.73	1099.35
410.10	1098.13
410.47	1095.86
410.83	1098.44
411.20	1094.36
411.57	1092.45
411.94	1094.76
412.30	1095.77
412.67	1100.26
413.04	1105.39
413.40	1105.15
413.77	1106.56
414.14	1106.44
414.51	1101.27
414.87	1099.05
415.24	1102.37
415.61	1103.40
415.97	1107.28
416.34	1108.34
416.71	1106.63
417.08	1105.55
417.44	1105.13
417.81	1104.83
418.18	1107.40
418.54	1113.56
418.91	1115.38
419.28	1115.99
419.64	1115.17
420.01	1114.89
420.38	1113.51
420.74	1111.94
421.11	1111.36
421.48	1112.88
421.84	1115.27
422.21	1114.10
422.58	1116.20
422.94	1115.57
423.31	1116.53
423.68	1114.09
424.04	1112.67
424.41	1111.92
424.77	1112.48
425.14	1109.74
425.51	1109.65
425.87	1113.32
426.24	1112.53
426.61	1111.15
426.97	1113.39
427.34	1114.82
427.70	1109.74
428.07	1110.79
428.44	1110.37
428.80	1110.07
429.17	1110.65
429.53	1113.32
429.90	1112.78
430.27	1112.25
430.63	1110.30
431.00	1111.66
431.36	1115.76
431.73	1112.43
432.09	1114.10
432.46	1115.27
432.83	1110.07
433.19	1106.32
433.56	1106.89
433.92	1106.98
434.29	1107.94
434.65	1113.39
435.02	1116.37
435.38	1119.85
435.75	1122.05
436.11	1118.38
436.48	1114.77
436.84	1111.59
437.21	1111.45
437.57	1108.83
437.94	1111.22
438.30	1113.60
438.67	1113.39
439.03	1111.61
439.40	1112.41
439.76	1110.79
440.13	1108.41
440.49	1108.99
440.86	1111.78
441.22	1110.40
441.59	1112.36
441.95	1112.11
442.32	1106.84
442.68	1105.32
443.05	1107.42
443.41	1107.87
443.78	1107.31
444.14	1112.92
444.51	1114.75
444.87	1114.14
445.24	1112.62
445.60	1111.19
445.96	1109.02
446.33	1107.10
446.69	1104.78
447.06	1103.47
447.42	1106.00
447.79	1107.47
448.15	1106.75
448.51	1108.59
448.88	1111.10
449.24	1111.54
449.61	1110.58
449.97	1113.04
450.33	1111.75
450.70	1110.23
451.06	1108.45
451.43	1110.70
451.79	1112.92
452.15	1114.02
452.52	1112.88
452.88	1113.02
453.24	1109.98
453.61	1106.96
453.97	1108.10
454.34	1109.60
454.70	1107.92
455.06	1105.34
455.43	1104.52
455.79	1103.56
456.15	1104.50
456.52	1108.41
456.88	1114.66
457.24	1114.59
457.61	1114.38
457.97	1111.78
458.33	1110.77
458.70	1111.61
459.06	1111.17
459.42	1110.70
459.79	1115.55
460.15	1116.69
460.51	1115.08
460.88	1117.35
461.24	1119.27
461.60	1119.15
461.96	1120.09
462.33	1120.95
462.69	1120.02
463.05	1120.34
463.42	1118.50
463.78	1120.81
464.14	1122.12
464.50	1122.90
464.87	1125.56
465.23	1129.31
465.59	1127.81
465.95	1127.83
466.32	1130.99
466.68	1130.06
467.04	1129.38
467.40	1133.45
467.77	1132.52
468.13	1131.04
468.49	1131.32
468.85	1134.08
469.22	1130.74
469.58	1135.77
469.94	1140.17
470.30	1140.24
470.66	1141.36
471.03	1143.40
471.39	1142.86
471.75	1142.58
472.11	1147.35
472.47	1147.07
472.84	1151.05
473.20	1155.27
473.56	1161.14
473.92	1164.81
474.28	1167.72
474.65	1172.14
475.01	1172.68
475.37	1174.60
475.73	1177.48
476.09	1181.62
476.45	1183.59
476.81	1190.33
477.18	1197.54
477.54	1204.04
477.90	1210.76
478.26	1218.37
478.62	1222.65
478.98	1226.18
479.34	1232.60
479.71	1241.09
480.07	1252.12
480.43	1264.73
480.79	1273.23
481.15	1281.70
481.51	1290.20
481.87	1298.51
482.23	1308.92
482.59	1318.12
482.96	1334.62
483.32	1353.02
483.68	1364.91
484.04	1380.35
484.40	1402.36
484.76	1417.19
485.12	1435.05
485.48	1457.15
485.84	1478.61
486.20	1502.16
486.56	1523.69
486.92	1546.81
487.28	1574.60
487.64	1597.39
488.00	1622.83
488.37	1654.97
488.73	1686.52
489.09	1720.20
489.45	1756.15
489.81	1794.91
490.17	1832.99
490.53	1874.58
490.89	1917.46
491.25	1961.11
491.61	2006.80
491.97	2057.21
492.33	2106.51
492.69	2157.97
493.05	2212.27
493.41	2277.15
493.77	2343.88
494.13	2414.59
494.49	2490.70
494.85	2575.15
495.21	2646.26
495.57	2722.07
495.93	2803.12
496.29	2887.00
496.64	2977.00
497.00	3076.05
497.36	3174.28
497.72	3281.67
498.08	3396.16
498.44	3513.28
498.80	3643.39
499.16	3787.31
499.52	3931.14
499.88	4086.60
500.24	4245.45
500.60	4401.10
500.96	4554.99
501.32	4722.24
501.68	4890.50
502.03	5083.76
502.39	5295.16
502.75	5514.23
503.11	5758.89
503.47	5997.69
503.83	6248.11
504.19	6504.98
504.55	6790.08
504.91	7063.06
505.26	7360.49
505.62	7666.85
505.98	7991.03
506.34	8337.50
506.70	8709.91
507.06	9100.40
507.42	9500.42
507.78	9906.88
508.13	10331.62
508.49	10780.51
508.85	11245.60
509.21	11753.47
509.57	12293.10
509.93	12865.43
510.28	13488.55
510.64	14142.41
511.00	14762.88
511.36	15370.60
511.72	15963.39
512.07	16609.19
512.43	17236.20
512.79	17929.77
513.15	18655.80
513.51	19409.45
513.86	20138.04
514.22	20950.46
514.58	21734.89
514.94	22571.21
515.30	23433.54
515.65	24262.18
516.01	25131.57
516.37	26022.73
516.73	26875.15
517.08	27779.16
517.44	28650.87
517.80	29487.80
518.16	30364.12
518.51	31194.68
518.87	31934.04
519.23	32806.52
519.59	33730.96
519.94	34583.90
520.30	35453.55
520.66	36250.33
521.01	37058.97
521.37	37714.99
521.73	38397.59
522.09	39073.00
522.44	39778.36
522.80	40187.35
523.16	40552.85
523.51	40743.76
523.87	41000.03
524.23	41238.67
524.58	41526.00
524.94	41945.07
525.30	42331.26
525.65	42539.73
526.01	42624.06
526.37	42645.08
526.72	42519.23
527.08	42392.60
527.44	42210.37
527.79	42034.10
528.15	41950.69
528.51	41757.10
528.86	41494.12
529.22	41244.55
529.58	40992.87
529.93	40579.58
530.29	40161.04
530.65	39774.60
531.00	39377.15
531.36	38916.88
531.71	38501.51
532.07	37986.40
532.43	37386.13
532.78	36683.80
533.14	36031.49
533.49	35345.34
533.85	34722.29
534.21	34131.33
534.56	33624.89
534.92	33087.87
535.27	32511.75
535.63	31872.46
535.98	31206.25
536.34	30547.74
536.69	29855.94
537.05	29193.88
537.41	28694.08
537.76	28209.54
538.12	27640.88
538.47	27125.73
538.83	26687.63
539.18	26186.90
539.54	25714.34
539.89	25249.72
540.25	24724.37
540.60	24201.54
540.96	23657.25
541.31	23143.19
541.67	22717.08
542.02	22299.01
542.38	21868.98
542.73	21411.57
543.09	21014.59
543.44	20643.67
543.80	20312.34
544.15	19918.87
544.51	19589.07
544.86	19258.86
545.22	18859.38
545.57	18459.73
545.93	18065.24
546.28	17724.25
546.64	17398.93
546.99	17061.45
547.35	16722.05
547.70	16433.51
548.05	16109.65
548.41	15768.66
548.76	15457.39
549.12	15198.34
549.47	14921.24
549.83	14676.54
550.18	14363.91
550.53	14064.07
550.89	13788.12
551.24	13508.45
551.60	13190.42
551.95	12915.17
552.30	12669.27
552.66	12401.54
553.01	12129.99
553.37	11863.92
553.72	11601.99
554.07	11323.07
554.43	11020.69
554.78	10730.40
555.13	10456.02
555.49	10222.10
555.84	10024.96
556.19	9839.19
556.55	9646.61
556.90	9458.20
557.26	9255.16
557.61	9040.97
557.96	8802.12
558.32	8601.73
558.67	8395.88
559.02	8161.12
559.37	7966.11
559.73	7813.43
560.08	7652.64
560.43	7481.36
560.79	7349.47
561.14	7181.89
561.49	7009.74
561.85	6842.37
562.20	6697.30
562.55	6576.88
562.90	6461.63
563.26	6341.99
563.61	6227.39
563.96	6108.94
564.32	5976.51
564.67	5839.57
565.02	5703.91
565.37	5594.65
565.73	5486.61
566.08	5383.68
566.43	5277.88
566.78	5180.54
567.14	5065.13
567.49	4950.09
567.84	4843.88
568.19	4741.29
568.54	4650.60
568.90	4571.44
569.25	4500.57
569.60	4426.87
569.95	4344.29
570.31	4255.68
570.66	4169.06
571.01	4085.10
571.36	3989.82
571.71	3923.81
572.06	3857.86
572.42	3790.03
572.77	3717.38
573.12	3659.71
573.47	3594.31
573.82	3530.46
574.18	3468.14
574.53	3419.52
574.88	3367.91
575.23	3315.30
575.58	3266.36
575.93	3219.57
576.28	3158.34
576.64	3096.74
576.99	3039.02
577.34	2984.16
577.69	2926.93
578.04	2877.50
578.39	2827.91
578.74	2781.98
579.09	2737.75
579.44	2695.01
579.80	2652.51
580.15	2607.92
580.50	2570.47
580.85	2534.29
581.20	2501.59
581.55	2477.41
581.90	2453.26
582.25	2419.53
582.60	2378.50
582.95	2340.18
583.30	2299.25
583.65	2260.68
584.00	2222.53
584.35	2195.68
584.71	2163.31
585.06	2126.63
585.41	2095.79
585.76	2066.44
586.11	2037.55
586.46	2016.47
586.81	1994.35
587.16	1970.15
587.51	1953.62
587.86	1929.84
588.21	1904.82
588.56	1889.51
588.91	1874.21
589.26	1850.97
589.61	1833.44
589.96	1818.34
590.31	1796.90
590.66	1778.67
591.01	1763.78
591.36	1748.61
591.71	1728.46
592.06	1712.99
592.41	1693.73
592.76	1681.25
593.10	1664.80
593.45	1651.62
593.80	1635.05
594.15	1618.25
594.50	1600.18
594.85	1586.86
595.20	1576.28
595.55	1564.86
595.90	1562.54
596.25	1552.76
596.60	1541.64
596.95	1529.03
597.30	1518.82
597.64	1554.12
597.99	1545.95
598.34	1536.98
598.69	1525.87
599.04	1519.55
599.39	1459.56
599.74	1447.18
600.09	1439.27
600.44	1432.83
600.78	1423.51
601.13	1418.58
601.48	1413.00
601.83	1405.19
602.18	1396.18
602.53	1390.77
602.88	1381.81
603.22	1373.31
603.57	1363.69
603.92	1355.03
604.27	1343.30
604.62	1337.87
604.97	1336.54
605.31	1333.75
605.66	1332.42
606.01	1327.32
606.36	1321.86
606.71	1312.50
607.05	1304.10
607.40	1297.38
607.75	1292.19
608.10	1285.38
608.44	1279.52
608.79	1275.92
609.14	1271.82
609.49	1271.05
609.84	1271.45
610.18	1269.69
610.53	1264.61
610.88	1264.12
611.23	1263.66
611.57	1258.67
611.92	1256.52
612.27	1254.64
612.62	1248.04
612.96	1243.29
613.31	1234.49
613.66	1227.85
614.00	1224.73
614.35	1223.80
614.70	1215.91
615.05	1214.64
615.39	1216.47
615.74	1212.58
616.09	1212.16
616.43	1209.94
616.78	1208.30
617.13	1204.23
617.47	1203.27
617.82	1196.76
618.17	1192.13
618.51	1190.65
618.86	1184.80
619.21	1181.29
619.55	1176.26
619.90	1177.55
620.25	1175.37
620.59	1173.31
620.94	1172.77
621.29	1174.64
621.63	1174.95
621.98	1170.57
622.32	1169.78
622.67	1167.67
623.02	1165.38
623.36	1161.94
623.71	1161.65
624.05	1159.48
624.40	1157.02
624.75	1153.04
625.09	1150.00
625.44	1150.16
625.78	1148.90
626.13	1147.19
626.48	1146.89
626.82	1146.86
627.17	1143.35
627.51	1143.98
627.86	1144.62
628.20	1143.80
628.55	1142.13
628.89	1143.02
629.24	1142.81
629.58	1142.67
629.93	1140.50
630.28	1139.19
630.62	1138.02
630.97	1132.07
631.31	1130.53
631.66	1126.17
632.00	1128.51
632.35	1129.87
632.69	1130.53
633.04	1129.43
633.38	1132.07
633.73	1126.73
634.07	1125.07
634.42	1127.88
634.76	1126.03
635.11	1124.70
635.45	1125.75
635.79	1123.22
636.14	1117.72
636.48	1116.39
636.83	1118.21
637.17	1115.43
637.52	1115.73
637.86	1114.59
638.21	1112.92
638.55	1110.49
638.89	1109.18
639.24	1106.23
639.58	1108.41
639.93	1110.16
640.27	1108.97
640.61	1113.11
640.96	1111.40
641.30	1113.93
641.65	1114.14
641.99	1115.22
642.33	1113.32
642.68	1115.17
643.02	1111.61
643.37	1108.76
643.71	1108.22
644.05	1104.80
644.40	1105.46
644.74	1106.42
645.08	1106.04
645.43	1105.58
645.77	1109.02
646.11	1106.51
646.46	1103.12
646.80	1102.74
647.14	1100.40
647.49	1097.22
647.83	1097.92
648.17	1096.82
648.52	1098.81
648.86	1102.56
649.20	1105.46
649.55	1107.71
649.89	1112.34
650.23	1111.19
650.57	1104.78
650.92	1099.77
651.26	1097.27
651.60	1095.00
651.95	1094.60
652.29	1101.15
652.63	1101.43
652.97	1103.45
653.32	1102.81
653.66	1101.25
654.00	1099.35
654.34	1102.04
654.69	1099.79
655.03	1102.35
655.37	1105.04
655.71	1102.77
656.05	1099.12
656.40	1098.74
656.74	1095.49
657.08	1090.88
657.42	1091.30
657.76	1094.15
658.11	1094.22
658.45	1092.23
658.79	1094.22
659.13	1095.60
659.47	1095.91
659.82	1093.62
660.16	1093.36
660.50	1092.47
660.84	1092.59
661.18	1089.00
661.52	1091.58
661.87	1093.36
662.21	1092.84
662.55	1090.95
662.89	1092.80
663.23	1091.72
663.57	1093.57
663.91	1096.75
664.25	1097.34
664.60	1097.90
664.94	1096.78
665.28	1094.74
665.62	1093.38
665.96	1094.08
666.30	1095.30
666.64	1093.12
666.98	1094.11
667.32	1094.65
667.66	1090.62
668.01	1088.49
668.35	1090.76
668.69	1087.88
669.03	1087.27
669.37	1090.41
669.71	1089.61
670.05	1089.85
670.39	1094.25
670.73	1096.12
671.07	1095.23
671.41	1098.95
671.75	1097.48
672.09	1094.67
672.43	1093.26
672.77	1090.92
673.11	1089.33
673.45	1092.59
673.79	1092.75
674.13	1092.21
674.47	1094.57
674.81	1090.67
675.15	1088.26
675.49	1086.76
675.83	1085.33
676.17	1086.20
676.51	1092.91
676.85	1094.83
677.19	1095.04
677.53	1094.36
677.87	1094.86
678.21	1091.32
678.55	1091.16
678.89	1092.26
679.23	1096.17
679.57	1092.68
679.90	1090.08
680.24	1090.17
680.58	1091.58
680.92	1092.16
681.26	1095.84
681.60	1097.64
681.94	1094.08
682.28	1093.71
682.62	1090.20
682.96	1088.49
683.29	1088.77
683.63	1088.93
683.97	1087.88
684.31	1092.59
684.65	1090.03
684.99	1090.62
685.33	1094.32
685.67	1093.40
686.00	1089.40
686.34	1092.47
686.68	1092.68
687.02	1092.02
687.36	1094.36
687.70	1097.88
688.03	1096.94
688.37	1096.38
688.71	1097.57
689.05	1095.44
689.39	1087.83
689.72	1086.78
690.06	1085.82
690.40	1083.27
690.74	1082.05
691.08	1083.64
691.41	1084.46
691.75	1085.00
692.09	1085.89
692.43	1090.13
692.76	1091.86
693.10	1091.39
693.44	1090.53
693.78	1087.95
694.11	1086.52
694.45	1088.16
694.79	1088.54
695.13	1090.67
695.46	1092.16
695.80	1091.67
696.14	1088.33
696.48	1092.26
696.81	1091.20
697.15	1090.85
697.49	1089.29
697.82	1089.99
698.16	1085.52
698.50	1085.26
698.83	1086.01
699.17	1086.08
699.51	1087.60
699.84	1086.41
700.18	1085.00
700.52	1085.26
700.85	1087.58
701.19	1088.61
701.53	1090.60
701.86	1093.26
702.20	1094.25
702.54	1093.64
702.87	1091.58
703.21	1093.19
703.55	1092.52
703.88	1089.85
704.22	1089.94
704.55	1088.49
704.89	1087.60
705.23	1086.03
705.56	1089.00
705.90	1088.75
706.23	1091.63
706.57	1093.22
706.91	1092.61
707.24	1091.25
707.58	1091.58
707.91	1092.09
708.25	1087.44
708.58	1090.22
708.92	1093.19
709.26	1091.16
709.59	1085.42
709.93	1090.10
710.26	1091.93
710.60	1092.09
710.93	1092.75
711.27	1097.55
711.60	1094.50
711.94	1091.06
712.27	1089.61
712.61	1088.84
712.94	1087.18
713.28	1085.28
713.61	1085.33
713.95	1083.53
714.28	1086.97
714.62	1086.97
714.95	1090.71
715.29	1088.19
715.62	1087.58
715.96	1084.67
716.29	1085.49
716.63	1084.42
716.96	1087.97
717.29	1086.99
717.63	1088.02
717.96	1088.91
718.30	1090.76
718.63	1090.88
718.97	1093.45
719.30	1093.17
719.63	1093.05
719.97	1091.53
720.30	1091.81
720.64	1089.52
720.97	1091.95
721.30	1089.45
721.64	1088.72
721.97	1089.43
722.31	1088.63
722.64	1087.44
722.97	1090.10
723.31	1090.71
723.64	1088.79
723.97	1088.72
724.31	1085.84
724.64	1086.38
724.98	1086.62
725.31	1088.47
725.64	1092.68
725.98	1096.52
726.31	1095.65
726.64	1095.23
726.97	1094.29
727.31	1093.90
727.64	1089.71
727.97	1086.92
728.31	1085.33
728.64	1087.95
728.97	1084.79
729.31	1085.75
729.64	1086.64
729.97	1087.16
730.30	1083.69
730.64	1085.84
730.97	1086.66
731.30	1090.46
731.63	1091.09
731.97	1091.30
732.30	1087.74
732.63	1089.24
732.96	1087.02
733.30	1088.89
733.63	1088.68
733.96	1090.08
734.29	1087.69
734.63	1086.08
734.96	1086.80
735.29	1086.85
735.62	1084.67
735.95	1084.63
736.29	1084.74
736.62	1081.87
736.95	1082.03
737.28	1086.73
737.61	1088.68
737.94	1089.54
738.28	1089.85
738.61	1088.30
738.94	1087.76
739.27	1086.50
739.60	1084.32
739.93	1082.90
740.27	1085.05
740.60	1085.94
740.93	1085.31
741.26	1089.07
741.59	1091.58
741.92	1092.23
742.25	1091.81
742.58	1091.44
742.91	1090.43
743.25	1089.80
743.58	1088.04
743.91	1086.73
744.24	1088.51
744.57	1087.04
744.90	1087.81
745.23	1090.06
745.56	1089.64
745.89	1089.03
746.22	1090.62
746.55	1090.10
746.88	1085.80
747.21	1086.13
747.54	1085.73
747.87	1081.07
748.20	1077.30
748.53	1079.74
748.87	1080.58
749.20	1079.06
749.53	1081.14
749.86	1085.70
750.19	1086.20
750.52	1084.74
750.85	1084.49
751.18	1087.88
751.51	1086.62
751.84	1084.53
752.16	1084.32
752.49	1087.81
752.82	1088.02
753.15	1089.87
753.48	1091.37
753.81	1092.82
754.14	1089.26
754.47	1089.19
754.80	1085.77
755.13	1087.32
755.46	1090.55
755.79	1091.98
756.12	1093.64
756.45	1093.12
756.78	1093.64
757.11	1088.68
757.43	1085.54
757.76	1080.44
758.09	1081.70
758.42	1079.92
758.75	1082.15
759.08	1084.42
759.41	1088.65
759.74	1090.08
760.07	1090.27
760.39	1091.23
760.72	1090.81
761.05	1088.07
761.38	1085.84
761.71	1082.99
762.04	1081.37
762.36	1082.54
762.69	1083.34
763.02	1084.30
763.35	1085.10
