SpectraSuite Data File
++++++++++++++++++++++++++++++++++++
Date: Mon Aug 26 10:26:27 PDT 2019
User: corrico
Dark Spectrum Present: No
Reference Spectrum Present: No
Number of Sampled Component Spectra: 1
Spectrometers: USB2+H06089
Integration Time (usec): 10000 (USB2+H06089)
Spectra Averaged: 20 (USB2+H06089)
Boxcar Smoothing: 2 (USB2+H06089)
Correct for Electrical Dark: No (USB2+H06089)
Strobe/Lamp Enabled: No (USB2+H06089)
Correct for Detector Non-linearity: No (USB2+H06089)
Correct for Stray Light: No (USB2+H06089)
Number of Pixels in Processed Spectrum: 2048
>>>>>Begin Processed Spectral Data<<<<<
339.70	1040.37
340.07	1040.37
340.45	1002.90
340.82	976.89
341.19	949.88
341.57	925.49
341.94	913.79
342.31	908.55
342.69	905.01
343.06	903.40
343.43	900.08
343.81	898.74
344.18	900.66
344.55	906.04
344.93	913.21
345.30	918.50
345.67	927.48
346.04	936.31
346.42	942.30
346.79	948.62
347.16	959.67
347.54	967.81
347.91	973.36
348.28	986.61
348.65	998.99
349.03	1007.55
349.40	1018.04
349.77	1026.47
350.14	1034.21
350.52	1041.12
350.89	1049.29
351.26	1057.71
351.63	1065.08
352.01	1069.55
352.38	1072.25
352.75	1073.70
353.12	1072.95
353.50	1076.83
353.87	1078.59
354.24	1081.51
354.61	1085.59
354.98	1090.32
355.36	1090.85
355.73	1092.61
356.10	1096.05
356.47	1095.35
356.84	1096.28
357.22	1097.34
357.59	1100.61
357.96	1094.41
358.33	1093.62
358.70	1089.82
359.08	1087.83
359.45	1081.37
359.82	1083.76
360.19	1084.07
360.56	1083.64
360.94	1084.51
361.31	1085.70
361.68	1085.05
362.05	1083.50
362.42	1082.73
362.79	1078.87
363.16	1078.14
363.54	1077.49
363.91	1078.80
364.28	1078.47
364.65	1080.65
365.02	1081.56
365.39	1081.96
365.76	1079.48
366.14	1081.68
366.51	1082.71
366.88	1080.60
367.25	1080.11
367.62	1080.95
367.99	1078.87
368.36	1075.29
368.73	1075.90
369.10	1076.86
369.48	1075.15
369.85	1077.07
370.22	1078.10
370.59	1078.36
370.96	1078.17
371.33	1080.86
371.70	1078.92
372.07	1077.84
372.44	1079.83
372.81	1077.61
373.18	1077.30
373.55	1078.36
373.93	1083.13
374.30	1079.81
374.67	1081.28
375.04	1082.38
375.41	1080.95
375.78	1080.81
376.15	1080.81
376.52	1080.86
376.89	1079.31
377.26	1081.09
377.63	1075.76
378.00	1076.53
378.37	1076.48
378.74	1076.90
379.11	1077.02
379.48	1081.16
379.85	1084.49
380.22	1086.01
380.59	1083.48
380.96	1082.12
381.33	1080.04
381.70	1077.25
382.07	1078.36
382.44	1079.92
382.81	1080.46
383.18	1083.88
383.55	1083.76
383.92	1082.52
384.29	1083.39
384.66	1087.09
385.03	1084.49
385.40	1084.56
385.77	1084.11
386.14	1082.38
386.51	1076.44
386.88	1079.99
387.25	1080.37
387.62	1076.08
387.99	1079.27
388.36	1079.41
388.73	1077.33
389.10	1077.35
389.46	1084.00
389.83	1079.90
390.20	1080.79
390.57	1079.76
390.94	1077.35
391.31	1071.92
391.68	1074.96
392.05	1076.53
392.42	1077.86
392.79	1084.18
393.16	1087.97
393.53	1086.13
393.89	1086.03
394.26	1085.24
394.63	1082.54
395.00	1084.00
395.37	1083.93
395.74	1084.84
396.11	1083.93
396.48	1083.04
396.84	1083.60
397.21	1086.03
397.58	1088.84
397.95	1094.46
398.32	1094.55
398.69	1091.18
399.06	1090.78
399.42	1087.67
399.79	1085.24
400.16	1088.51
400.53	1092.12
400.90	1093.12
401.27	1095.39
401.64	1093.66
402.00	1091.27
402.37	1088.68
402.74	1087.48
403.11	1085.68
403.48	1085.59
403.84	1087.51
404.21	1088.98
404.58	1089.31
404.95	1088.12
405.32	1087.76
405.68	1086.80
406.05	1086.94
406.42	1085.96
406.79	1086.85
407.16	1088.07
407.52	1086.41
407.89	1089.96
408.26	1094.34
408.63	1094.83
408.99	1095.25
409.36	1097.48
409.73	1094.93
410.10	1095.21
410.47	1098.09
410.83	1098.06
411.20	1101.39
411.57	1100.50
411.94	1100.92
412.30	1098.65
412.67	1099.14
413.04	1096.14
413.40	1094.55
413.77	1095.63
414.14	1097.22
414.51	1096.89
414.87	1100.10
415.24	1102.21
415.61	1098.27
415.97	1096.31
416.34	1098.25
416.71	1096.07
417.08	1095.49
417.44	1097.97
417.81	1099.30
418.18	1098.18
418.54	1098.93
418.91	1099.23
419.28	1097.52
419.64	1101.06
420.01	1101.69
420.38	1099.26
420.74	1101.39
421.11	1101.36
421.48	1100.31
421.84	1103.98
422.21	1106.86
422.58	1106.86
422.94	1107.66
423.31	1109.48
423.68	1108.34
424.04	1111.12
424.41	1111.08
424.77	1110.33
425.14	1109.58
425.51	1108.97
425.87	1106.32
426.24	1107.33
426.61	1110.87
426.97	1112.62
427.34	1110.96
427.70	1107.96
428.07	1104.80
428.44	1101.97
428.80	1098.55
429.17	1099.79
429.53	1104.22
429.90	1107.94
430.27	1107.80
430.63	1107.14
431.00	1105.93
431.36	1101.81
431.73	1098.09
432.09	1099.68
432.46	1099.96
432.83	1102.44
433.19	1106.02
433.56	1107.82
433.92	1109.23
434.29	1108.57
434.65	1107.28
435.02	1105.95
435.38	1109.72
435.75	1108.88
436.11	1109.79
436.48	1110.77
436.84	1109.95
437.21	1106.16
437.57	1106.04
437.94	1106.96
438.30	1107.24
438.67	1106.86
439.03	1106.68
439.40	1104.38
439.76	1103.96
440.13	1104.78
440.49	1108.03
440.86	1109.41
441.22	1110.87
441.59	1110.79
441.95	1108.69
442.32	1105.44
442.68	1106.18
443.05	1108.20
443.41	1110.05
443.78	1109.65
444.14	1109.37
444.51	1108.41
444.87	1107.47
445.24	1105.51
445.60	1103.21
445.96	1104.48
446.33	1103.91
446.69	1103.73
447.06	1101.78
447.42	1103.73
447.79	1102.09
448.15	1101.62
448.51	1103.40
448.88	1105.34
449.24	1109.34
449.61	1111.26
449.97	1110.40
450.33	1110.21
450.70	1107.80
451.06	1104.05
451.43	1102.93
451.79	1104.66
452.15	1101.71
452.52	1104.62
452.88	1107.64
453.24	1114.14
453.61	1114.52
453.97	1116.46
454.34	1117.79
454.70	1118.33
455.06	1114.12
455.43	1111.12
455.79	1110.65
456.15	1107.52
456.52	1101.13
456.88	1101.06
457.24	1103.16
457.61	1103.54
457.97	1106.77
458.33	1112.64
458.70	1110.54
459.06	1108.27
459.42	1110.30
459.79	1111.36
460.15	1110.68
460.51	1111.33
460.88	1111.59
461.24	1108.81
461.60	1106.25
461.96	1108.20
462.33	1109.65
462.69	1112.57
463.05	1115.45
463.42	1116.01
463.78	1114.70
464.14	1114.82
464.50	1115.29
464.87	1113.88
465.23	1112.13
465.59	1111.33
465.95	1111.59
466.32	1111.99
466.68	1108.97
467.04	1111.01
467.40	1112.90
467.77	1113.81
468.13	1116.62
468.49	1122.17
468.85	1122.61
469.22	1124.44
469.58	1129.10
469.94	1129.54
470.30	1130.24
470.66	1135.82
471.03	1137.22
471.39	1137.73
471.75	1141.03
472.11	1141.64
472.47	1140.85
472.84	1140.05
473.20	1142.28
473.56	1145.20
473.92	1149.53
474.28	1157.35
474.65	1161.94
475.01	1165.24
475.37	1167.88
475.73	1172.00
476.09	1170.83
476.45	1175.14
476.81	1174.90
477.18	1177.78
477.54	1181.88
477.90	1186.39
478.26	1189.72
478.62	1197.54
478.98	1202.94
479.34	1207.30
479.71	1217.36
480.07	1226.60
480.43	1239.97
480.79	1246.24
481.15	1253.75
481.51	1258.76
481.87	1269.41
482.23	1274.52
482.59	1287.90
482.96	1304.94
483.32	1322.78
483.68	1333.50
484.04	1346.51
484.40	1357.53
484.76	1373.85
485.12	1389.27
485.48	1404.06
485.84	1418.83
486.20	1437.65
486.56	1451.48
486.92	1471.10
487.28	1495.74
487.64	1518.24
488.00	1544.10
488.37	1568.74
488.73	1596.81
489.09	1625.64
489.45	1659.79
489.81	1694.24
490.17	1731.11
490.53	1763.10
490.89	1799.92
491.25	1842.35
491.61	1883.94
491.97	1925.25
492.33	1968.60
492.69	2016.89
493.05	2059.55
493.41	2110.04
493.77	2169.86
494.13	2225.99
494.49	2285.60
494.85	2349.78
495.21	2417.09
495.57	2480.29
495.93	2559.35
496.29	2638.39
496.64	2721.57
497.00	2801.76
497.36	2891.92
497.72	2978.87
498.08	3068.42
498.44	3170.02
498.80	3283.49
499.16	3397.78
499.52	3529.86
499.88	3669.42
500.24	3811.16
500.60	3943.45
500.96	4083.70
501.32	4227.62
501.68	4375.98
502.03	4535.51
502.39	4719.53
502.75	4904.90
503.11	5100.07
503.47	5298.62
503.83	5508.45
504.19	5721.18
504.55	5970.68
504.91	6212.11
505.26	6456.39
505.62	6726.25
505.98	7022.75
506.34	7325.97
506.70	7653.06
507.06	8015.91
507.42	8385.91
507.78	8742.56
508.13	9095.20
508.49	9468.57
508.85	9869.92
509.21	10274.74
509.57	10740.55
509.93	11241.31
510.28	11767.23
510.64	12300.92
511.00	12854.27
511.36	13388.57
511.72	13914.09
512.07	14475.44
512.43	15012.87
512.79	15575.02
513.15	16206.69
513.51	16888.23
513.86	17562.21
514.22	18302.80
514.58	19060.76
514.94	19793.51
515.30	20485.87
515.65	21206.47
516.01	21943.22
516.37	22680.54
516.73	23406.34
517.08	24224.26
517.44	24992.85
517.80	25780.21
518.16	26599.93
518.51	27365.64
518.87	28095.63
519.23	28909.15
519.59	29700.02
519.94	30428.98
520.30	31186.59
520.66	31860.57
521.01	32553.83
521.37	33162.77
521.73	33709.35
522.09	34243.16
522.44	34865.53
522.80	35229.28
523.16	35541.22
523.51	35718.10
523.87	35948.29
524.23	36164.06
524.58	36535.41
524.94	36903.25
525.30	37293.25
525.65	37585.40
526.01	37646.14
526.37	37490.86
526.72	37414.66
527.08	37311.32
527.44	37110.27
527.79	36941.96
528.15	36835.80
528.51	36549.60
528.86	36356.38
529.22	36187.23
529.58	35977.87
529.93	35699.93
530.29	35448.86
530.65	35108.55
531.00	34694.25
531.36	34220.86
531.71	33815.83
532.07	33389.17
532.43	32917.95
532.78	32376.79
533.14	31876.27
533.49	31350.00
533.85	30785.72
534.21	30215.22
534.56	29787.79
534.92	29335.90
535.27	28783.56
535.63	28196.20
535.98	27642.94
536.34	27080.51
536.69	26487.40
537.05	25956.52
537.41	25524.52
537.76	25043.87
538.12	24455.06
538.47	23958.29
538.83	23454.98
539.18	22928.36
539.54	22463.69
539.89	22049.93
540.25	21602.16
540.60	21246.82
540.96	20857.24
541.31	20462.04
541.67	20107.54
542.02	19768.21
542.38	19401.12
542.73	19043.04
543.09	18725.62
543.44	18488.24
543.80	18230.92
544.15	17878.51
544.51	17598.42
544.86	17305.38
545.22	16888.51
545.57	16500.26
545.93	16168.61
546.28	15854.81
546.64	15556.75
546.99	15282.53
547.35	15012.97
547.70	14730.44
548.05	14417.14
548.41	14103.95
548.76	13826.08
549.12	13591.42
549.47	13374.06
549.83	13154.79
550.18	12876.34
550.53	12567.74
550.89	12296.00
551.24	12020.78
551.60	11734.65
551.95	11501.95
552.30	11304.55
552.66	11078.29
553.01	10863.34
553.37	10640.01
553.72	10427.39
554.07	10184.82
554.43	9929.54
554.78	9682.42
555.13	9454.90
555.49	9239.26
555.84	9057.38
556.19	8873.30
556.55	8682.31
556.90	8499.80
557.26	8311.38
557.61	8117.05
557.96	7900.88
558.32	7725.71
558.67	7555.51
559.02	7354.08
559.37	7173.41
559.73	7043.28
560.08	6908.47
560.43	6764.27
560.79	6652.46
561.14	6528.60
561.49	6389.43
561.85	6250.96
562.20	6114.13
562.55	5994.46
562.90	5882.33
563.26	5766.14
563.61	5642.00
563.96	5533.80
564.32	5429.25
564.67	5309.72
565.02	5187.80
565.37	5089.40
565.73	4989.25
566.08	4881.82
566.43	4781.34
566.78	4693.66
567.14	4597.94
567.49	4499.14
567.84	4406.81
568.19	4311.85
568.54	4227.08
568.90	4155.22
569.25	4085.94
569.60	4024.69
569.95	3964.59
570.31	3897.06
570.66	3819.68
571.01	3746.54
571.36	3661.07
571.71	3594.45
572.06	3532.50
572.42	3474.83
572.77	3425.26
573.12	3376.46
573.47	3325.11
573.82	3272.75
574.18	3221.79
574.53	3164.78
574.88	3114.69
575.23	3064.51
575.58	3016.13
575.93	2972.62
576.28	2930.89
576.64	2882.25
576.99	2825.78
577.34	2768.03
577.69	2722.02
578.04	2670.29
578.39	2625.36
578.74	2593.71
579.09	2559.82
579.44	2517.27
579.80	2482.70
580.15	2449.21
580.50	2411.52
580.85	2377.75
581.20	2351.33
581.55	2324.46
581.90	2298.05
582.25	2267.46
582.60	2237.53
582.95	2199.38
583.30	2162.02
583.65	2126.00
584.00	2092.88
584.35	2066.93
584.71	2037.93
585.06	2009.61
585.41	1978.06
585.76	1955.96
586.11	1930.80
586.46	1912.62
586.81	1893.26
587.16	1876.78
587.51	1860.75
587.86	1841.32
588.21	1821.85
588.56	1806.03
588.91	1787.96
589.26	1768.95
589.61	1748.38
589.96	1729.82
590.31	1712.22
590.66	1700.96
591.01	1681.91
591.36	1666.74
591.71	1652.39
592.06	1637.74
592.41	1621.87
592.76	1610.87
593.10	1602.40
593.45	1588.26
593.80	1574.13
594.15	1561.86
594.50	1551.00
594.85	1537.71
595.20	1527.01
595.55	1519.12
595.90	1510.23
596.25	1499.30
596.60	1490.55
596.95	1482.05
597.30	1473.32
597.64	1514.54
597.99	1506.95
598.34	1495.16
598.69	1488.32
599.04	1478.59
599.39	1416.26
599.74	1407.22
600.09	1404.98
600.44	1396.36
600.78	1392.08
601.13	1388.92
601.48	1380.40
601.83	1372.75
602.18	1367.13
602.53	1358.47
602.88	1349.01
603.22	1344.50
603.57	1337.27
603.92	1328.42
604.27	1323.08
604.62	1323.20
604.97	1318.14
605.31	1314.26
605.66	1308.78
606.01	1305.76
606.36	1297.10
606.71	1289.12
607.05	1281.86
607.40	1278.73
607.75	1272.99
608.10	1269.90
608.44	1268.87
608.79	1265.79
609.14	1263.61
609.49	1259.72
609.84	1253.73
610.18	1247.76
610.53	1244.56
610.88	1238.87
611.23	1234.14
611.57	1235.38
611.92	1236.13
612.27	1231.61
612.62	1229.83
612.96	1222.44
613.31	1213.45
613.66	1203.76
614.00	1198.92
614.35	1196.58
614.70	1200.41
615.05	1198.61
615.39	1199.50
615.74	1198.00
616.09	1195.99
616.43	1189.30
616.78	1187.73
617.13	1184.52
617.47	1184.69
617.82	1181.24
618.17	1180.47
618.51	1180.12
618.86	1177.71
619.21	1175.07
619.55	1175.25
619.90	1170.81
620.25	1167.97
620.59	1168.11
620.94	1164.07
621.29	1158.85
621.63	1158.52
621.98	1157.98
622.32	1154.82
622.67	1156.11
623.02	1154.77
623.36	1155.62
623.71	1151.38
624.05	1152.29
624.40	1150.51
624.75	1148.81
625.09	1146.42
625.44	1145.15
625.78	1142.06
626.13	1136.21
626.48	1136.61
626.82	1134.55
627.17	1135.82
627.51	1134.83
627.86	1137.57
628.20	1138.32
628.55	1139.07
628.89	1136.14
629.24	1134.93
629.58	1133.45
629.93	1129.38
630.28	1126.31
630.62	1124.21
630.97	1124.21
631.31	1122.03
631.66	1123.27
632.00	1121.73
632.35	1124.44
632.69	1121.30
633.04	1122.83
633.38	1120.46
633.73	1118.71
634.07	1115.90
634.42	1114.12
634.76	1112.90
635.11	1111.82
635.45	1114.82
635.79	1113.74
636.14	1118.87
636.48	1118.24
636.83	1116.44
637.17	1113.51
637.52	1111.85
637.86	1108.31
638.21	1106.89
638.55	1108.59
638.89	1108.24
639.24	1108.92
639.58	1108.74
639.93	1108.90
640.27	1108.88
640.61	1109.53
640.96	1108.76
641.30	1107.40
641.65	1106.68
641.99	1103.45
642.33	1102.84
642.68	1101.99
643.02	1101.55
643.37	1103.47
643.71	1106.16
644.05	1104.26
644.40	1109.13
644.74	1110.28
645.08	1108.78
645.43	1107.35
645.77	1106.70
646.11	1101.18
646.46	1099.12
646.80	1097.34
647.14	1097.45
647.49	1097.92
647.83	1099.51
648.17	1100.64
648.52	1098.02
648.86	1098.06
649.20	1100.85
649.55	1100.85
649.89	1101.20
650.23	1102.16
650.57	1101.06
650.92	1098.34
651.26	1095.51
651.60	1092.61
651.95	1091.16
652.29	1091.86
652.63	1092.77
652.97	1096.52
653.32	1098.02
653.66	1101.78
654.00	1098.93
654.34	1103.16
654.69	1098.60
655.03	1099.93
655.37	1099.86
655.71	1104.22
656.05	1100.64
656.40	1104.12
656.74	1105.53
657.08	1102.70
657.42	1101.43
657.76	1100.36
658.11	1100.59
658.45	1097.43
658.79	1099.98
659.13	1101.18
659.47	1104.36
659.82	1104.59
660.16	1102.86
660.50	1101.74
660.84	1099.40
661.18	1093.83
661.52	1093.83
661.87	1097.01
662.21	1095.63
662.55	1092.82
662.89	1094.53
663.23	1091.81
663.57	1087.51
663.91	1087.48
664.25	1090.48
664.60	1087.27
664.94	1086.71
665.28	1088.33
665.62	1087.34
665.96	1085.59
666.30	1089.17
666.64	1089.07
666.98	1090.39
667.32	1093.17
667.66	1093.83
668.01	1092.45
668.35	1093.69
668.69	1092.12
669.03	1089.82
669.37	1091.86
669.71	1092.89
670.05	1093.38
670.39	1095.72
670.73	1096.78
671.07	1096.10
671.41	1093.85
671.75	1089.89
672.09	1090.69
672.43	1092.91
672.77	1090.29
673.11	1092.59
673.45	1093.01
673.79	1088.47
674.13	1085.28
674.47	1088.58
674.81	1089.85
675.15	1089.87
675.49	1094.43
675.83	1094.76
676.17	1093.43
676.51	1089.19
676.85	1091.51
677.19	1085.96
677.53	1086.92
677.87	1088.23
678.21	1090.08
678.55	1091.37
678.89	1092.07
679.23	1093.24
679.57	1091.42
679.90	1093.12
680.24	1088.84
680.58	1091.27
680.92	1089.94
681.26	1091.95
681.60	1090.57
681.94	1093.78
682.28	1096.49
682.62	1098.04
682.96	1097.78
683.29	1096.21
683.63	1096.35
683.97	1094.57
684.31	1092.68
684.65	1092.49
684.99	1093.64
685.33	1093.36
685.67	1091.60
686.00	1091.44
686.34	1088.30
686.68	1088.42
687.02	1085.28
687.36	1086.29
687.70	1086.87
688.03	1085.87
688.37	1085.40
688.71	1086.66
689.05	1088.28
689.39	1090.27
689.72	1090.41
690.06	1090.32
690.40	1092.75
690.74	1091.16
691.08	1086.31
691.41	1087.11
691.75	1089.66
692.09	1090.20
692.43	1091.86
692.76	1092.75
693.10	1093.87
693.44	1090.67
693.78	1090.01
694.11	1088.79
694.45	1090.85
694.79	1088.70
695.13	1090.53
695.46	1087.86
695.80	1086.50
696.14	1084.56
696.48	1084.93
696.81	1085.10
697.15	1087.20
697.49	1087.53
697.82	1086.87
698.16	1088.33
698.50	1088.21
698.83	1088.09
699.17	1086.59
699.51	1089.57
699.84	1087.23
700.18	1085.45
700.52	1084.49
700.85	1087.46
701.19	1087.53
701.53	1089.75
701.86	1090.10
702.20	1089.59
702.54	1088.65
702.87	1085.38
703.21	1085.94
703.55	1087.18
703.88	1088.28
704.22	1085.70
704.55	1085.17
704.89	1085.63
705.23	1081.73
705.56	1082.22
705.90	1085.47
706.23	1090.76
706.57	1090.08
706.91	1094.41
707.24	1093.57
707.58	1095.44
707.91	1091.58
708.25	1093.57
708.58	1091.53
708.92	1094.11
709.26	1090.34
709.59	1093.47
709.93	1093.36
710.26	1095.02
710.60	1092.40
710.93	1092.96
711.27	1090.08
711.60	1088.98
711.94	1086.85
712.27	1088.84
712.61	1086.92
712.94	1088.07
713.28	1086.73
713.61	1087.02
713.95	1085.54
714.28	1085.17
714.62	1083.22
714.95	1080.60
715.29	1084.23
715.62	1082.94
715.96	1083.15
716.29	1083.29
716.63	1086.38
716.96	1082.40
717.29	1081.73
717.63	1081.07
717.96	1084.56
718.30	1083.67
718.63	1085.33
718.97	1081.98
719.30	1086.20
719.63	1084.81
719.97	1084.37
720.30	1083.95
720.64	1090.17
720.97	1091.20
721.30	1090.03
721.64	1089.89
721.97	1088.47
722.31	1087.88
722.64	1083.29
722.97	1084.23
723.31	1086.08
723.64	1085.82
723.97	1084.86
724.31	1085.70
724.64	1082.76
724.98	1084.72
725.31	1085.61
725.64	1085.00
725.98	1089.00
726.31	1090.74
726.64	1085.14
726.97	1085.82
727.31	1087.86
727.64	1084.23
727.97	1084.79
728.31	1086.66
728.64	1085.61
728.97	1087.23
729.31	1087.48
729.64	1086.03
729.97	1087.25
730.30	1090.06
730.64	1087.83
730.97	1088.56
731.30	1093.71
731.63	1092.09
731.97	1089.99
732.30	1088.58
732.63	1086.97
732.96	1080.91
733.30	1082.66
733.63	1080.84
733.96	1079.88
734.29	1083.06
734.63	1087.86
734.96	1088.84
735.29	1092.23
735.62	1093.43
735.95	1092.73
736.29	1089.78
736.62	1086.90
736.95	1086.64
737.28	1087.23
737.61	1084.07
737.94	1085.66
738.28	1088.02
738.61	1086.85
738.94	1086.64
739.27	1087.65
739.60	1083.93
739.93	1083.86
740.27	1085.66
740.60	1086.52
740.93	1085.75
741.26	1090.06
741.59	1088.56
741.92	1088.07
742.25	1089.03
742.58	1092.98
742.91	1091.74
743.25	1092.09
743.58	1089.45
743.91	1086.85
744.24	1084.21
744.57	1083.97
744.90	1084.89
745.23	1089.14
745.56	1090.55
745.89	1091.56
746.22	1092.07
746.55	1093.71
746.88	1086.87
747.21	1084.00
747.54	1082.36
747.87	1083.97
748.20	1080.46
748.53	1086.69
748.87	1088.16
749.20	1087.93
749.53	1086.13
749.86	1087.13
750.19	1083.25
750.52	1086.45
750.85	1087.97
751.18	1086.50
751.51	1086.45
751.84	1088.70
752.16	1085.38
752.49	1082.71
752.82	1083.36
753.15	1083.27
753.48	1082.17
753.81	1084.23
754.14	1084.25
754.47	1083.86
754.80	1084.02
755.13	1087.16
755.46	1085.07
755.79	1086.73
756.12	1089.94
756.45	1089.17
756.78	1086.29
757.11	1084.67
757.43	1084.51
757.76	1080.30
758.09	1079.27
758.42	1078.12
758.75	1080.25
759.08	1081.94
759.41	1087.41
759.74	1089.45
760.07	1092.12
760.39	1091.74
760.72	1091.13
761.05	1085.35
761.38	1083.04
761.71	1081.30
762.04	1083.55
762.36	1083.57
762.69	1085.70
763.02	1089.10
763.35	1088.75
763.68	1086.90
