SpectraSuite Data File
++++++++++++++++++++++++++++++++++++
Date: Mon Aug 26 10:26:56 PDT 2019
User: corrico
Dark Spectrum Present: No
Reference Spectrum Present: No
Number of Sampled Component Spectra: 1
Spectrometers: USB2+H06089
Integration Time (usec): 10000 (USB2+H06089)
Spectra Averaged: 20 (USB2+H06089)
Boxcar Smoothing: 2 (USB2+H06089)
Correct for Electrical Dark: No (USB2+H06089)
Strobe/Lamp Enabled: No (USB2+H06089)
Correct for Detector Non-linearity: No (USB2+H06089)
Correct for Stray Light: No (USB2+H06089)
Number of Pixels in Processed Spectrum: 2048
>>>>>Begin Processed Spectral Data<<<<<
339.70	1037.56
340.07	1037.56
340.45	999.99
340.82	976.26
341.19	947.66
341.57	920.39
341.94	911.26
342.31	906.33
342.69	902.65
343.06	901.18
343.43	899.56
343.81	896.94
344.18	895.89
344.55	898.63
344.93	909.93
345.30	919.20
345.67	929.94
346.04	937.62
346.42	948.62
346.79	953.65
347.16	961.45
347.54	969.92
347.91	978.77
348.28	984.73
348.65	994.19
349.03	1004.37
349.40	1011.06
349.77	1023.17
350.14	1031.87
350.52	1038.03
350.89	1046.59
351.26	1051.88
351.63	1055.93
352.01	1060.36
352.38	1062.25
352.75	1059.56
353.12	1064.55
353.50	1068.85
353.87	1070.12
354.24	1076.11
354.61	1078.96
354.98	1080.84
355.36	1078.17
355.73	1078.03
356.10	1076.48
356.47	1080.02
356.84	1081.44
357.22	1084.53
357.59	1086.29
357.96	1085.87
358.33	1084.77
358.70	1081.37
359.08	1080.37
359.45	1078.94
359.82	1082.12
360.19	1080.88
360.56	1079.76
360.94	1077.58
361.31	1078.82
361.68	1072.34
362.05	1072.08
362.42	1073.23
362.79	1074.24
363.16	1073.86
363.54	1075.08
363.91	1076.76
364.28	1077.58
364.65	1076.01
365.02	1075.55
365.39	1075.43
365.76	1072.01
366.14	1070.91
366.51	1070.87
366.88	1071.31
367.25	1072.46
367.62	1071.61
367.99	1069.62
368.36	1069.53
368.73	1067.03
369.10	1066.23
369.48	1066.16
369.85	1069.32
370.22	1069.81
370.59	1072.76
370.96	1071.01
371.33	1072.69
371.70	1070.02
372.07	1069.34
372.44	1067.40
372.81	1071.52
373.18	1069.84
373.55	1068.97
373.93	1068.34
374.30	1067.66
374.67	1064.08
375.04	1065.88
375.41	1066.37
375.78	1067.35
376.15	1069.48
376.52	1071.68
376.89	1071.33
377.26	1073.23
377.63	1073.44
378.00	1072.57
378.37	1069.32
378.74	1068.97
379.11	1068.76
379.48	1067.66
379.85	1068.62
380.22	1072.64
380.59	1073.32
380.96	1070.35
381.33	1070.09
381.70	1071.36
382.07	1071.94
382.44	1070.70
382.81	1075.55
383.18	1075.87
383.55	1072.41
383.92	1072.18
384.29	1073.93
384.66	1070.35
385.03	1072.08
385.40	1074.54
385.77	1074.96
386.14	1076.65
386.51	1079.06
386.88	1080.44
387.25	1077.63
387.62	1075.90
387.99	1073.39
388.36	1074.66
388.73	1073.60
389.10	1075.99
389.46	1076.97
389.83	1076.74
390.20	1073.74
390.57	1073.28
390.94	1072.15
391.31	1072.06
391.68	1077.49
392.05	1077.21
392.42	1076.95
392.79	1078.26
393.16	1076.93
393.53	1070.49
393.89	1073.21
394.26	1075.08
394.63	1076.79
395.00	1078.45
395.37	1077.23
395.74	1078.33
396.11	1075.87
396.48	1070.63
396.84	1069.74
397.21	1072.85
397.58	1074.63
397.95	1073.98
398.32	1079.31
398.69	1078.26
399.06	1077.68
399.42	1074.61
399.79	1077.00
400.16	1076.37
400.53	1079.08
400.90	1081.40
401.27	1081.84
401.64	1080.25
402.00	1077.21
402.37	1077.40
402.74	1072.97
403.11	1072.57
403.48	1073.60
403.84	1077.93
404.21	1075.76
404.58	1080.06
404.95	1080.37
405.32	1082.01
405.68	1080.44
406.05	1081.00
406.42	1080.23
406.79	1081.02
407.16	1078.78
407.52	1075.71
407.89	1076.18
408.26	1073.18
408.63	1071.94
408.99	1072.46
409.36	1076.41
409.73	1075.73
410.10	1078.21
410.47	1079.50
410.83	1079.31
411.20	1077.93
411.57	1077.68
411.94	1077.21
412.30	1075.05
412.67	1076.37
413.04	1073.04
413.40	1074.10
413.77	1073.63
414.14	1074.17
414.51	1073.53
414.87	1078.40
415.24	1079.95
415.61	1077.58
415.97	1075.76
416.34	1076.04
416.71	1073.77
417.08	1073.72
417.44	1077.47
417.81	1083.62
418.18	1081.98
418.54	1081.63
418.91	1082.57
419.28	1083.41
419.64	1079.76
420.01	1079.83
420.38	1080.23
420.74	1079.43
421.11	1077.30
421.48	1075.69
421.84	1076.93
422.21	1075.94
422.58	1078.21
422.94	1077.23
423.31	1078.94
423.68	1078.96
424.04	1077.68
424.41	1073.58
424.77	1077.00
425.14	1076.08
425.51	1076.76
425.87	1077.58
426.24	1080.06
426.61	1078.38
426.97	1079.10
427.34	1078.14
427.70	1080.56
428.07	1075.45
428.44	1074.47
428.80	1074.35
429.17	1074.19
429.53	1073.63
429.90	1077.02
430.27	1080.09
430.63	1077.96
431.00	1075.59
431.36	1077.40
431.73	1075.41
432.09	1074.98
432.46	1076.34
432.83	1076.88
433.19	1075.01
433.56	1075.43
433.92	1075.66
434.29	1074.91
434.65	1076.11
435.02	1074.03
435.38	1074.54
435.75	1070.26
436.11	1071.47
436.48	1073.63
436.84	1076.13
437.21	1076.76
437.57	1080.56
437.94	1080.84
438.30	1078.64
438.67	1079.85
439.03	1081.14
439.40	1079.43
439.76	1077.40
440.13	1077.23
440.49	1076.20
440.86	1077.18
441.22	1075.78
441.59	1078.45
441.95	1078.47
442.32	1076.30
442.68	1072.85
443.05	1075.59
443.41	1077.11
443.78	1079.22
444.14	1081.33
444.51	1082.80
444.87	1081.68
445.24	1080.86
445.60	1079.50
445.96	1076.90
446.33	1076.23
446.69	1074.49
447.06	1073.37
447.42	1074.66
447.79	1076.67
448.15	1079.38
448.51	1084.60
448.88	1087.74
449.24	1086.99
449.61	1087.18
449.97	1084.56
450.33	1081.87
450.70	1079.92
451.06	1079.53
451.43	1081.58
451.79	1080.67
452.15	1080.32
452.52	1080.41
452.88	1081.70
453.24	1079.88
453.61	1082.22
453.97	1082.80
454.34	1080.25
454.70	1078.19
455.06	1076.01
455.43	1074.98
455.79	1074.10
456.15	1074.03
456.52	1074.87
456.88	1078.26
457.24	1079.83
457.61	1079.41
457.97	1080.06
458.33	1081.35
458.70	1081.51
459.06	1081.47
459.42	1084.81
459.79	1085.40
460.15	1084.46
460.51	1084.35
460.88	1084.63
461.24	1081.30
461.60	1082.08
461.96	1080.91
462.33	1082.15
462.69	1078.59
463.05	1079.08
463.42	1083.53
463.78	1087.39
464.14	1084.23
464.50	1088.26
464.87	1089.22
465.23	1081.54
465.59	1080.74
465.95	1084.30
466.32	1083.20
466.68	1083.20
467.04	1084.07
467.40	1082.76
467.77	1079.95
468.13	1079.38
468.49	1080.23
468.85	1082.15
469.22	1083.13
469.58	1085.82
469.94	1083.95
470.30	1085.99
470.66	1086.57
471.03	1084.25
471.39	1083.04
471.75	1082.59
472.11	1081.12
472.47	1081.21
472.84	1082.03
473.20	1080.70
473.56	1083.08
473.92	1082.85
474.28	1081.98
474.65	1081.44
475.01	1083.67
475.37	1080.65
475.73	1083.18
476.09	1082.38
476.45	1083.18
476.81	1081.63
477.18	1085.59
477.54	1082.59
477.90	1084.58
478.26	1086.36
478.62	1089.14
478.98	1088.49
479.34	1089.59
479.71	1091.88
480.07	1088.19
480.43	1085.10
480.79	1081.98
481.15	1078.40
481.51	1073.53
481.87	1073.77
482.23	1074.75
482.59	1079.43
482.96	1081.75
483.32	1084.16
483.68	1086.97
484.04	1084.86
484.40	1085.61
484.76	1084.84
485.12	1082.76
485.48	1082.78
485.84	1081.73
486.20	1079.53
486.56	1080.60
486.92	1082.78
487.28	1081.07
487.64	1081.61
488.00	1082.15
488.37	1083.27
488.73	1083.74
489.09	1084.28
489.45	1085.56
489.81	1082.71
490.17	1082.69
490.53	1079.95
490.89	1082.50
491.25	1081.77
491.61	1085.99
491.97	1082.59
492.33	1083.08
492.69	1084.74
493.05	1084.79
493.41	1083.32
493.77	1082.83
494.13	1081.49
494.49	1076.55
494.85	1077.04
495.21	1075.24
495.57	1076.58
495.93	1079.81
496.29	1082.47
496.64	1084.42
497.00	1085.40
497.36	1085.70
497.72	1086.27
498.08	1084.60
498.44	1084.21
498.80	1085.17
499.16	1086.36
499.52	1085.77
499.88	1084.14
500.24	1084.39
500.60	1082.45
500.96	1082.47
501.32	1083.04
501.68	1086.10
502.03	1085.35
502.39	1085.07
502.75	1086.13
503.11	1080.11
503.47	1078.75
503.83	1078.96
504.19	1078.28
504.55	1076.67
504.91	1079.90
505.26	1077.25
505.62	1073.93
505.98	1076.30
506.34	1077.30
506.70	1080.95
507.06	1083.86
507.42	1088.61
507.78	1086.03
508.13	1085.19
508.49	1084.04
508.85	1083.95
509.21	1082.85
509.57	1086.59
509.93	1085.82
510.28	1083.46
510.64	1084.35
511.00	1082.47
511.36	1079.60
511.72	1079.69
512.07	1080.16
512.43	1080.32
512.79	1079.38
513.15	1078.12
513.51	1078.00
513.86	1077.14
514.22	1075.55
514.58	1075.29
514.94	1079.20
515.30	1080.09
515.65	1083.04
516.01	1085.66
516.37	1089.61
516.73	1087.83
517.08	1085.59
517.44	1082.50
517.80	1078.85
518.16	1077.21
518.51	1075.31
518.87	1076.53
519.23	1079.60
519.59	1082.54
519.94	1083.39
520.30	1084.46
520.66	1082.15
521.01	1081.75
521.37	1079.88
521.73	1080.18
522.09	1082.90
522.44	1087.51
522.80	1084.93
523.16	1084.74
523.51	1083.18
523.87	1080.95
524.23	1079.83
524.58	1078.05
524.94	1079.83
525.30	1082.90
525.65	1081.61
526.01	1077.28
526.37	1081.96
526.72	1080.37
527.08	1078.26
527.44	1081.98
527.79	1088.65
528.15	1085.82
528.51	1087.81
528.86	1086.76
529.22	1080.30
529.58	1078.00
529.93	1082.54
530.29	1083.43
530.65	1082.01
531.00	1087.30
531.36	1087.93
531.71	1086.27
532.07	1083.90
532.43	1086.34
532.78	1086.01
533.14	1083.57
533.49	1083.08
533.85	1086.10
534.21	1086.29
534.56	1087.95
534.92	1091.67
535.27	1093.64
535.63	1090.01
535.98	1091.81
536.34	1092.35
536.69	1090.36
537.05	1088.35
537.41	1087.37
537.76	1084.46
538.12	1079.90
538.47	1078.45
538.83	1075.69
539.18	1076.01
539.54	1076.06
539.89	1078.73
540.25	1080.20
540.60	1081.42
540.96	1084.04
541.31	1082.97
541.67	1085.24
542.02	1083.69
542.38	1083.90
542.73	1082.99
543.09	1084.30
543.44	1083.86
543.80	1087.51
544.15	1089.38
544.51	1088.58
544.86	1090.90
545.22	1090.85
545.57	1090.13
545.93	1087.97
546.28	1088.04
546.64	1083.86
546.99	1082.45
547.35	1083.69
547.70	1087.44
548.05	1086.27
548.41	1090.27
548.76	1091.93
549.12	1092.07
549.47	1087.93
549.83	1090.62
550.18	1089.45
550.53	1086.06
550.89	1083.39
551.24	1084.70
551.60	1083.95
551.95	1082.90
552.30	1084.89
552.66	1084.51
553.01	1085.31
553.37	1086.08
553.72	1085.70
554.07	1084.58
554.43	1084.72
554.78	1084.25
555.13	1084.93
555.49	1088.26
555.84	1088.07
556.19	1086.41
556.55	1088.16
556.90	1088.82
557.26	1086.15
557.61	1083.67
557.96	1086.41
558.32	1083.71
558.67	1080.04
559.02	1077.91
559.37	1081.94
559.73	1077.79
560.08	1080.60
560.43	1081.12
560.79	1083.79
561.14	1083.20
561.49	1086.03
561.85	1084.18
562.20	1085.56
562.55	1087.55
562.90	1084.67
563.26	1082.99
563.61	1082.38
563.96	1082.71
564.32	1081.56
564.67	1082.87
565.02	1084.25
565.37	1081.98
565.73	1080.32
566.08	1077.77
566.43	1079.50
566.78	1079.90
567.14	1081.98
567.49	1084.63
567.84	1084.89
568.19	1082.01
568.54	1083.64
568.90	1082.76
569.25	1077.00
569.60	1078.40
569.95	1080.41
570.31	1079.62
570.66	1080.23
571.01	1086.01
571.36	1085.70
571.71	1085.12
572.06	1083.43
572.42	1083.93
572.77	1080.23
573.12	1079.81
573.47	1081.75
573.82	1082.43
574.18	1082.66
574.53	1085.03
574.88	1083.08
575.23	1081.35
575.58	1081.66
575.93	1081.33
576.28	1082.76
576.64	1082.40
576.99	1081.30
577.34	1080.70
577.69	1081.73
578.04	1079.03
578.39	1081.54
578.74	1084.91
579.09	1088.54
579.44	1087.23
579.80	1088.84
580.15	1090.78
580.50	1090.10
580.85	1087.04
581.20	1089.66
581.55	1088.37
581.90	1089.50
582.25	1086.38
582.60	1084.98
582.95	1085.12
583.30	1088.19
583.65	1085.38
584.00	1087.83
584.35	1087.95
584.71	1086.92
585.06	1085.91
585.41	1086.41
585.76	1088.98
586.11	1091.79
586.46	1090.81
586.81	1090.41
587.16	1087.88
587.51	1084.35
587.86	1084.70
588.21	1086.17
588.56	1085.31
588.91	1086.69
589.26	1088.30
589.61	1084.60
589.96	1082.54
590.31	1080.84
590.66	1080.70
591.01	1080.58
591.36	1084.44
591.71	1085.49
592.06	1088.02
592.41	1086.85
592.76	1086.41
593.10	1084.49
593.45	1085.96
593.80	1085.75
594.15	1089.10
594.50	1087.13
594.85	1087.46
595.20	1088.26
595.55	1089.52
595.90	1089.36
596.25	1092.19
596.60	1087.81
596.95	1085.47
597.30	1083.48
597.64	1131.95
597.99	1134.25
598.34	1138.48
598.69	1138.97
599.04	1137.55
599.39	1089.26
599.74	1086.66
600.09	1086.06
600.44	1086.64
600.78	1088.35
601.13	1086.92
601.48	1085.52
601.83	1084.39
602.18	1082.61
602.53	1084.70
602.88	1083.01
603.22	1084.60
603.57	1085.54
603.92	1086.43
604.27	1083.08
604.62	1084.89
604.97	1085.49
605.31	1088.30
605.66	1089.07
606.01	1088.65
606.36	1086.97
606.71	1086.20
607.05	1083.34
607.40	1080.84
607.75	1082.10
608.10	1084.89
608.44	1082.52
608.79	1081.96
609.14	1086.13
609.49	1089.47
609.84	1088.86
610.18	1093.29
610.53	1101.29
610.88	1103.28
611.23	1103.45
611.57	1106.98
611.92	1106.93
612.27	1102.63
612.62	1099.56
612.96	1099.86
613.31	1096.49
613.66	1095.44
614.00	1094.04
614.35	1095.60
614.70	1091.86
615.05	1089.68
615.39	1089.00
615.74	1089.99
616.09	1085.59
616.43	1085.24
616.78	1088.19
617.13	1087.20
617.47	1086.97
617.82	1088.75
618.17	1089.87
618.51	1086.34
618.86	1086.62
619.21	1085.35
619.55	1086.01
619.90	1083.41
620.25	1086.20
620.59	1083.79
620.94	1081.40
621.29	1081.98
621.63	1084.58
621.98	1083.97
622.32	1086.41
622.67	1089.38
623.02	1088.35
623.36	1087.06
623.71	1088.14
624.05	1089.05
624.40	1086.94
624.75	1087.13
625.09	1090.20
625.44	1090.17
625.78	1088.56
626.13	1090.53
626.48	1091.67
626.82	1090.85
627.17	1088.44
627.51	1086.06
627.86	1087.37
628.20	1086.34
628.55	1083.93
628.89	1085.38
629.24	1086.90
629.58	1085.14
629.93	1083.36
630.28	1083.13
630.62	1084.14
630.97	1085.33
631.31	1085.00
631.66	1085.99
632.00	1087.44
632.35	1083.48
632.69	1084.67
633.04	1087.04
633.38	1086.36
633.73	1085.89
634.07	1090.43
634.42	1089.68
634.76	1088.19
635.11	1086.48
635.45	1086.97
635.79	1084.28
636.14	1084.00
636.48	1083.11
636.83	1085.77
637.17	1085.56
637.52	1085.87
637.86	1086.15
638.21	1088.72
638.55	1089.29
638.89	1089.61
639.24	1088.42
639.58	1087.88
639.93	1084.63
640.27	1084.70
640.61	1081.98
640.96	1082.80
641.30	1081.44
641.65	1082.80
641.99	1082.38
642.33	1086.66
642.68	1089.12
643.02	1091.72
643.37	1086.15
643.71	1085.45
644.05	1082.69
644.40	1080.37
644.74	1076.37
645.08	1080.02
645.43	1083.29
645.77	1082.97
646.11	1083.74
646.46	1085.05
646.80	1085.28
647.14	1082.31
647.49	1079.83
647.83	1079.67
648.17	1081.82
648.52	1081.75
648.86	1083.88
649.20	1090.29
649.55	1088.44
649.89	1089.87
650.23	1089.54
650.57	1085.73
650.92	1083.50
651.26	1085.61
651.60	1083.11
651.95	1083.69
652.29	1084.37
652.63	1082.52
652.97	1084.37
653.32	1086.78
653.66	1088.91
654.00	1087.39
654.34	1087.02
654.69	1086.55
655.03	1084.72
655.37	1081.07
655.71	1080.41
656.05	1083.06
656.40	1079.20
656.74	1082.24
657.08	1085.73
657.42	1089.54
657.76	1087.06
658.11	1088.61
658.45	1084.67
658.79	1083.25
659.13	1080.37
659.47	1081.21
659.82	1083.55
660.16	1084.49
660.50	1085.03
660.84	1084.79
661.18	1082.50
661.52	1084.14
661.87	1081.49
662.21	1081.51
662.55	1085.56
662.89	1087.27
663.23	1087.93
663.57	1090.32
663.91	1089.19
664.25	1085.75
664.60	1084.46
664.94	1080.74
665.28	1082.01
665.62	1082.33
665.96	1086.36
666.30	1088.77
666.64	1087.62
666.98	1087.02
667.32	1083.29
667.66	1083.71
668.01	1082.69
668.35	1081.70
668.69	1079.62
669.03	1082.22
669.37	1078.03
669.71	1079.74
670.05	1081.73
670.39	1081.23
670.73	1083.43
671.07	1082.97
671.41	1082.10
671.75	1081.63
672.09	1080.74
672.43	1079.43
672.77	1081.56
673.11	1079.97
673.45	1078.07
673.79	1078.38
674.13	1080.04
674.47	1078.75
674.81	1076.37
675.15	1078.00
675.49	1079.36
675.83	1079.48
676.17	1077.23
676.51	1080.30
676.85	1078.61
677.19	1079.85
677.53	1077.91
677.87	1079.90
678.21	1078.80
678.55	1079.15
678.89	1080.30
679.23	1080.32
679.57	1081.14
679.90	1082.94
680.24	1085.17
680.58	1080.44
680.92	1081.35
681.26	1081.30
681.60	1080.56
681.94	1077.84
682.28	1080.13
682.62	1075.90
682.96	1073.79
683.29	1073.74
683.63	1076.25
683.97	1077.44
684.31	1079.95
684.65	1080.98
684.99	1083.79
685.33	1084.96
685.67	1085.54
686.00	1086.03
686.34	1087.67
686.68	1086.36
687.02	1085.73
687.36	1085.42
687.70	1086.83
688.03	1087.30
688.37	1085.84
688.71	1085.31
689.05	1086.29
689.39	1083.36
689.72	1080.02
690.06	1078.94
690.40	1077.65
690.74	1075.66
691.08	1076.93
691.41	1078.24
691.75	1078.26
692.09	1080.34
692.43	1082.10
692.76	1079.67
693.10	1078.52
693.44	1080.84
693.78	1082.80
694.11	1082.24
694.45	1085.80
694.79	1084.49
695.13	1083.34
695.46	1081.54
695.80	1081.26
696.14	1079.99
696.48	1084.07
696.81	1085.59
697.15	1084.23
697.49	1084.32
697.82	1083.43
698.16	1081.87
698.50	1077.77
698.83	1077.33
699.17	1078.61
699.51	1081.84
699.84	1085.05
700.18	1090.78
700.52	1091.30
700.85	1090.50
701.19	1087.09
701.53	1085.17
701.86	1080.95
702.20	1079.53
702.54	1079.62
702.87	1083.32
703.21	1083.01
703.55	1085.56
703.88	1088.93
704.22	1086.94
704.55	1086.59
704.89	1088.89
705.23	1089.07
705.56	1085.99
705.90	1089.36
706.23	1087.04
706.57	1083.13
706.91	1080.77
707.24	1083.15
707.58	1080.04
707.91	1082.29
708.25	1083.34
708.58	1087.20
708.92	1088.47
709.26	1090.13
709.59	1089.03
709.93	1087.67
710.26	1084.18
710.60	1082.01
710.93	1081.47
711.27	1081.51
711.60	1082.38
711.94	1081.96
712.27	1082.33
712.61	1080.60
712.94	1081.02
713.28	1085.87
713.61	1085.59
713.95	1083.27
714.28	1083.48
714.62	1081.91
714.95	1080.06
715.29	1081.35
715.62	1082.29
715.96	1081.61
716.29	1083.39
716.63	1082.76
716.96	1085.14
717.29	1083.79
717.63	1085.49
717.96	1084.42
718.30	1081.80
718.63	1078.73
718.97	1083.41
719.30	1084.04
719.63	1084.93
719.97	1083.67
720.30	1085.26
720.64	1081.19
720.97	1078.36
721.30	1079.55
721.64	1083.36
721.97	1081.75
722.31	1084.72
722.64	1086.90
722.97	1085.49
723.31	1083.83
723.64	1083.48
723.97	1083.57
724.31	1083.25
724.64	1081.70
724.98	1079.81
725.31	1081.70
725.64	1079.06
725.98	1078.66
726.31	1081.49
726.64	1087.20
726.97	1086.29
727.31	1086.27
727.64	1087.11
727.97	1085.17
728.31	1080.13
728.64	1076.67
728.97	1079.08
729.31	1084.07
729.64	1084.04
729.97	1088.91
730.30	1092.82
730.64	1091.84
730.97	1088.91
731.30	1089.24
731.63	1084.65
731.97	1084.58
732.30	1086.43
732.63	1084.14
732.96	1085.61
733.30	1084.58
733.63	1083.57
733.96	1081.02
734.29	1080.39
734.63	1081.87
734.96	1084.42
735.29	1085.87
735.62	1086.71
735.95	1087.69
736.29	1087.51
736.62	1084.21
736.95	1083.86
737.28	1082.52
737.61	1082.59
737.94	1079.01
738.28	1081.77
738.61	1081.44
738.94	1080.74
739.27	1080.70
739.60	1082.26
739.93	1083.64
740.27	1085.12
740.60	1088.16
740.93	1086.80
741.26	1085.61
741.59	1086.50
741.92	1083.32
742.25	1084.23
742.58	1084.93
742.91	1082.29
743.25	1082.47
743.58	1084.37
743.91	1080.81
744.24	1080.51
744.57	1080.04
744.90	1078.73
745.23	1077.49
745.56	1078.66
745.89	1077.18
746.22	1078.66
746.55	1078.17
746.88	1080.34
747.21	1080.88
747.54	1080.88
747.87	1082.52
748.20	1080.63
748.53	1079.83
748.87	1078.73
749.20	1080.02
749.53	1080.86
749.86	1083.34
750.19	1083.15
750.52	1083.86
750.85	1083.27
751.18	1085.35
751.51	1082.73
751.84	1080.67
752.16	1077.86
752.49	1079.15
752.82	1077.21
753.15	1080.84
753.48	1079.97
753.81	1080.51
754.14	1081.96
754.47	1080.79
754.80	1075.41
755.13	1078.52
755.46	1080.60
755.79	1079.50
756.12	1081.33
756.45	1084.14
756.78	1085.91
757.11	1084.04
757.43	1083.76
757.76	1081.94
758.09	1082.05
758.42	1077.56
758.75	1079.53
759.08	1082.76
759.41	1083.04
759.74	1085.84
760.07	1087.02
760.39	1084.81
760.72	1082.99
761.05	1081.80
761.38	1079.48
761.71	1080.23
762.04	1083.32
762.36	1082.83
762.69	1084.37
763.02	1084.14
763.35	1083.27
763.68	1084.14
764.01	1081.61
764.33	1079.46
764.66	1079.92
764.99	1078.92
765.32	1076.04
765.65	1078.66
765.97	1078.19
766.30	1077.86
