SpectraSuite Data File
++++++++++++++++++++++++++++++++++++
Date: Mon Aug 26 10:26:45 PDT 2019
User: corrico
Dark Spectrum Present: No
Reference Spectrum Present: No
Number of Sampled Component Spectra: 1
Spectrometers: USB2+H06089
Integration Time (usec): 10000 (USB2+H06089)
Spectra Averaged: 20 (USB2+H06089)
Boxcar Smoothing: 2 (USB2+H06089)
Correct for Electrical Dark: No (USB2+H06089)
Strobe/Lamp Enabled: No (USB2+H06089)
Correct for Detector Non-linearity: No (USB2+H06089)
Correct for Stray Light: No (USB2+H06089)
Number of Pixels in Processed Spectrum: 2048
>>>>>Begin Processed Spectral Data<<<<<
339.70	1033.11
340.07	1033.11
340.45	999.60
340.82	976.85
341.19	953.84
341.57	931.28
341.94	917.61
342.31	911.83
342.69	907.54
343.06	905.97
343.43	904.52
343.81	907.57
344.18	909.81
344.55	915.50
344.93	919.18
345.30	921.89
345.67	925.05
346.04	933.36
346.42	939.09
346.79	947.10
347.16	958.80
347.54	970.57
347.91	978.48
348.28	988.71
348.65	997.79
349.03	1006.13
349.40	1013.24
349.77	1021.97
350.14	1030.96
350.52	1041.33
350.89	1049.52
351.26	1056.14
351.63	1064.24
352.01	1068.55
352.38	1069.48
352.75	1070.96
353.12	1075.27
353.50	1077.11
353.87	1081.66
354.24	1082.85
354.61	1082.73
354.98	1083.74
355.36	1084.42
355.73	1085.00
356.10	1088.21
356.47	1089.17
356.84	1089.73
357.22	1089.64
357.59	1090.29
357.96	1091.42
358.33	1093.83
358.70	1095.65
359.08	1094.76
359.45	1091.81
359.82	1089.96
360.19	1089.54
360.56	1086.48
360.94	1084.14
361.31	1085.00
361.68	1084.63
362.05	1085.19
362.42	1083.41
362.79	1088.58
363.16	1086.01
363.54	1086.41
363.91	1083.93
364.28	1086.36
364.65	1083.97
365.02	1086.22
365.39	1084.79
365.76	1083.67
366.14	1085.03
366.51	1084.16
366.88	1084.39
367.25	1086.85
367.62	1089.50
367.99	1087.37
368.36	1085.00
368.73	1082.90
369.10	1082.64
369.48	1083.81
369.85	1082.90
370.22	1086.06
370.59	1084.81
370.96	1080.37
371.33	1077.42
371.70	1079.22
372.07	1079.81
372.44	1080.95
372.81	1083.53
373.18	1083.88
373.55	1082.97
373.93	1080.63
374.30	1080.67
374.67	1075.85
375.04	1076.25
375.41	1078.50
375.78	1079.95
376.15	1079.76
376.52	1083.39
376.89	1082.43
377.26	1079.03
377.63	1076.39
378.00	1077.51
378.37	1077.75
378.74	1079.67
379.11	1078.45
379.48	1080.67
379.85	1080.81
380.22	1085.03
380.59	1083.53
380.96	1084.39
381.33	1085.21
381.70	1083.20
382.07	1081.91
382.44	1084.04
382.81	1085.77
383.18	1085.47
383.55	1085.52
383.92	1082.54
384.29	1079.24
384.66	1081.82
385.03	1079.27
385.40	1082.01
385.77	1080.27
386.14	1083.20
386.51	1079.99
386.88	1083.81
387.25	1082.80
387.62	1084.23
387.99	1082.08
388.36	1082.61
388.73	1083.41
389.10	1083.25
389.46	1086.20
389.83	1087.18
390.20	1088.91
390.57	1090.17
390.94	1090.60
391.31	1088.02
391.68	1088.28
392.05	1085.66
392.42	1081.19
392.79	1079.83
393.16	1084.28
393.53	1084.11
393.89	1084.14
394.26	1087.37
394.63	1089.17
395.00	1086.22
395.37	1087.65
395.74	1090.99
396.11	1088.51
396.48	1086.62
396.84	1084.70
397.21	1085.26
397.58	1085.00
397.95	1087.74
398.32	1090.64
398.69	1092.49
399.06	1094.48
399.42	1094.01
399.79	1092.77
400.16	1094.81
400.53	1096.31
400.90	1092.02
401.27	1093.29
401.64	1097.13
402.00	1095.84
402.37	1094.83
402.74	1097.85
403.11	1096.45
403.48	1091.58
403.84	1090.62
404.21	1092.82
404.58	1093.80
404.95	1095.79
405.32	1099.07
405.68	1101.29
406.05	1102.44
406.42	1100.73
406.79	1102.35
407.16	1099.12
407.52	1096.35
407.89	1093.80
408.26	1095.86
408.63	1096.47
408.99	1098.98
409.36	1100.26
409.73	1104.03
410.10	1104.22
410.47	1103.82
410.83	1106.63
411.20	1110.19
411.57	1109.67
411.94	1110.26
412.30	1107.54
412.67	1106.11
413.04	1104.05
413.40	1104.57
413.77	1103.23
414.14	1105.79
414.51	1104.94
414.87	1106.07
415.24	1102.70
415.61	1101.60
415.97	1100.85
416.34	1102.13
416.71	1101.55
417.08	1104.62
417.44	1107.68
417.81	1108.48
418.18	1106.00
418.54	1104.10
418.91	1103.56
419.28	1103.98
419.64	1104.76
420.01	1108.59
420.38	1111.68
420.74	1112.90
421.11	1116.37
421.48	1117.98
421.84	1114.63
422.21	1110.82
422.58	1109.04
422.94	1104.85
423.31	1103.56
423.68	1105.51
424.04	1109.30
424.41	1110.82
424.77	1111.40
425.14	1111.31
425.51	1115.20
425.87	1115.10
426.24	1114.31
426.61	1117.30
426.97	1117.30
427.34	1115.34
427.70	1114.70
428.07	1113.63
428.44	1112.67
428.80	1111.61
429.17	1111.29
429.53	1111.47
429.90	1114.26
430.27	1113.79
430.63	1115.38
431.00	1116.62
431.36	1117.16
431.73	1115.76
432.09	1114.47
432.46	1113.28
432.83	1112.29
433.19	1111.64
433.56	1114.38
433.92	1112.13
434.29	1113.70
434.65	1110.96
435.02	1114.91
435.38	1113.28
435.75	1117.58
436.11	1115.24
436.48	1116.67
436.84	1111.38
437.21	1112.53
437.57	1108.76
437.94	1108.13
438.30	1107.89
438.67	1109.86
439.03	1107.31
439.40	1108.78
439.76	1111.29
440.13	1109.65
440.49	1110.35
440.86	1111.45
441.22	1111.73
441.59	1109.72
441.95	1111.89
442.32	1109.58
442.68	1108.45
443.05	1109.09
443.41	1111.36
443.78	1110.54
444.14	1112.85
444.51	1112.55
444.87	1109.60
445.24	1105.72
445.60	1103.26
445.96	1105.04
446.33	1106.91
446.69	1107.75
447.06	1111.10
447.42	1111.43
447.79	1105.08
448.15	1103.35
448.51	1103.70
448.88	1106.65
449.24	1106.89
449.61	1108.66
449.97	1109.84
450.33	1109.23
450.70	1105.36
451.06	1106.56
451.43	1107.85
451.79	1109.20
452.15	1109.88
452.52	1113.16
452.88	1114.70
453.24	1114.33
453.61	1112.43
453.97	1111.33
454.34	1112.08
454.70	1113.44
455.06	1112.29
455.43	1110.09
455.79	1110.44
456.15	1110.19
456.52	1109.77
456.88	1111.78
457.24	1112.78
457.61	1114.77
457.97	1110.77
458.33	1110.12
458.70	1111.47
459.06	1111.75
459.42	1111.22
459.79	1111.50
460.15	1112.95
460.51	1114.24
460.88	1116.18
461.24	1116.27
461.60	1115.48
461.96	1112.74
462.33	1111.12
462.69	1112.85
463.05	1115.34
463.42	1119.53
463.78	1124.00
464.14	1125.28
464.50	1123.86
464.87	1122.61
465.23	1124.91
465.59	1122.71
465.95	1125.14
466.32	1127.01
466.68	1125.94
467.04	1124.35
467.40	1125.87
467.77	1125.77
468.13	1127.06
468.49	1130.67
468.85	1132.66
469.22	1134.46
469.58	1135.02
469.94	1134.06
470.30	1138.09
470.66	1139.47
471.03	1143.12
471.39	1146.86
471.75	1151.75
472.11	1153.16
472.47	1151.19
472.84	1151.29
473.20	1151.15
473.56	1153.06
473.92	1154.00
474.28	1159.17
474.65	1160.88
475.01	1165.17
475.37	1169.59
475.73	1174.46
476.09	1178.32
476.45	1184.10
476.81	1191.47
477.18	1195.41
477.54	1200.58
477.90	1208.28
478.26	1212.63
478.62	1216.87
478.98	1224.22
479.34	1232.15
479.71	1241.14
480.07	1251.13
480.43	1261.99
480.79	1268.78
481.15	1278.26
481.51	1286.59
481.87	1295.23
482.23	1304.24
482.59	1316.13
482.96	1328.02
483.32	1341.22
483.68	1358.54
484.04	1377.69
484.40	1396.32
484.76	1412.63
485.12	1429.01
485.48	1444.04
485.84	1456.84
486.20	1477.25
486.56	1497.97
486.92	1521.89
487.28	1548.45
487.64	1575.88
488.00	1604.48
488.37	1634.49
488.73	1664.66
489.09	1700.02
489.45	1734.92
489.81	1769.16
490.17	1806.17
490.53	1850.38
490.89	1887.31
491.25	1932.32
491.61	1981.45
491.97	2027.07
492.33	2074.67
492.69	2126.45
493.05	2178.71
493.41	2231.63
493.77	2295.01
494.13	2357.95
494.49	2428.59
494.85	2501.92
495.21	2575.99
495.57	2653.35
495.93	2736.55
496.29	2818.78
496.64	2911.42
497.00	2999.26
497.36	3095.92
497.72	3196.42
498.08	3305.30
498.44	3417.02
498.80	3542.21
499.16	3676.05
499.52	3814.75
499.88	3958.92
500.24	4113.89
500.60	4268.86
500.96	4426.12
501.32	4588.06
501.68	4757.19
502.03	4938.06
502.39	5145.86
502.75	5354.94
503.11	5576.58
503.47	5806.78
503.83	6048.11
504.19	6288.48
504.55	6559.02
504.91	6842.11
505.26	7124.31
505.62	7412.36
505.98	7727.00
506.34	8046.41
506.70	8391.41
507.06	8767.81
507.42	9168.21
507.78	9561.30
508.13	9972.58
508.49	10393.83
508.85	10846.11
509.21	11321.41
509.57	11849.50
509.93	12399.03
510.28	12980.89
510.64	13587.11
511.00	14181.26
511.36	14740.30
511.72	15311.55
512.07	15939.24
512.43	16546.86
512.79	17206.38
513.15	17940.56
513.51	18678.06
513.86	19407.70
514.22	20221.76
514.58	21008.18
514.94	21823.41
515.30	22674.85
515.65	23478.59
516.01	24293.94
516.37	25122.47
516.73	25887.68
517.08	26734.98
517.44	27568.30
517.80	28362.82
518.16	29195.33
518.51	29999.72
518.87	30737.02
519.23	31575.77
519.59	32434.47
519.94	33271.02
520.30	34157.68
520.66	34910.42
521.01	35719.50
521.37	36406.42
521.73	36991.07
522.09	37557.01
522.44	38205.73
522.80	38604.77
523.16	38951.48
523.51	39222.23
523.87	39534.62
524.23	39805.23
524.58	40082.03
524.94	40459.76
525.30	40804.92
525.65	40979.55
526.01	41009.25
526.37	40994.09
526.72	40918.44
527.08	40793.10
527.44	40623.93
527.79	40469.64
528.15	40321.30
528.51	40079.99
528.86	39862.72
529.22	39626.32
529.58	39384.41
529.93	39038.24
530.29	38627.78
530.65	38273.96
531.00	37903.55
531.36	37442.21
531.71	36976.88
532.07	36497.19
532.43	35921.98
532.78	35288.47
533.14	34734.77
533.49	34192.02
533.85	33589.68
534.21	32977.59
534.56	32450.45
534.92	31846.01
535.27	31222.09
535.63	30620.43
535.98	29993.43
536.34	29343.41
536.69	28701.22
537.05	28108.01
537.41	27596.30
537.76	27132.94
538.12	26590.94
538.47	26127.12
538.83	25675.33
539.18	25203.52
539.54	24719.38
539.89	24270.63
540.25	23766.99
540.60	23288.59
540.96	22788.60
541.31	22317.13
541.67	21914.27
542.02	21518.25
542.38	21090.80
542.73	20681.32
543.09	20299.86
543.44	19950.38
543.80	19604.37
544.15	19214.98
544.51	18886.16
544.86	18566.60
545.22	18199.47
545.57	17829.73
545.93	17490.85
546.28	17176.65
546.64	16848.39
546.99	16508.76
547.35	16206.64
547.70	15915.08
548.05	15599.62
548.41	15299.22
548.76	15008.38
549.12	14707.15
549.47	14428.70
549.83	14159.26
550.18	13836.12
550.53	13508.12
550.89	13232.97
551.24	12964.20
551.60	12669.98
551.95	12440.30
552.30	12218.16
552.66	11982.28
553.01	11738.28
553.37	11487.37
553.72	11202.11
554.07	10950.50
554.43	10677.38
554.78	10394.16
555.13	10141.92
555.49	9931.71
555.84	9728.62
556.19	9544.33
556.55	9352.10
556.90	9152.22
557.26	8958.40
557.61	8743.73
557.96	8505.76
558.32	8309.58
558.67	8120.63
559.02	7894.39
559.37	7711.74
559.73	7564.56
560.08	7415.07
560.43	7264.37
560.79	7150.71
561.14	7005.50
561.49	6847.87
561.85	6687.31
562.20	6534.14
562.55	6397.71
562.90	6272.26
563.26	6146.46
563.61	6038.35
563.96	5926.38
564.32	5807.76
564.67	5683.55
565.02	5571.20
565.37	5465.48
565.73	5362.10
566.08	5248.86
566.43	5143.65
566.78	5038.94
567.14	4929.71
567.49	4823.26
567.84	4722.52
568.19	4621.06
568.54	4525.31
568.90	4432.69
569.25	4355.88
569.60	4291.35
569.95	4216.15
570.31	4139.71
570.66	4064.64
571.01	3975.00
571.36	3881.47
571.71	3809.43
572.06	3739.08
572.42	3677.89
572.77	3624.90
573.12	3566.72
573.47	3504.65
573.82	3450.42
574.18	3377.02
574.53	3309.66
574.88	3260.04
575.23	3209.06
575.58	3161.85
575.93	3119.61
576.28	3072.91
576.64	3020.55
576.99	2966.82
577.34	2904.00
577.69	2850.14
578.04	2797.69
578.39	2740.93
578.74	2698.78
579.09	2662.92
579.44	2624.65
579.80	2586.71
580.15	2550.81
580.50	2510.13
580.85	2476.33
581.20	2443.94
581.55	2414.43
581.90	2388.80
582.25	2356.31
582.60	2321.20
582.95	2285.42
583.30	2246.63
583.65	2208.86
584.00	2175.11
584.35	2146.97
584.71	2115.05
585.06	2091.48
585.41	2063.16
585.76	2038.77
586.11	2008.62
586.46	1988.43
586.81	1964.58
587.16	1940.28
587.51	1921.98
587.86	1902.60
588.21	1882.98
588.56	1864.49
588.91	1845.49
589.26	1828.96
589.61	1807.85
589.96	1788.87
590.31	1768.63
590.66	1754.00
591.01	1735.93
591.36	1720.50
591.71	1700.31
592.06	1687.81
592.41	1670.25
592.76	1652.89
593.10	1637.04
593.45	1627.35
593.80	1606.78
594.15	1591.54
594.50	1575.77
594.85	1565.82
595.20	1550.37
595.55	1540.42
595.90	1533.31
596.25	1524.20
596.60	1514.82
596.95	1504.08
597.30	1496.40
597.64	1540.12
597.99	1533.96
598.34	1523.52
598.69	1515.10
599.04	1507.84
599.39	1447.18
599.74	1436.57
600.09	1426.16
600.44	1419.32
600.78	1407.83
601.13	1399.45
601.48	1393.13
601.83	1386.49
602.18	1381.13
602.53	1374.36
602.88	1365.87
603.22	1361.51
603.57	1356.64
603.92	1349.74
604.27	1343.56
604.62	1339.16
604.97	1328.53
605.31	1326.94
605.66	1321.72
606.01	1316.20
606.36	1308.57
606.71	1304.08
607.05	1294.69
607.40	1290.76
607.75	1287.58
608.10	1281.14
608.44	1275.55
608.79	1271.73
609.14	1269.55
609.49	1267.10
609.84	1270.47
610.18	1266.79
610.53	1265.29
610.88	1262.44
611.23	1263.75
611.57	1259.79
611.92	1256.61
612.27	1250.99
612.62	1243.95
612.96	1233.02
613.31	1227.03
613.66	1222.23
614.00	1217.59
614.35	1213.36
614.70	1211.63
615.05	1206.57
615.39	1201.30
615.74	1196.58
616.09	1193.86
616.43	1190.65
616.78	1192.78
617.13	1195.64
617.47	1195.64
617.82	1190.44
618.17	1186.70
618.51	1179.79
618.86	1175.21
619.21	1175.67
619.55	1175.44
619.90	1174.27
620.25	1174.43
620.59	1174.53
620.94	1169.00
621.29	1170.03
621.63	1170.24
621.98	1169.87
622.32	1168.51
622.67	1166.48
623.02	1166.73
623.36	1167.74
623.71	1163.90
624.05	1160.72
624.40	1160.09
624.75	1156.58
625.09	1149.20
625.44	1148.43
625.78	1150.37
626.13	1149.72
626.48	1147.19
626.82	1147.82
627.17	1145.22
627.51	1142.25
627.86	1139.65
628.20	1139.35
628.55	1142.11
628.89	1139.82
629.24	1137.66
629.58	1137.50
629.93	1134.74
630.28	1128.02
630.62	1128.33
630.97	1127.93
631.31	1129.36
631.66	1132.21
632.00	1133.85
632.35	1130.39
632.69	1126.94
633.04	1122.31
633.38	1115.99
633.73	1113.49
634.07	1115.05
634.42	1114.33
634.76	1116.18
635.11	1118.24
635.45	1117.65
635.79	1118.52
636.14	1121.80
636.48	1122.64
636.83	1124.00
637.17	1126.03
637.52	1124.88
637.86	1121.21
638.21	1116.58
638.55	1109.86
638.89	1107.19
639.24	1103.47
639.58	1104.10
639.93	1101.55
640.27	1106.65
640.61	1105.93
640.96	1105.62
641.30	1104.76
641.65	1106.35
641.99	1102.35
642.33	1102.39
642.68	1104.15
643.02	1103.45
643.37	1104.73
643.71	1107.78
644.05	1109.77
644.40	1110.47
644.74	1110.05
645.08	1108.48
645.43	1107.42
645.77	1103.70
646.11	1103.40
646.46	1105.34
646.80	1107.59
647.14	1106.11
647.49	1107.80
647.83	1105.76
648.17	1103.21
648.52	1100.33
648.86	1098.67
649.20	1098.72
649.55	1100.40
649.89	1100.96
650.23	1101.88
650.57	1101.36
650.92	1102.51
651.26	1098.39
651.60	1096.35
651.95	1095.35
652.29	1096.40
652.63	1093.40
652.97	1097.97
653.32	1097.97
653.66	1098.06
654.00	1099.63
654.34	1100.87
654.69	1101.06
655.03	1103.68
655.37	1105.97
655.71	1104.08
656.05	1102.42
656.40	1101.46
656.74	1100.47
657.08	1099.89
657.42	1100.05
657.76	1098.69
658.11	1096.52
658.45	1096.94
658.79	1098.53
659.13	1098.25
659.47	1099.37
659.82	1100.75
660.16	1099.47
660.50	1095.89
660.84	1093.94
661.18	1096.12
661.52	1097.64
661.87	1097.36
662.21	1094.88
662.55	1097.95
662.89	1096.42
663.23	1095.30
663.57	1092.59
663.91	1097.45
664.25	1096.73
664.60	1098.20
664.94	1097.31
665.28	1097.45
665.62	1096.40
665.96	1096.52
666.30	1094.65
666.64	1093.55
666.98	1097.15
667.32	1092.66
667.66	1094.08
668.01	1097.57
668.35	1096.24
668.69	1097.41
669.03	1100.96
669.37	1098.51
669.71	1096.73
670.05	1097.78
670.39	1096.12
670.73	1093.08
671.07	1092.66
671.41	1088.63
671.75	1088.12
672.09	1087.46
672.43	1087.88
672.77	1089.31
673.11	1091.04
673.45	1093.38
673.79	1092.84
674.13	1096.49
674.47	1093.94
674.81	1094.22
675.15	1092.45
675.49	1093.97
675.83	1090.50
676.17	1094.69
676.51	1097.55
676.85	1099.68
677.19	1099.65
677.53	1101.41
677.87	1097.34
678.21	1093.69
678.55	1091.86
678.89	1092.63
679.23	1092.42
679.57	1092.07
679.90	1092.70
680.24	1092.02
680.58	1092.96
680.92	1094.32
681.26	1093.99
681.60	1093.87
681.94	1094.13
682.28	1091.95
682.62	1091.32
682.96	1093.43
683.29	1090.46
683.63	1088.26
683.97	1087.51
684.31	1088.49
684.65	1087.46
684.99	1095.21
685.33	1097.78
685.67	1097.73
686.00	1097.38
686.34	1098.44
686.68	1091.44
687.02	1088.79
687.36	1088.49
687.70	1085.10
688.03	1083.50
688.37	1083.57
688.71	1086.15
689.05	1084.86
689.39	1085.91
689.72	1087.72
690.06	1089.33
690.40	1087.02
690.74	1088.65
691.08	1089.78
691.41	1089.40
691.75	1092.33
692.09	1094.95
692.43	1090.83
692.76	1089.12
693.10	1088.56
693.44	1087.04
693.78	1087.58
694.11	1095.09
694.45	1098.04
694.79	1097.29
695.13	1096.82
695.46	1098.06
695.80	1093.26
696.14	1091.70
696.48	1093.19
696.81	1092.16
697.15	1088.58
697.49	1085.96
697.82	1085.84
698.16	1084.21
698.50	1084.11
698.83	1085.89
699.17	1089.26
699.51	1086.27
699.84	1088.00
700.18	1090.03
700.52	1089.54
700.85	1091.56
701.19	1096.05
701.53	1093.57
701.86	1093.47
702.20	1093.19
702.54	1093.12
702.87	1091.25
703.21	1092.54
703.55	1093.01
703.88	1090.90
704.22	1088.49
704.55	1087.23
704.89	1086.94
705.23	1086.52
705.56	1088.16
705.90	1089.57
706.23	1092.21
706.57	1091.25
706.91	1091.09
707.24	1091.84
707.58	1092.89
707.91	1092.19
708.25	1093.03
708.58	1087.48
708.92	1087.67
709.26	1086.15
709.59	1082.26
709.93	1083.46
710.26	1089.33
710.60	1088.12
710.93	1088.19
711.27	1093.57
711.60	1090.53
711.94	1089.38
712.27	1089.45
712.61	1089.40
712.94	1084.30
713.28	1086.50
713.61	1085.91
713.95	1085.56
714.28	1085.75
714.62	1087.86
714.95	1088.35
715.29	1088.68
715.62	1090.88
715.96	1089.94
716.29	1087.79
716.63	1086.48
716.96	1084.74
717.29	1082.83
717.63	1080.53
717.96	1084.70
718.30	1087.44
718.63	1089.96
718.97	1090.20
719.30	1092.82
719.63	1090.99
719.97	1089.94
720.30	1087.88
720.64	1087.25
720.97	1087.76
721.30	1088.58
721.64	1089.22
721.97	1089.87
722.31	1086.80
722.64	1087.60
722.97	1086.76
723.31	1086.10
723.64	1084.00
723.97	1088.30
724.31	1089.29
724.64	1088.21
724.98	1088.26
725.31	1092.37
725.64	1090.29
725.98	1086.24
726.31	1088.82
726.64	1087.13
726.97	1084.02
727.31	1085.12
727.64	1086.62
727.97	1084.84
728.31	1084.67
728.64	1084.42
728.97	1082.54
729.31	1080.09
729.64	1080.53
729.97	1078.52
730.30	1078.24
730.64	1080.39
730.97	1083.86
731.30	1084.60
731.63	1085.12
731.97	1086.15
732.30	1087.37
732.63	1087.16
732.96	1086.20
733.30	1088.12
733.63	1086.73
733.96	1086.34
734.29	1083.57
734.63	1083.90
734.96	1084.98
735.29	1086.59
735.62	1083.18
735.95	1082.24
736.29	1081.54
736.62	1077.98
736.95	1079.29
737.28	1082.94
737.61	1084.81
737.94	1085.10
738.28	1084.81
738.61	1082.83
738.94	1080.81
739.27	1080.70
739.60	1082.05
739.93	1083.93
740.27	1082.50
740.60	1083.39
740.93	1085.21
741.26	1086.62
741.59	1090.53
741.92	1092.45
742.25	1093.90
742.58	1090.74
742.91	1088.98
743.25	1085.38
743.58	1087.60
743.91	1086.59
744.24	1088.65
744.57	1091.56
744.90	1090.95
745.23	1089.40
745.56	1086.76
745.89	1085.38
746.22	1082.54
746.55	1086.66
746.88	1087.72
747.21	1088.44
747.54	1091.56
747.87	1089.75
748.20	1086.43
748.53	1085.54
748.87	1086.85
749.20	1085.89
749.53	1087.41
749.86	1089.12
750.19	1089.00
750.52	1091.09
750.85	1089.31
751.18	1090.50
751.51	1091.16
751.84	1090.39
752.16	1091.09
752.49	1090.69
752.82	1091.44
753.15	1088.61
753.48	1089.52
753.81	1084.02
754.14	1087.37
754.47	1083.11
754.80	1083.43
755.13	1085.49
755.46	1087.79
755.79	1084.86
756.12	1085.33
756.45	1088.26
756.78	1085.19
757.11	1086.36
757.43	1090.81
757.76	1092.77
758.09	1090.29
758.42	1087.18
758.75	1082.47
759.08	1079.24
759.41	1080.23
759.74	1081.84
760.07	1082.10
760.39	1088.91
760.72	1091.86
761.05	1090.29
761.38	1088.07
761.71	1091.23
762.04	1086.69
762.36	1084.42
762.69	1083.18
763.02	1084.56
763.35	1085.35
763.68	1088.77
