SpectraSuite Data File
++++++++++++++++++++++++++++++++++++
Date: Mon Aug 26 10:26:51 PDT 2019
User: corrico
Dark Spectrum Present: No
Reference Spectrum Present: No
Number of Sampled Component Spectra: 1
Spectrometers: USB2+H06089
Integration Time (usec): 10000 (USB2+H06089)
Spectra Averaged: 20 (USB2+H06089)
Boxcar Smoothing: 2 (USB2+H06089)
Correct for Electrical Dark: No (USB2+H06089)
Strobe/Lamp Enabled: No (USB2+H06089)
Correct for Detector Non-linearity: No (USB2+H06089)
Correct for Stray Light: No (USB2+H06089)
Number of Pixels in Processed Spectrum: 2048
>>>>>Begin Processed Spectral Data<<<<<
339.70	1025.97
340.07	1025.97
340.45	993.74
340.82	973.97
341.19	952.93
341.57	930.74
341.94	920.28
342.31	916.74
342.69	914.21
343.06	909.06
343.43	906.21
343.81	906.68
344.18	907.36
344.55	912.48
344.93	920.98
345.30	925.68
345.67	932.09
346.04	937.17
346.42	941.32
346.79	945.18
347.16	954.00
347.54	964.04
347.91	972.98
348.28	980.94
348.65	993.56
349.03	1004.23
349.40	1011.16
349.77	1022.14
350.14	1036.48
350.52	1041.77
350.89	1047.74
351.26	1052.94
351.63	1058.53
352.01	1057.48
352.38	1060.82
352.75	1068.06
353.12	1073.42
353.50	1074.40
353.87	1077.49
354.24	1080.18
354.61	1083.76
354.98	1087.20
355.36	1088.61
355.73	1087.53
356.10	1087.88
356.47	1083.43
356.84	1081.16
357.22	1083.53
357.59	1088.84
357.96	1095.21
358.33	1096.28
358.70	1096.38
359.08	1096.31
359.45	1093.17
359.82	1089.05
360.19	1086.85
360.56	1085.59
360.94	1085.68
361.31	1084.44
361.68	1083.08
362.05	1082.43
362.42	1085.12
362.79	1083.71
363.16	1084.74
363.54	1085.03
363.91	1087.16
364.28	1085.14
364.65	1084.53
365.02	1083.11
365.39	1085.19
365.76	1085.07
366.14	1086.85
366.51	1085.80
366.88	1085.40
367.25	1081.63
367.62	1079.53
367.99	1076.76
368.36	1078.14
368.73	1078.26
369.10	1075.43
369.48	1075.66
369.85	1077.72
370.22	1075.22
370.59	1076.95
370.96	1079.08
371.33	1073.81
371.70	1068.57
372.07	1069.06
372.44	1066.18
372.81	1068.85
373.18	1076.01
373.55	1078.82
373.93	1082.78
374.30	1087.04
374.67	1085.87
375.04	1084.37
375.41	1085.66
375.78	1085.49
376.15	1083.83
376.52	1085.38
376.89	1087.18
377.26	1085.21
377.63	1082.57
378.00	1083.50
378.37	1081.75
378.74	1081.12
379.11	1081.80
379.48	1080.63
379.85	1081.14
380.22	1082.15
380.59	1083.36
380.96	1083.39
381.33	1088.21
381.70	1086.08
382.07	1086.64
382.44	1085.47
382.81	1089.89
383.18	1084.49
383.55	1085.19
383.92	1085.14
384.29	1083.48
384.66	1076.60
385.03	1077.04
385.40	1078.28
385.77	1077.44
386.14	1079.64
386.51	1081.96
386.88	1088.33
387.25	1088.23
387.62	1089.59
387.99	1091.39
388.36	1093.99
388.73	1090.50
389.10	1090.55
389.46	1090.08
389.83	1088.77
390.20	1090.53
390.57	1091.46
390.94	1091.58
391.31	1093.15
391.68	1094.25
392.05	1092.94
392.42	1092.49
392.79	1092.94
393.16	1090.46
393.53	1088.84
393.89	1086.34
394.26	1084.93
394.63	1084.81
395.00	1086.13
395.37	1088.37
395.74	1091.88
396.11	1092.63
396.48	1093.40
396.84	1094.69
397.21	1092.19
397.58	1090.85
397.95	1092.61
398.32	1091.84
398.69	1090.85
399.06	1092.19
399.42	1095.21
399.79	1095.09
400.16	1095.75
400.53	1095.07
400.90	1096.73
401.27	1096.10
401.64	1097.03
402.00	1098.30
402.37	1099.58
402.74	1098.65
403.11	1097.34
403.48	1096.89
403.84	1095.30
404.21	1095.18
404.58	1094.32
404.95	1094.57
405.32	1095.16
405.68	1094.34
406.05	1091.56
406.42	1092.87
406.79	1090.78
407.16	1090.60
407.52	1090.88
407.89	1096.96
408.26	1099.28
408.63	1105.15
408.99	1108.52
409.36	1111.40
409.73	1113.58
410.10	1111.43
410.47	1108.59
410.83	1105.65
411.20	1104.90
411.57	1102.86
411.94	1099.96
412.30	1098.79
412.67	1099.00
413.04	1099.63
413.40	1099.49
413.77	1104.19
414.14	1106.28
414.51	1106.35
414.87	1104.48
415.24	1103.40
415.61	1103.96
415.97	1104.08
416.34	1103.49
416.71	1108.22
417.08	1108.71
417.44	1108.01
417.81	1109.72
418.18	1108.50
418.54	1105.46
418.91	1105.90
419.28	1108.38
419.64	1107.49
420.01	1109.62
420.38	1109.13
420.74	1111.73
421.11	1112.53
421.48	1115.05
421.84	1115.78
422.21	1117.51
422.58	1114.17
422.94	1106.65
423.31	1101.92
423.68	1103.40
424.04	1101.99
424.41	1104.80
424.77	1111.24
425.14	1117.04
425.51	1118.99
425.87	1121.80
426.24	1119.13
426.61	1116.13
426.97	1113.84
427.34	1113.32
427.70	1113.37
428.07	1116.27
428.44	1118.71
428.80	1117.23
429.17	1116.60
429.53	1115.69
429.90	1112.55
430.27	1110.91
430.63	1110.14
431.00	1109.55
431.36	1110.58
431.73	1113.51
432.09	1115.99
432.46	1119.69
432.83	1119.17
433.19	1118.45
433.56	1118.71
433.92	1116.51
434.29	1112.27
434.65	1112.36
435.02	1113.44
435.38	1112.46
435.75	1113.35
436.11	1118.03
436.48	1117.68
436.84	1115.27
437.21	1116.48
437.57	1118.31
437.94	1117.47
438.30	1116.65
438.67	1120.04
439.03	1123.69
439.40	1122.38
439.76	1121.26
440.13	1121.61
440.49	1118.00
440.86	1111.31
441.22	1111.47
441.59	1109.67
441.95	1105.74
442.32	1107.38
442.68	1110.00
443.05	1108.66
443.41	1112.41
443.78	1117.98
444.14	1118.17
444.51	1118.47
444.87	1119.85
445.24	1121.05
445.60	1120.88
445.96	1116.88
446.33	1113.42
446.69	1111.31
447.06	1109.79
447.42	1108.24
447.79	1113.35
448.15	1118.14
448.51	1119.08
448.88	1114.75
449.24	1116.06
449.61	1114.45
449.97	1114.98
450.33	1117.89
450.70	1121.96
451.06	1121.98
451.43	1120.06
451.79	1114.54
452.15	1114.59
452.52	1112.60
452.88	1111.75
453.24	1112.92
453.61	1114.87
453.97	1110.89
454.34	1110.87
454.70	1110.07
455.06	1108.81
455.43	1110.61
455.79	1111.40
456.15	1109.37
456.52	1111.61
456.88	1113.86
457.24	1111.85
457.61	1111.08
457.97	1110.79
458.33	1110.40
458.70	1109.51
459.06	1110.40
459.42	1112.29
459.79	1115.10
460.15	1113.63
460.51	1111.68
460.88	1110.58
461.24	1108.99
461.60	1108.66
461.96	1109.58
462.33	1111.99
462.69	1112.60
463.05	1115.45
463.42	1118.24
463.78	1119.48
464.14	1121.49
464.50	1126.50
464.87	1124.60
465.23	1127.01
465.59	1124.51
465.95	1124.81
466.32	1122.50
466.68	1126.73
467.04	1125.03
467.40	1128.65
467.77	1128.96
468.13	1129.99
468.49	1131.81
468.85	1132.84
469.22	1134.11
469.58	1135.49
469.94	1137.50
470.30	1135.67
470.66	1137.22
471.03	1139.72
471.39	1144.26
471.75	1146.37
472.11	1148.36
472.47	1149.93
472.84	1152.88
473.20	1152.69
473.56	1156.76
473.92	1163.06
474.28	1167.04
474.65	1169.47
475.01	1176.26
475.37	1177.13
475.73	1177.92
476.09	1182.81
476.45	1190.54
476.81	1193.23
477.18	1197.54
477.54	1203.20
477.90	1209.78
478.26	1212.77
478.62	1219.23
478.98	1226.84
479.34	1233.95
479.71	1240.67
480.07	1249.89
480.43	1260.99
480.79	1272.15
481.15	1280.93
481.51	1288.77
481.87	1295.74
482.23	1301.55
482.59	1311.14
482.96	1323.74
483.32	1340.75
483.68	1359.59
484.04	1376.02
484.40	1391.75
484.76	1409.47
485.12	1427.40
485.48	1442.47
485.84	1461.73
486.20	1487.22
486.56	1510.25
486.92	1535.37
487.28	1560.29
487.64	1583.63
488.00	1606.19
488.37	1637.70
488.73	1662.11
489.09	1697.15
489.45	1736.63
489.81	1773.66
490.17	1811.57
490.53	1853.61
490.89	1890.71
491.25	1928.11
491.61	1975.88
491.97	2020.14
492.33	2073.43
492.69	2126.12
493.05	2183.16
493.41	2236.78
493.77	2300.79
494.13	2361.83
494.49	2430.39
494.85	2504.96
495.21	2579.90
495.57	2655.64
495.93	2737.98
496.29	2823.95
496.64	2914.81
497.00	3006.09
497.36	3101.72
497.72	3199.33
498.08	3309.26
498.44	3421.14
498.80	3543.92
499.16	3677.75
499.52	3816.06
499.88	3971.44
500.24	4132.80
500.60	4289.80
500.96	4451.49
501.32	4624.27
501.68	4785.74
502.03	4965.28
502.39	5168.72
502.75	5375.30
503.11	5600.86
503.47	5832.57
503.83	6074.95
504.19	6324.62
504.55	6597.34
504.91	6875.79
505.26	7159.96
505.62	7457.16
505.98	7770.88
506.34	8100.85
506.70	8460.33
507.06	8845.61
507.42	9240.58
507.78	9657.73
508.13	10076.71
508.49	10502.59
508.85	10966.84
509.21	11459.59
509.57	11974.93
509.93	12526.15
510.28	13115.15
510.64	13724.15
511.00	14319.37
511.36	14900.22
511.72	15485.19
512.07	16116.65
512.43	16727.13
512.79	17402.77
513.15	18131.47
513.51	18875.20
513.86	19619.68
514.22	20447.32
514.58	21249.12
514.94	22079.47
515.30	22932.03
515.65	23735.63
516.01	24549.88
516.37	25373.96
516.73	26131.71
517.08	26991.10
517.44	27832.36
517.80	28646.21
518.16	29497.61
518.51	30328.54
518.87	31056.26
519.23	31917.84
519.59	32778.45
519.94	33582.08
520.30	34477.85
520.66	35252.99
521.01	36045.75
521.37	36721.95
521.73	37371.08
522.09	37941.65
522.44	38583.31
522.80	38982.68
523.16	39335.49
523.51	39586.46
523.87	39876.88
524.23	40127.57
524.58	40381.01
524.94	40771.85
525.30	41109.73
525.65	41284.64
526.01	41337.61
526.37	41352.35
526.72	41268.56
527.08	41158.98
527.44	40983.11
527.79	40836.71
528.15	40725.06
528.51	40494.01
528.86	40240.18
529.22	40029.20
529.58	39763.29
529.93	39379.65
530.29	38937.55
530.65	38591.17
531.00	38217.18
531.36	37769.51
531.71	37315.49
532.07	36861.03
532.43	36268.15
532.78	35613.03
533.14	35069.28
533.49	34529.50
533.85	33913.87
534.21	33294.10
534.56	32749.01
534.92	32130.83
535.27	31494.39
535.63	30902.98
535.98	30326.46
536.34	29694.89
536.69	29053.37
537.05	28430.60
537.41	27890.88
537.76	27374.09
538.12	26844.38
538.47	26383.99
538.83	25932.15
539.18	25477.25
539.54	25008.11
539.89	24558.80
540.25	24035.31
540.60	23565.40
540.96	23064.29
541.31	22587.55
541.67	22172.92
542.02	21775.74
542.38	21331.41
542.73	20893.75
543.09	20498.67
543.44	20119.90
543.80	19785.32
544.15	19402.20
544.51	19078.27
544.86	18763.35
545.22	18401.36
545.57	18024.35
545.93	17673.78
546.28	17349.57
546.64	17028.61
546.99	16684.72
547.35	16362.94
547.70	16067.99
548.05	15761.21
548.41	15443.11
548.76	15149.14
549.12	14847.75
549.47	14560.66
549.83	14291.94
550.18	13976.27
550.53	13659.13
550.89	13387.82
551.24	13125.79
551.60	12827.84
551.95	12596.46
552.30	12366.95
552.66	12136.68
553.01	11898.77
553.37	11628.62
553.72	11333.74
554.07	11063.20
554.43	10769.09
554.78	10477.13
555.13	10226.25
555.49	10005.95
555.84	9808.32
556.19	9626.58
556.55	9430.44
556.90	9233.90
557.26	9025.01
557.61	8798.33
557.96	8549.09
558.32	8349.00
558.67	8154.87
559.02	7942.00
559.37	7766.53
559.73	7625.58
560.08	7465.00
560.43	7302.68
560.79	7180.93
561.14	7029.64
561.49	6865.96
561.85	6711.35
562.20	6569.49
562.55	6430.88
562.90	6300.04
563.26	6181.66
563.61	6069.43
563.96	5955.77
564.32	5841.63
564.67	5720.55
565.02	5592.52
565.37	5478.14
565.73	5368.42
566.08	5253.54
566.43	5150.49
566.78	5047.53
567.14	4933.97
567.49	4823.52
567.84	4726.29
568.19	4626.00
568.54	4532.42
568.90	4452.75
569.25	4376.68
569.60	4302.44
569.95	4226.54
570.31	4154.71
570.66	4077.38
571.01	3983.59
571.36	3890.25
571.71	3815.54
572.06	3743.90
572.42	3678.20
572.77	3632.58
573.12	3583.83
573.47	3532.36
573.82	3472.79
574.18	3407.35
574.53	3344.79
574.88	3288.76
575.23	3229.12
575.58	3179.36
575.93	3138.99
576.28	3086.30
576.64	3025.70
576.99	2967.31
577.34	2908.77
577.69	2847.19
578.04	2795.65
578.39	2753.66
578.74	2718.72
579.09	2682.96
579.44	2645.74
579.80	2607.36
580.15	2566.73
580.50	2523.59
580.85	2481.48
581.20	2448.11
581.55	2417.61
581.90	2391.35
582.25	2362.63
582.60	2331.15
582.95	2296.70
583.30	2259.74
583.65	2222.92
584.00	2184.33
584.35	2156.29
584.71	2121.91
585.06	2096.14
585.41	2065.50
585.76	2041.93
586.11	2013.05
586.46	1992.01
586.81	1963.87
587.16	1941.57
587.51	1923.94
587.86	1906.13
588.21	1887.99
588.56	1869.50
588.91	1853.38
589.26	1832.10
589.61	1811.69
589.96	1796.01
590.31	1778.41
590.66	1761.74
591.01	1743.35
591.36	1725.14
591.71	1702.46
592.06	1689.47
592.41	1673.81
592.76	1660.84
593.10	1649.82
593.45	1638.19
593.80	1619.74
594.15	1600.20
594.50	1587.23
594.85	1573.19
595.20	1561.63
595.55	1554.21
595.90	1550.56
596.25	1535.81
596.60	1523.22
596.95	1509.46
597.30	1499.30
597.64	1535.60
597.99	1532.56
598.34	1525.89
598.69	1518.49
599.04	1509.29
599.39	1450.08
599.74	1439.36
600.09	1430.98
600.44	1423.21
600.78	1412.89
601.13	1407.74
601.48	1398.35
601.83	1391.87
602.18	1386.56
602.53	1382.65
602.88	1373.33
603.22	1369.21
603.57	1361.65
603.92	1355.36
604.27	1349.23
604.62	1342.84
604.97	1334.62
605.31	1326.12
605.66	1317.35
606.01	1309.58
606.36	1308.10
606.71	1303.26
607.05	1298.20
607.40	1292.68
607.75	1286.69
608.10	1277.16
608.44	1272.71
608.79	1273.18
609.14	1268.87
609.49	1265.81
609.84	1265.25
610.18	1261.76
610.53	1257.13
610.88	1259.75
611.23	1256.96
611.57	1257.05
611.92	1250.99
612.27	1249.61
612.62	1242.75
612.96	1236.18
613.31	1228.50
613.66	1226.11
614.00	1217.66
614.35	1215.28
614.70	1213.66
615.05	1212.35
615.39	1211.72
615.74	1209.24
616.09	1205.24
616.43	1202.08
616.78	1197.84
617.13	1193.98
617.47	1193.09
617.82	1191.19
618.17	1191.54
618.51	1188.03
618.86	1186.25
619.21	1183.30
619.55	1178.65
619.90	1176.17
620.25	1173.36
620.59	1171.48
620.94	1171.04
621.29	1173.76
621.63	1168.00
621.98	1167.04
622.32	1163.36
622.67	1160.16
623.02	1155.34
623.36	1158.82
623.71	1158.07
624.05	1157.37
624.40	1157.30
624.75	1153.23
625.09	1150.49
625.44	1147.03
625.78	1145.97
626.13	1144.76
626.48	1146.04
626.82	1142.51
627.17	1143.66
627.51	1142.74
627.86	1140.75
628.20	1140.80
628.55	1143.47
628.89	1142.53
629.24	1139.65
629.58	1136.54
629.93	1134.67
630.28	1132.80
630.62	1130.06
630.97	1129.82
631.31	1132.21
631.66	1128.89
632.00	1128.40
632.35	1126.92
632.69	1126.59
633.04	1122.68
633.38	1125.05
633.73	1125.24
634.07	1127.48
634.42	1124.56
634.76	1127.13
635.11	1125.68
635.45	1121.75
635.79	1121.19
636.14	1122.90
636.48	1121.05
636.83	1118.85
637.17	1120.32
637.52	1119.34
637.86	1116.15
638.21	1113.35
638.55	1117.93
638.89	1117.98
639.24	1115.76
639.58	1117.61
639.93	1119.67
640.27	1117.25
640.61	1115.43
640.96	1114.24
641.30	1110.65
641.65	1109.04
641.99	1106.72
642.33	1105.27
642.68	1103.68
643.02	1102.06
643.37	1100.38
643.71	1098.98
644.05	1100.52
644.40	1100.31
644.74	1102.28
645.08	1100.73
645.43	1099.72
645.77	1096.59
646.11	1098.55
646.46	1095.51
646.80	1097.55
647.14	1099.47
647.49	1099.05
647.83	1098.48
648.17	1102.49
648.52	1103.40
648.86	1103.70
649.20	1106.72
649.55	1108.27
649.89	1106.63
650.23	1101.85
650.57	1101.22
650.92	1100.45
651.26	1099.37
651.60	1099.72
651.95	1100.54
652.29	1101.95
652.63	1100.50
652.97	1098.53
653.32	1100.29
653.66	1103.00
654.00	1101.39
654.34	1100.47
654.69	1098.13
655.03	1096.00
655.37	1095.44
655.71	1094.83
656.05	1095.84
656.40	1099.58
656.74	1101.06
657.08	1100.19
657.42	1102.49
657.76	1100.19
658.11	1097.92
658.45	1096.24
658.79	1098.04
659.13	1094.97
659.47	1096.99
659.82	1098.18
660.16	1097.55
660.50	1098.46
660.84	1098.20
661.18	1099.91
661.52	1098.25
661.87	1100.19
662.21	1096.26
662.55	1095.49
662.89	1093.33
663.23	1095.63
663.57	1093.05
663.91	1095.30
664.25	1097.17
664.60	1099.56
664.94	1097.41
665.28	1098.32
665.62	1097.76
665.96	1096.26
666.30	1092.63
666.64	1093.87
666.98	1094.18
667.32	1091.93
667.66	1091.91
668.01	1093.29
668.35	1092.52
668.69	1091.79
669.03	1095.86
669.37	1096.80
669.71	1098.76
670.05	1098.37
670.39	1099.77
670.73	1097.15
671.07	1094.55
671.41	1093.26
671.75	1093.26
672.09	1090.46
672.43	1090.41
672.77	1095.14
673.11	1095.44
673.45	1098.58
673.79	1100.47
674.13	1100.24
674.47	1096.92
674.81	1093.97
675.15	1091.42
675.49	1094.36
675.83	1095.30
676.17	1093.80
676.51	1095.56
676.85	1094.13
677.19	1090.76
677.53	1091.63
677.87	1093.52
678.21	1093.43
678.55	1092.87
678.89	1096.40
679.23	1093.83
679.57	1092.91
679.90	1091.77
680.24	1095.25
680.58	1090.85
680.92	1088.72
681.26	1090.01
681.60	1090.60
681.94	1089.50
682.28	1088.04
682.62	1093.97
682.96	1091.44
683.29	1092.07
683.63	1092.61
683.97	1094.43
684.31	1092.02
684.65	1093.62
684.99	1090.67
685.33	1090.29
685.67	1090.34
686.00	1091.37
686.34	1089.92
686.68	1092.30
687.02	1090.67
687.36	1091.49
687.70	1088.84
688.03	1091.11
688.37	1092.37
688.71	1094.15
689.05	1094.74
689.39	1094.20
689.72	1093.69
690.06	1092.14
690.40	1092.28
690.74	1091.20
691.08	1092.68
691.41	1093.55
691.75	1092.70
692.09	1093.40
692.43	1093.33
692.76	1092.37
693.10	1093.80
693.44	1094.67
693.78	1094.25
694.11	1092.91
694.45	1092.35
694.79	1091.95
695.13	1093.10
695.46	1090.53
695.80	1095.51
696.14	1096.78
696.48	1096.31
696.81	1095.46
697.15	1097.50
697.49	1094.27
697.82	1094.41
698.16	1092.37
698.50	1091.77
698.83	1091.27
699.17	1091.27
699.51	1090.55
699.84	1089.59
700.18	1090.78
700.52	1089.82
700.85	1089.71
701.19	1091.23
701.53	1091.72
701.86	1091.11
702.20	1090.76
702.54	1086.17
702.87	1084.46
703.21	1085.42
703.55	1084.39
703.88	1084.51
704.22	1089.59
704.55	1089.31
704.89	1091.51
705.23	1093.59
705.56	1093.08
705.90	1092.91
706.23	1091.79
706.57	1090.29
706.91	1087.60
707.24	1088.02
707.58	1089.59
707.91	1090.03
708.25	1088.51
708.58	1090.78
708.92	1091.16
709.26	1090.32
709.59	1096.24
709.93	1096.28
710.26	1094.62
710.60	1092.84
710.93	1092.70
711.27	1088.68
711.60	1089.19
711.94	1088.37
712.27	1089.52
712.61	1089.96
712.94	1089.87
713.28	1092.63
713.61	1096.96
713.95	1095.98
714.28	1095.23
714.62	1094.20
714.95	1091.49
715.29	1088.86
715.62	1090.53
715.96	1089.96
716.29	1087.18
716.63	1085.45
716.96	1084.21
717.29	1084.67
717.63	1084.65
717.96	1086.90
718.30	1088.96
718.63	1090.10
718.97	1087.55
719.30	1087.76
719.63	1091.77
719.97	1093.47
720.30	1093.92
720.64	1096.17
720.97	1096.21
721.30	1092.37
721.64	1090.69
721.97	1091.39
722.31	1093.15
722.64	1092.16
722.97	1092.80
723.31	1091.39
723.64	1090.06
723.97	1089.05
724.31	1088.72
724.64	1086.71
724.98	1086.83
725.31	1086.22
725.64	1087.20
725.98	1088.82
726.31	1091.84
726.64	1092.09
726.97	1092.28
727.31	1085.40
727.64	1079.99
727.97	1078.64
728.31	1075.90
728.64	1074.59
728.97	1076.69
729.31	1079.46
729.64	1079.64
729.97	1078.92
730.30	1081.28
730.64	1087.25
730.97	1086.94
731.30	1085.14
731.63	1091.16
731.97	1088.84
732.30	1088.12
732.63	1090.29
732.96	1092.98
733.30	1092.89
733.63	1094.65
733.96	1093.08
734.29	1091.16
734.63	1089.26
734.96	1086.66
735.29	1085.42
735.62	1082.92
735.95	1087.30
736.29	1088.21
736.62	1089.19
736.95	1087.53
737.28	1088.23
737.61	1083.95
737.94	1083.79
738.28	1084.00
738.61	1084.28
738.94	1082.66
739.27	1085.99
739.60	1088.51
739.93	1089.52
740.27	1091.77
740.60	1093.43
740.93	1088.49
741.26	1087.41
741.59	1090.17
741.92	1089.10
742.25	1088.16
742.58	1091.56
742.91	1088.37
743.25	1081.70
743.58	1082.92
743.91	1083.88
744.24	1081.63
744.57	1085.96
744.90	1087.76
745.23	1084.91
745.56	1082.22
745.89	1084.04
746.22	1079.76
746.55	1079.85
746.88	1079.53
747.21	1082.36
747.54	1081.94
747.87	1084.67
748.20	1084.04
748.53	1085.66
748.87	1087.44
749.20	1088.63
749.53	1089.43
749.86	1088.42
750.19	1089.78
750.52	1087.90
750.85	1088.09
751.18	1083.69
751.51	1085.38
751.84	1084.14
752.16	1084.49
752.49	1081.51
752.82	1083.04
753.15	1083.04
753.48	1082.80
753.81	1080.46
754.14	1081.30
754.47	1082.22
754.80	1082.05
755.13	1081.84
755.46	1083.32
755.79	1084.72
756.12	1085.82
756.45	1088.56
756.78	1087.60
757.11	1085.66
757.43	1083.32
757.76	1082.12
758.09	1079.29
758.42	1079.60
758.75	1083.36
759.08	1082.10
759.41	1083.22
759.74	1082.85
760.07	1083.25
760.39	1083.27
760.72	1088.79
761.05	1085.91
761.38	1088.70
761.71	1091.16
762.04	1088.37
762.36	1085.56
762.69	1088.91
763.02	1087.44
763.35	1087.13
