SpectraSuite Data File
++++++++++++++++++++++++++++++++++++
Date: Mon Aug 26 10:26:42 PDT 2019
User: corrico
Dark Spectrum Present: No
Reference Spectrum Present: No
Number of Sampled Component Spectra: 1
Spectrometers: USB2+H06089
Integration Time (usec): 10000 (USB2+H06089)
Spectra Averaged: 20 (USB2+H06089)
Boxcar Smoothing: 2 (USB2+H06089)
Correct for Electrical Dark: No (USB2+H06089)
Strobe/Lamp Enabled: No (USB2+H06089)
Correct for Detector Non-linearity: No (USB2+H06089)
Correct for Stray Light: No (USB2+H06089)
Number of Pixels in Processed Spectrum: 2048
>>>>>Begin Processed Spectral Data<<<<<
339.70	1034.63
340.07	1034.63
340.45	997.84
340.82	976.89
341.19	951.12
341.57	925.56
341.94	919.20
342.31	913.18
342.69	906.54
343.06	903.91
343.43	902.49
343.81	898.74
344.18	901.29
344.55	906.35
344.93	912.43
345.30	920.18
345.67	928.28
346.04	935.82
346.42	944.76
346.79	954.24
347.16	962.45
347.54	973.66
347.91	982.35
348.28	992.13
348.65	1003.74
349.03	1014.53
349.40	1024.24
349.77	1032.50
350.14	1037.58
350.52	1043.32
350.89	1048.00
351.26	1053.99
351.63	1061.41
352.01	1069.02
352.38	1073.84
352.75	1076.48
353.12	1077.58
353.50	1078.50
353.87	1078.92
354.24	1080.06
354.61	1084.98
354.98	1086.52
355.36	1087.46
355.73	1090.10
356.10	1091.04
356.47	1089.31
356.84	1088.75
357.22	1093.12
357.59	1088.19
357.96	1086.62
358.33	1087.02
358.70	1092.12
359.08	1089.38
359.45	1093.43
359.82	1091.84
360.19	1088.56
360.56	1085.24
360.94	1081.35
361.31	1079.53
361.68	1082.08
362.05	1086.24
362.42	1086.15
362.79	1087.44
363.16	1086.87
363.54	1084.51
363.91	1083.18
364.28	1079.69
364.65	1080.25
365.02	1079.43
365.39	1081.37
365.76	1081.12
366.14	1081.89
366.51	1078.12
366.88	1077.23
367.25	1077.58
367.62	1075.57
367.99	1074.35
368.36	1076.15
368.73	1077.35
369.10	1077.40
369.48	1078.99
369.85	1081.02
370.22	1079.81
370.59	1080.39
370.96	1079.88
371.33	1079.74
371.70	1079.55
372.07	1080.23
372.44	1080.51
372.81	1077.68
373.18	1077.98
373.55	1078.24
373.93	1077.56
374.30	1078.64
374.67	1079.81
375.04	1078.92
375.41	1078.33
375.78	1079.46
376.15	1078.00
376.52	1079.64
376.89	1080.74
377.26	1081.77
377.63	1084.04
378.00	1087.11
378.37	1085.68
378.74	1082.47
379.11	1082.64
379.48	1077.82
379.85	1071.87
380.22	1075.08
380.59	1078.26
380.96	1075.97
381.33	1080.67
381.70	1083.67
382.07	1084.07
382.44	1083.08
382.81	1086.10
383.18	1086.45
383.55	1089.89
383.92	1087.32
384.29	1090.62
384.66	1090.85
385.03	1089.26
385.40	1087.27
385.77	1089.52
386.14	1089.66
386.51	1090.39
386.88	1087.67
387.25	1087.34
387.62	1084.53
387.99	1081.94
388.36	1082.15
388.73	1085.73
389.10	1087.04
389.46	1091.88
389.83	1092.70
390.20	1092.02
390.57	1090.69
390.94	1092.07
391.31	1089.07
391.68	1088.40
392.05	1088.58
392.42	1090.20
392.79	1089.82
393.16	1089.92
393.53	1090.95
393.89	1091.04
394.26	1088.16
394.63	1087.37
395.00	1086.36
395.37	1087.95
395.74	1089.80
396.11	1094.27
396.48	1092.56
396.84	1093.80
397.21	1089.03
397.58	1085.45
397.95	1082.99
398.32	1086.71
398.69	1087.53
399.06	1092.37
399.42	1092.94
399.79	1095.44
400.16	1097.29
400.53	1094.81
400.90	1093.17
401.27	1094.83
401.64	1096.68
402.00	1094.67
402.37	1097.41
402.74	1098.93
403.11	1097.01
403.48	1096.00
403.84	1093.73
404.21	1091.58
404.58	1094.46
404.95	1096.49
405.32	1095.37
405.68	1097.29
406.05	1098.93
406.42	1096.70
406.79	1098.44
407.16	1099.63
407.52	1100.12
407.89	1100.45
408.26	1098.81
408.63	1096.03
408.99	1098.53
409.36	1097.62
409.73	1096.54
410.10	1095.67
410.47	1095.14
410.83	1091.95
411.20	1092.35
411.57	1092.52
411.94	1093.05
412.30	1093.26
412.67	1091.88
413.04	1092.42
413.40	1095.18
413.77	1100.71
414.14	1101.97
414.51	1105.74
414.87	1106.86
415.24	1109.09
415.61	1105.83
415.97	1105.51
416.34	1105.13
416.71	1103.31
417.08	1102.84
417.44	1104.01
417.81	1110.02
418.18	1110.61
418.54	1111.85
418.91	1106.79
419.28	1107.87
419.64	1101.67
420.01	1099.19
420.38	1097.88
420.74	1101.88
421.11	1099.42
421.48	1105.72
421.84	1106.56
422.21	1109.65
422.58	1111.54
422.94	1114.63
423.31	1110.96
423.68	1115.01
424.04	1115.69
424.41	1110.12
424.77	1108.36
425.14	1106.39
425.51	1103.09
425.87	1103.02
426.24	1107.49
426.61	1110.37
426.97	1116.76
427.34	1118.10
427.70	1119.41
428.07	1119.15
428.44	1113.49
428.80	1110.26
429.17	1111.10
429.53	1111.01
429.90	1108.08
430.27	1107.94
430.63	1107.66
431.00	1109.65
431.36	1109.55
431.73	1112.06
432.09	1115.87
432.46	1116.20
432.83	1114.54
433.19	1110.72
433.56	1111.12
433.92	1109.95
434.29	1110.98
434.65	1111.80
435.02	1114.40
435.38	1113.77
435.75	1115.48
436.11	1116.37
436.48	1117.58
436.84	1114.96
437.21	1113.74
437.57	1111.19
437.94	1106.56
438.30	1102.06
438.67	1105.01
439.03	1108.57
439.40	1110.16
439.76	1110.61
440.13	1111.22
440.49	1109.91
440.86	1107.61
441.22	1107.96
441.59	1110.35
441.95	1112.13
442.32	1112.06
442.68	1112.01
443.05	1112.60
443.41	1114.24
443.78	1113.30
444.14	1114.52
444.51	1115.43
444.87	1116.18
445.24	1114.80
445.60	1114.89
445.96	1112.90
446.33	1110.54
446.69	1108.55
447.06	1108.64
447.42	1107.66
447.79	1106.75
448.15	1107.73
448.51	1110.23
448.88	1111.01
449.24	1112.88
449.61	1115.22
449.97	1118.64
450.33	1114.35
450.70	1112.36
451.06	1112.29
451.43	1112.67
451.79	1110.35
452.15	1111.75
452.52	1111.05
452.88	1108.62
453.24	1108.78
453.61	1109.79
453.97	1110.21
454.34	1111.87
454.70	1111.92
455.06	1112.29
455.43	1113.23
455.79	1110.91
456.15	1110.02
456.52	1110.37
456.88	1107.87
457.24	1106.00
457.61	1109.44
457.97	1113.07
458.33	1116.83
458.70	1116.74
459.06	1116.97
459.42	1116.60
459.79	1111.57
460.15	1110.84
460.51	1113.42
460.88	1112.29
461.24	1114.28
461.60	1116.18
461.96	1117.65
462.33	1115.03
462.69	1119.17
463.05	1118.40
463.42	1120.11
463.78	1117.56
464.14	1120.32
464.50	1121.23
464.87	1124.07
465.23	1124.37
465.59	1125.66
465.95	1131.72
466.32	1130.17
466.68	1126.64
467.04	1126.36
467.40	1127.62
467.77	1123.83
468.13	1123.43
468.49	1127.81
468.85	1130.27
469.22	1132.49
469.58	1135.39
469.94	1138.02
470.30	1135.67
470.66	1138.74
471.03	1142.58
471.39	1144.24
471.75	1146.79
472.11	1155.08
472.47	1157.25
472.84	1158.80
473.20	1156.08
473.56	1157.56
473.92	1157.28
474.28	1158.40
474.65	1160.37
475.01	1169.38
475.37	1171.27
475.73	1177.06
476.09	1181.43
476.45	1185.88
476.81	1189.48
477.18	1195.12
477.54	1200.18
477.90	1207.95
478.26	1215.58
478.62	1222.65
478.98	1231.94
479.34	1236.53
479.71	1240.13
480.07	1244.35
480.43	1250.08
480.79	1260.57
481.15	1272.10
481.51	1287.29
481.87	1299.65
482.23	1312.27
482.59	1322.64
482.96	1336.12
483.32	1347.28
483.68	1360.20
484.04	1377.29
484.40	1394.00
484.76	1409.73
485.12	1426.72
485.48	1448.91
485.84	1465.60
486.20	1484.11
486.56	1508.22
486.92	1533.03
487.28	1556.85
487.64	1580.87
488.00	1610.85
488.37	1638.00
488.73	1672.80
489.09	1706.34
489.45	1744.00
489.81	1781.17
490.17	1817.17
490.53	1851.90
490.89	1891.60
491.25	1934.59
491.61	1974.73
491.97	2024.89
492.33	2076.48
492.69	2124.76
493.05	2180.86
493.41	2244.74
493.77	2304.05
494.13	2367.33
494.49	2435.84
494.85	2504.63
495.21	2573.56
495.57	2648.34
495.93	2731.17
496.29	2818.59
496.64	2910.88
497.00	3003.28
497.36	3105.52
497.72	3206.72
498.08	3321.62
498.44	3435.84
498.80	3564.31
499.16	3693.90
499.52	3833.82
499.88	3982.49
500.24	4138.28
500.60	4290.18
500.96	4454.09
501.32	4625.18
501.68	4795.55
502.03	4980.12
502.39	5195.22
502.75	5408.28
503.11	5637.98
503.47	5866.55
503.83	6104.96
504.19	6354.30
504.55	6616.74
504.91	6892.13
505.26	7169.86
505.62	7473.19
505.98	7785.53
506.34	8118.76
506.70	8471.99
507.06	8858.93
507.42	9262.48
507.78	9662.76
508.13	10080.78
508.49	10511.72
508.85	10973.72
509.21	11435.04
509.57	11956.72
509.93	12502.98
510.28	13072.99
510.64	13686.07
511.00	14304.49
511.36	14885.60
511.72	15480.72
512.07	16139.89
512.43	16747.38
512.79	17423.21
513.15	18144.75
513.51	18875.67
513.86	19598.05
514.22	20434.26
514.58	21213.73
514.94	22050.28
515.30	22891.77
515.65	23695.47
516.01	24509.34
516.37	25362.86
516.73	26133.56
517.08	27000.54
517.44	27840.79
517.80	28631.54
518.16	29470.11
518.51	30290.44
518.87	31015.80
519.23	31869.02
519.59	32744.73
519.94	33563.84
520.30	34431.11
520.66	35214.23
521.01	36016.21
521.37	36701.66
521.73	37320.52
522.09	37915.13
522.44	38558.48
522.80	38958.92
523.16	39313.72
523.51	39572.49
523.87	39885.96
524.23	40136.75
524.58	40398.70
524.94	40790.41
525.30	41166.44
525.65	41342.71
526.01	41399.42
526.37	41427.08
526.72	41327.71
527.08	41187.58
527.44	41026.85
527.79	40862.83
528.15	40733.79
528.51	40501.22
528.86	40262.69
529.22	39995.00
529.58	39775.04
529.93	39420.31
530.29	38977.32
530.65	38612.87
531.00	38281.40
531.36	37812.59
531.71	37325.93
532.07	36874.77
532.43	36296.77
532.78	35631.45
533.14	35074.33
533.49	34528.96
533.85	33919.58
534.21	33299.85
534.56	32746.76
534.92	32144.73
535.27	31509.46
535.63	30904.25
535.98	30297.11
536.34	29681.39
536.69	29027.68
537.05	28427.96
537.41	27924.86
537.76	27439.46
538.12	26888.61
538.47	26419.01
538.83	25977.09
539.18	25500.86
539.54	25013.00
539.89	24544.61
540.25	24021.22
540.60	23537.69
540.96	23031.99
541.31	22567.09
541.67	22156.12
542.02	21776.27
542.38	21332.34
542.73	20884.32
543.09	20479.94
543.44	20118.40
543.80	19765.50
544.15	19378.16
544.51	19052.29
544.86	18738.07
545.22	18374.07
545.57	18005.74
545.93	17649.51
546.28	17343.07
546.64	17023.09
546.99	16681.14
547.35	16351.75
547.70	16064.97
548.05	15748.76
548.41	15448.19
548.76	15158.25
549.12	14877.62
549.47	14601.15
549.83	14334.61
550.18	13997.04
550.53	13667.09
550.89	13399.57
551.24	13125.35
551.60	12835.26
551.95	12604.91
552.30	12386.21
552.66	12139.05
553.01	11903.01
553.37	11635.62
553.72	11359.49
554.07	11094.51
554.43	10802.98
554.78	10507.98
555.13	10245.55
555.49	10027.46
555.84	9825.41
556.19	9648.62
556.55	9455.60
556.90	9265.99
557.26	9058.20
557.61	8837.16
557.96	8591.59
558.32	8394.00
558.67	8194.26
559.02	7970.93
559.37	7793.31
559.73	7648.61
560.08	7480.24
560.43	7316.42
560.79	7193.94
561.14	7039.49
561.49	6873.97
561.85	6721.71
562.20	6583.46
562.55	6442.96
562.90	6318.09
563.26	6192.92
563.61	6084.97
563.96	5978.55
564.32	5868.73
564.67	5739.93
565.02	5623.91
565.37	5502.95
565.73	5388.47
566.08	5276.27
566.43	5172.51
566.78	5069.20
567.14	4968.14
567.49	4862.74
567.84	4755.52
568.19	4654.39
568.54	4562.36
568.90	4471.99
569.25	4385.58
569.60	4312.34
569.95	4239.95
570.31	4169.03
570.66	4093.71
571.01	4016.03
571.36	3923.65
571.71	3844.21
572.06	3762.88
572.42	3696.17
572.77	3636.26
573.12	3582.73
573.47	3528.15
573.82	3468.74
574.18	3408.64
574.53	3348.74
574.88	3299.59
575.23	3249.83
575.58	3200.28
575.93	3145.56
576.28	3096.58
576.64	3037.62
576.99	2975.48
577.34	2919.26
577.69	2867.58
578.04	2811.45
578.39	2763.33
578.74	2721.67
579.09	2683.92
579.44	2643.14
579.80	2603.45
580.15	2564.27
580.50	2528.15
580.85	2494.17
581.20	2462.55
581.55	2433.88
581.90	2406.87
582.25	2374.96
582.60	2337.77
582.95	2302.71
583.30	2261.19
583.65	2224.59
584.00	2188.33
584.35	2157.60
584.71	2122.94
585.06	2095.65
585.41	2065.97
585.76	2040.15
586.11	2012.14
586.46	1990.51
586.81	1971.99
587.16	1952.01
587.51	1931.60
587.86	1913.18
588.21	1894.24
588.56	1871.56
588.91	1848.25
589.26	1830.95
589.61	1808.46
589.96	1787.26
590.31	1770.80
590.66	1760.55
591.01	1741.99
591.36	1732.63
591.71	1718.87
592.06	1701.45
592.41	1680.79
592.76	1663.02
593.10	1646.17
593.45	1631.19
593.80	1616.30
594.15	1602.17
594.50	1592.24
594.85	1577.05
595.20	1563.62
595.55	1556.18
595.90	1547.52
596.25	1533.45
596.60	1523.97
596.95	1513.51
597.30	1500.85
597.64	1539.21
597.99	1534.06
598.34	1524.95
598.69	1520.08
599.04	1511.71
599.39	1455.70
599.74	1446.36
600.09	1435.68
600.44	1427.21
600.78	1420.63
601.13	1413.05
601.48	1405.59
601.83	1399.85
602.18	1393.86
602.53	1386.77
602.88	1375.53
603.22	1368.91
603.57	1362.75
603.92	1350.63
604.27	1343.96
604.62	1341.88
604.97	1336.38
605.31	1329.78
605.66	1324.44
606.01	1316.48
606.36	1306.91
606.71	1296.38
607.05	1287.79
607.40	1283.97
607.75	1282.10
608.10	1281.68
608.44	1279.08
608.79	1278.56
609.14	1273.74
609.49	1269.81
609.84	1260.96
610.18	1258.65
610.53	1255.60
610.88	1254.04
611.23	1250.78
611.57	1251.20
611.92	1247.62
612.27	1243.55
612.62	1240.23
612.96	1235.90
613.31	1231.17
613.66	1226.21
614.00	1220.40
614.35	1213.66
614.70	1208.70
615.05	1205.47
615.39	1204.91
615.74	1201.19
616.09	1197.98
616.43	1194.94
616.78	1190.51
617.13	1187.75
617.47	1185.34
617.82	1183.73
618.17	1184.31
618.51	1186.84
618.86	1182.63
619.21	1184.05
619.55	1185.65
619.90	1182.27
620.25	1173.97
620.59	1172.28
620.94	1171.13
621.29	1166.73
621.63	1165.84
621.98	1168.47
622.32	1166.87
622.67	1165.47
623.02	1162.45
623.36	1160.18
623.71	1158.03
624.05	1156.55
624.40	1151.78
624.75	1149.65
625.09	1145.55
625.44	1144.17
625.78	1144.19
626.13	1143.75
626.48	1142.30
626.82	1143.89
627.17	1139.96
627.51	1138.58
627.86	1137.73
628.20	1141.08
628.55	1141.27
628.89	1141.20
629.24	1137.87
629.58	1135.09
629.93	1130.57
630.28	1127.74
630.62	1128.89
630.97	1128.47
631.31	1130.22
631.66	1129.59
632.00	1130.31
632.35	1126.97
632.69	1126.92
633.04	1125.31
633.38	1124.37
633.73	1122.54
634.07	1124.56
634.42	1124.67
634.76	1126.45
635.11	1124.44
635.45	1121.98
635.79	1119.01
636.14	1118.59
636.48	1116.46
636.83	1115.71
637.17	1114.07
637.52	1115.43
637.86	1110.33
638.21	1106.28
638.55	1111.05
638.89	1113.56
639.24	1112.92
639.58	1116.69
639.93	1116.90
640.27	1112.90
640.61	1112.22
640.96	1110.40
641.30	1112.57
641.65	1114.40
641.99	1116.51
642.33	1115.83
642.68	1114.63
643.02	1112.41
643.37	1111.92
643.71	1110.87
644.05	1108.78
644.40	1106.96
644.74	1106.09
645.08	1105.36
645.43	1102.63
645.77	1103.75
646.11	1107.10
646.46	1103.94
646.80	1101.97
647.14	1102.98
647.49	1104.19
647.83	1105.32
648.17	1103.89
648.52	1103.63
648.86	1103.61
649.20	1104.19
649.55	1100.99
649.89	1104.29
650.23	1105.39
650.57	1105.93
650.92	1103.14
651.26	1102.53
651.60	1099.19
651.95	1099.05
652.29	1100.96
652.63	1100.92
652.97	1103.82
653.32	1104.29
653.66	1105.65
654.00	1102.77
654.34	1104.55
654.69	1100.61
655.03	1103.42
655.37	1103.23
655.71	1104.05
656.05	1101.81
656.40	1101.01
656.74	1099.70
657.08	1099.79
657.42	1099.26
657.76	1100.12
658.11	1102.67
658.45	1101.01
658.79	1098.02
659.13	1096.70
659.47	1096.05
659.82	1096.00
660.16	1097.80
660.50	1096.59
660.84	1096.40
661.18	1093.31
661.52	1094.76
661.87	1093.69
662.21	1096.73
662.55	1096.17
662.89	1098.86
663.23	1097.13
663.57	1094.90
663.91	1094.22
664.25	1092.84
664.60	1092.54
664.94	1092.52
665.28	1091.79
665.62	1092.07
665.96	1093.80
666.30	1092.16
666.64	1087.65
666.98	1091.34
667.32	1094.50
667.66	1095.53
668.01	1095.53
668.35	1102.18
668.69	1102.67
669.03	1098.41
669.37	1098.62
669.71	1098.72
670.05	1096.12
670.39	1094.60
670.73	1095.49
671.07	1094.41
671.41	1095.58
671.75	1093.94
672.09	1092.70
672.43	1089.14
672.77	1085.73
673.11	1083.93
673.45	1086.24
673.79	1088.37
674.13	1091.91
674.47	1099.05
674.81	1100.47
675.15	1100.71
675.49	1098.41
675.83	1097.80
676.17	1092.94
676.51	1095.46
676.85	1095.25
677.19	1097.29
677.53	1098.67
677.87	1097.83
678.21	1092.05
678.55	1090.13
678.89	1086.87
679.23	1086.59
679.57	1087.37
679.90	1092.14
680.24	1094.41
680.58	1094.97
680.92	1091.02
681.26	1091.37
681.60	1091.74
681.94	1090.27
682.28	1093.29
682.62	1094.34
682.96	1094.76
683.29	1092.96
683.63	1093.24
683.97	1096.00
684.31	1097.90
684.65	1091.11
684.99	1091.20
685.33	1089.31
685.67	1084.04
686.00	1081.98
686.34	1088.91
686.68	1087.53
687.02	1089.33
687.36	1089.45
687.70	1087.30
688.03	1088.44
688.37	1089.47
688.71	1089.71
689.05	1089.54
689.39	1090.17
689.72	1089.14
690.06	1088.28
690.40	1088.33
690.74	1088.65
691.08	1089.61
691.41	1087.74
691.75	1086.97
692.09	1087.37
692.43	1088.89
692.76	1090.10
693.10	1090.34
693.44	1094.20
693.78	1093.57
694.11	1092.26
694.45	1091.51
694.79	1094.25
695.13	1089.80
695.46	1090.32
695.80	1089.82
696.14	1089.40
696.48	1087.51
696.81	1088.14
697.15	1089.07
697.49	1089.73
697.82	1091.37
698.16	1090.92
698.50	1089.64
698.83	1091.39
699.17	1093.73
699.51	1092.05
699.84	1092.77
700.18	1092.89
700.52	1086.66
700.85	1083.81
701.19	1082.52
701.53	1081.98
701.86	1082.83
702.20	1084.77
702.54	1084.18
702.87	1086.27
703.21	1083.81
703.55	1084.46
703.88	1082.71
704.22	1084.39
704.55	1084.67
704.89	1087.83
705.23	1086.90
705.56	1087.04
705.90	1083.34
706.23	1083.18
706.57	1082.78
706.91	1084.74
707.24	1084.35
707.58	1085.42
707.91	1087.25
708.25	1084.84
708.58	1084.49
708.92	1084.86
709.26	1086.38
709.59	1085.82
709.93	1089.64
710.26	1090.99
710.60	1092.30
710.93	1093.55
711.27	1093.76
711.60	1092.42
711.94	1089.89
712.27	1091.44
712.61	1093.29
712.94	1092.68
713.28	1093.50
713.61	1093.97
713.95	1092.05
714.28	1087.44
714.62	1089.64
714.95	1090.06
715.29	1090.76
715.62	1090.29
715.96	1092.00
716.29	1090.24
716.63	1088.26
716.96	1087.18
717.29	1088.35
717.63	1088.21
717.96	1088.42
718.30	1088.86
718.63	1087.30
718.97	1085.99
719.30	1086.20
719.63	1084.67
719.97	1086.55
720.30	1089.29
720.64	1090.10
720.97	1091.11
721.30	1094.04
721.64	1091.42
721.97	1088.09
722.31	1088.86
722.64	1085.96
722.97	1083.04
723.31	1084.37
723.64	1085.52
723.97	1084.70
724.31	1087.41
724.64	1084.74
724.98	1081.70
725.31	1083.15
725.64	1084.93
725.98	1081.80
726.31	1083.25
726.64	1084.70
726.97	1086.52
727.31	1084.07
727.64	1087.83
727.97	1091.39
728.31	1091.88
728.64	1090.36
728.97	1091.81
729.31	1089.75
729.64	1089.54
729.97	1090.78
730.30	1089.52
730.64	1087.51
730.97	1087.23
731.30	1087.60
731.63	1086.36
731.97	1085.99
732.30	1088.68
732.63	1090.46
732.96	1089.22
733.30	1087.02
733.63	1087.69
733.96	1087.46
734.29	1087.51
734.63	1084.25
734.96	1085.84
735.29	1085.33
735.62	1083.81
735.95	1083.04
736.29	1085.17
736.62	1086.06
736.95	1086.69
737.28	1087.53
737.61	1086.48
737.94	1085.33
738.28	1084.00
738.61	1083.39
738.94	1081.68
739.27	1082.99
739.60	1084.09
739.93	1083.43
740.27	1085.35
740.60	1086.57
740.93	1086.45
741.26	1085.45
741.59	1085.89
741.92	1085.59
742.25	1087.37
742.58	1089.12
742.91	1091.70
743.25	1091.60
743.58	1090.29
743.91	1087.41
744.24	1086.57
744.57	1086.17
744.90	1088.37
745.23	1088.72
745.56	1089.31
745.89	1089.87
746.22	1086.94
746.55	1085.21
746.88	1084.79
747.21	1085.66
747.54	1082.71
747.87	1085.84
748.20	1084.53
748.53	1085.24
748.87	1085.80
749.20	1089.22
749.53	1086.03
749.86	1089.94
750.19	1092.21
750.52	1094.01
750.85	1088.26
751.18	1090.15
751.51	1090.29
751.84	1088.61
752.16	1085.89
752.49	1090.08
752.82	1088.98
753.15	1090.15
753.48	1088.37
753.81	1088.75
754.14	1086.36
754.47	1084.44
754.80	1080.44
755.13	1081.35
755.46	1080.06
755.79	1081.23
756.12	1084.89
756.45	1084.72
756.78	1085.82
757.11	1086.24
757.43	1086.06
757.76	1085.82
758.09	1084.89
758.42	1083.90
758.75	1084.58
759.08	1085.10
759.41	1085.49
759.74	1087.23
760.07	1088.09
760.39	1088.35
760.72	1087.81
761.05	1088.40
761.38	1087.11
761.71	1086.45
762.04	1084.30
762.36	1082.73
762.69	1082.01
763.02	1083.55
763.35	1082.59
