SpectraSuite Data File
++++++++++++++++++++++++++++++++++++
Date: Mon Aug 26 10:26:44 PDT 2019
User: corrico
Dark Spectrum Present: No
Reference Spectrum Present: No
Number of Sampled Component Spectra: 1
Spectrometers: USB2+H06089
Integration Time (usec): 10000 (USB2+H06089)
Spectra Averaged: 20 (USB2+H06089)
Boxcar Smoothing: 2 (USB2+H06089)
Correct for Electrical Dark: No (USB2+H06089)
Strobe/Lamp Enabled: No (USB2+H06089)
Correct for Detector Non-linearity: No (USB2+H06089)
Correct for Stray Light: No (USB2+H06089)
Number of Pixels in Processed Spectrum: 2048
>>>>>Begin Processed Spectral Data<<<<<
339.70	1042.24
340.07	1042.24
340.45	1002.62
340.82	975.47
341.19	950.37
341.57	923.65
341.94	912.11
342.31	907.54
342.69	905.13
343.06	904.48
343.43	904.92
343.81	905.04
344.18	903.00
344.55	906.47
344.93	907.31
345.30	910.84
345.67	919.50
346.04	933.85
346.42	943.52
346.79	952.20
347.16	963.65
347.54	971.91
347.91	979.23
348.28	986.63
348.65	994.91
349.03	1002.15
349.40	1011.88
349.77	1017.64
350.14	1027.10
350.52	1036.81
350.89	1044.79
351.26	1047.86
351.63	1055.79
352.01	1063.82
352.38	1068.38
352.75	1071.38
353.12	1079.10
353.50	1081.51
353.87	1081.96
354.24	1085.73
354.61	1088.91
354.98	1089.59
355.36	1088.58
355.73	1088.23
356.10	1085.70
356.47	1084.72
356.84	1081.44
357.22	1084.53
357.59	1085.54
357.96	1088.56
358.33	1089.40
358.70	1090.62
359.08	1087.02
359.45	1085.61
359.82	1081.98
360.19	1081.02
360.56	1081.84
360.94	1086.01
361.31	1086.20
361.68	1084.70
362.05	1087.20
362.42	1085.99
362.79	1085.63
363.16	1086.50
363.54	1085.56
363.91	1080.56
364.28	1081.77
364.65	1077.68
365.02	1076.13
365.39	1081.30
365.76	1083.83
366.14	1083.50
366.51	1085.94
366.88	1084.21
367.25	1082.85
367.62	1082.76
367.99	1081.98
368.36	1079.15
368.73	1081.40
369.10	1082.01
369.48	1082.71
369.85	1082.94
370.22	1089.07
370.59	1088.28
370.96	1084.49
371.33	1083.06
371.70	1081.21
372.07	1072.53
372.44	1072.48
372.81	1075.59
373.18	1075.87
373.55	1076.76
373.93	1081.82
374.30	1084.67
374.67	1085.14
375.04	1083.76
375.41	1083.86
375.78	1083.25
376.15	1081.75
376.52	1080.79
376.89	1082.19
377.26	1082.71
377.63	1084.39
378.00	1083.22
378.37	1083.27
378.74	1080.13
379.11	1080.95
379.48	1079.48
379.85	1081.51
380.22	1082.61
380.59	1084.49
380.96	1084.72
381.33	1083.93
381.70	1083.11
382.07	1081.94
382.44	1081.33
382.81	1083.46
383.18	1085.26
383.55	1085.80
383.92	1088.58
384.29	1092.30
384.66	1087.58
385.03	1088.40
385.40	1087.67
385.77	1088.65
386.14	1089.00
386.51	1094.15
386.88	1090.62
387.25	1091.20
387.62	1088.42
387.99	1084.89
388.36	1081.26
388.73	1082.24
389.10	1084.53
389.46	1086.64
389.83	1087.90
390.20	1088.89
390.57	1091.91
390.94	1087.53
391.31	1082.29
391.68	1082.10
392.05	1080.70
392.42	1079.92
392.79	1082.71
393.16	1087.25
393.53	1089.52
393.89	1090.29
394.26	1089.94
394.63	1091.42
395.00	1093.12
395.37	1093.92
395.74	1095.77
396.11	1096.17
396.48	1095.18
396.84	1091.60
397.21	1088.33
397.58	1089.22
397.95	1087.62
398.32	1087.76
398.69	1087.48
399.06	1089.12
399.42	1088.16
399.79	1089.05
400.16	1086.92
400.53	1091.34
400.90	1090.88
401.27	1090.29
401.64	1092.45
402.00	1097.08
402.37	1097.03
402.74	1098.13
403.11	1100.92
403.48	1099.49
403.84	1095.51
404.21	1095.70
404.58	1094.27
404.95	1092.91
405.32	1094.46
405.68	1092.75
406.05	1091.37
406.42	1091.11
406.79	1092.75
407.16	1094.01
407.52	1098.76
407.89	1097.01
408.26	1098.81
408.63	1099.63
408.99	1098.30
409.36	1096.31
409.73	1094.67
410.10	1095.35
410.47	1091.88
410.83	1091.16
411.20	1092.42
411.57	1096.21
411.94	1098.34
412.30	1099.96
412.67	1103.00
413.04	1106.79
413.40	1107.33
413.77	1105.48
414.14	1108.69
414.51	1109.27
414.87	1107.61
415.24	1108.36
415.61	1113.70
415.97	1112.53
416.34	1112.11
416.71	1110.07
417.08	1111.50
417.44	1108.95
417.81	1110.40
418.18	1109.79
418.54	1110.44
418.91	1108.83
419.28	1105.34
419.64	1102.74
420.01	1100.59
420.38	1101.95
420.74	1102.86
421.11	1104.73
421.48	1108.01
421.84	1110.37
422.21	1112.67
422.58	1112.08
422.94	1113.72
423.31	1111.57
423.68	1113.74
424.04	1111.94
424.41	1112.06
424.77	1114.87
425.14	1114.80
425.51	1113.49
425.87	1112.04
426.24	1113.67
426.61	1108.76
426.97	1110.96
427.34	1112.13
427.70	1114.17
428.07	1113.11
428.44	1114.12
428.80	1111.80
429.17	1112.34
429.53	1110.70
429.90	1112.99
430.27	1116.44
430.63	1115.64
431.00	1112.39
431.36	1112.34
431.73	1109.41
432.09	1106.77
432.46	1111.50
432.83	1112.85
433.19	1113.60
433.56	1117.35
433.92	1117.79
434.29	1115.29
434.65	1115.10
435.02	1117.28
435.38	1114.56
435.75	1114.07
436.11	1113.25
436.48	1113.70
436.84	1111.94
437.21	1112.36
437.57	1115.20
437.94	1118.05
438.30	1117.35
438.67	1118.66
439.03	1117.65
439.40	1114.02
439.76	1112.20
440.13	1113.56
440.49	1114.35
440.86	1116.79
441.22	1119.57
441.59	1118.54
441.95	1118.94
442.32	1114.61
442.68	1114.45
443.05	1114.33
443.41	1117.65
443.78	1116.11
444.14	1117.96
444.51	1116.32
444.87	1112.22
445.24	1109.58
445.60	1109.06
445.96	1108.85
446.33	1111.94
446.69	1115.41
447.06	1116.22
447.42	1119.60
447.79	1118.03
448.15	1115.17
448.51	1114.45
448.88	1112.99
449.24	1110.54
449.61	1114.17
449.97	1113.56
450.33	1111.82
450.70	1111.47
451.06	1110.07
451.43	1107.61
451.79	1108.59
452.15	1111.36
452.52	1111.85
452.88	1114.56
453.24	1114.94
453.61	1113.70
453.97	1113.72
454.34	1114.00
454.70	1110.70
455.06	1111.19
455.43	1111.89
455.79	1108.76
456.15	1108.20
456.52	1109.32
456.88	1109.46
457.24	1108.57
457.61	1110.58
457.97	1111.89
458.33	1113.63
458.70	1113.46
459.06	1114.07
459.42	1115.45
459.79	1115.24
460.15	1116.18
460.51	1115.87
460.88	1116.90
461.24	1119.48
461.60	1117.86
461.96	1116.48
462.33	1118.35
462.69	1116.34
463.05	1114.70
463.42	1117.00
463.78	1120.74
464.14	1121.44
464.50	1126.38
464.87	1127.76
465.23	1129.92
465.59	1128.04
465.95	1130.62
466.32	1129.80
466.68	1128.19
467.04	1129.21
467.40	1129.78
467.77	1131.27
468.13	1129.92
468.49	1130.57
468.85	1131.88
469.22	1133.71
469.58	1129.94
469.94	1133.62
470.30	1136.54
470.66	1136.42
471.03	1136.03
471.39	1139.63
471.75	1142.72
472.11	1145.25
472.47	1148.24
472.84	1155.66
473.20	1158.59
473.56	1158.35
473.92	1158.00
474.28	1159.64
474.65	1158.73
475.01	1162.38
475.37	1168.16
475.73	1177.10
476.09	1182.51
476.45	1189.02
476.81	1193.93
477.18	1200.88
477.54	1205.82
477.90	1212.14
478.26	1217.03
478.62	1223.80
478.98	1225.06
479.34	1232.03
479.71	1240.18
480.07	1249.89
480.43	1260.71
480.79	1272.57
481.15	1280.27
481.51	1288.56
481.87	1295.70
482.23	1303.40
482.59	1317.00
482.96	1332.16
483.32	1349.76
483.68	1367.04
484.04	1380.99
484.40	1396.08
484.76	1408.44
485.12	1424.50
485.48	1443.20
485.84	1463.05
486.20	1482.40
486.56	1502.76
486.92	1526.17
487.28	1550.07
487.64	1574.17
488.00	1605.89
488.37	1636.60
488.73	1661.71
489.09	1693.61
489.45	1730.80
489.81	1769.02
490.17	1807.13
490.53	1845.61
490.89	1882.52
491.25	1926.59
491.61	1964.67
491.97	2014.41
492.33	2071.02
492.69	2126.26
493.05	2179.81
493.41	2237.01
493.77	2296.16
494.13	2356.76
494.49	2421.82
494.85	2494.64
495.21	2567.43
495.57	2645.60
495.93	2728.55
496.29	2815.10
496.64	2908.86
497.00	3006.56
497.36	3105.21
497.72	3208.17
498.08	3319.32
498.44	3430.76
498.80	3549.63
499.16	3678.36
499.52	3812.85
499.88	3960.40
500.24	4116.65
500.60	4268.97
500.96	4430.54
501.32	4600.72
501.68	4765.78
502.03	4939.00
502.39	5146.63
502.75	5353.20
503.11	5580.19
503.47	5810.50
503.83	6060.65
504.19	6309.62
504.55	6574.03
504.91	6843.21
505.26	7128.12
505.62	7420.79
505.98	7727.61
506.34	8057.41
506.70	8409.97
507.06	8776.21
507.42	9169.63
507.78	9578.78
508.13	9989.13
508.49	10415.69
508.85	10882.58
509.21	11355.51
509.57	11858.28
509.93	12408.37
510.28	12990.32
510.64	13588.10
511.00	14176.98
511.36	14757.17
511.72	15331.54
512.07	15960.11
512.43	16565.87
512.79	17231.96
513.15	17953.76
513.51	18702.50
513.86	19432.23
514.22	20259.61
514.58	21056.58
514.94	21881.04
515.30	22713.75
515.65	23520.82
516.01	24337.80
516.37	25184.28
516.73	25969.98
517.08	26819.15
517.44	27635.41
517.80	28425.41
518.16	29242.09
518.51	30047.10
518.87	30782.07
519.23	31656.99
519.59	32531.83
519.94	33354.86
520.30	34232.58
520.66	35013.69
521.01	35794.63
521.37	36445.79
521.73	37063.67
522.09	37631.16
522.44	38273.40
522.80	38668.46
523.16	39034.92
523.51	39303.84
523.87	39602.00
524.23	39834.14
524.58	40117.93
524.94	40503.63
525.30	40843.00
525.65	41018.22
526.01	41069.87
526.37	41071.58
526.72	41001.69
527.08	40870.83
527.44	40693.37
527.79	40535.88
528.15	40413.21
528.51	40166.61
528.86	39945.55
529.22	39720.48
529.58	39473.13
529.93	39095.58
530.29	38680.89
530.65	38321.52
531.00	37972.36
531.36	37526.30
531.71	37078.91
532.07	36611.78
532.43	36033.02
532.78	35392.25
533.14	34850.20
533.49	34296.24
533.85	33688.43
534.21	33078.63
534.56	32525.42
534.92	31920.93
535.27	31287.35
535.63	30674.17
535.98	30067.39
536.34	29439.05
536.69	28789.67
537.05	28176.91
537.41	27665.55
537.76	27185.37
538.12	26646.98
538.47	26192.23
538.83	25763.54
539.18	25319.63
539.54	24844.93
539.89	24380.40
540.25	23851.60
540.60	23373.92
540.96	22858.87
541.31	22367.52
541.67	21973.84
542.02	21595.54
542.38	21163.99
542.73	20732.61
543.09	20352.22
543.44	19983.61
543.80	19636.42
544.15	19242.25
544.51	18926.16
544.86	18606.67
545.22	18247.50
545.57	17890.07
545.93	17559.14
546.28	17232.31
546.64	16925.35
546.99	16588.73
547.35	16266.28
547.70	15972.56
548.05	15656.50
548.41	15335.85
548.76	15048.03
549.12	14754.81
549.47	14477.78
549.83	14214.05
550.18	13917.29
550.53	13582.43
550.89	13301.87
551.24	13013.43
551.60	12729.54
551.95	12472.69
552.30	12244.98
552.66	12007.25
553.01	11765.99
553.37	11498.30
553.72	11221.30
554.07	10969.01
554.43	10693.42
554.78	10412.04
555.13	10155.89
555.49	9944.26
555.84	9756.66
556.19	9570.75
556.55	9376.98
556.90	9198.21
557.26	8979.04
557.61	8741.95
557.96	8498.84
558.32	8310.07
558.67	8094.51
559.02	7891.63
559.37	7711.69
559.73	7571.47
560.08	7413.30
560.43	7266.85
560.79	7149.47
561.14	7005.39
561.49	6836.52
561.85	6683.66
562.20	6533.02
562.55	6383.51
562.90	6260.16
563.26	6142.38
563.61	6023.35
563.96	5917.18
564.32	5800.78
564.67	5677.95
565.02	5560.48
565.37	5447.20
565.73	5342.76
566.08	5242.73
566.43	5136.70
566.78	5028.88
567.14	4924.72
567.49	4821.83
567.84	4720.56
568.19	4620.73
568.54	4533.55
568.90	4450.95
569.25	4371.79
569.60	4297.55
569.95	4227.90
570.31	4152.95
570.66	4078.97
571.01	3988.34
571.36	3899.03
571.71	3819.01
572.06	3749.75
572.42	3677.57
572.77	3622.42
573.12	3565.43
573.47	3506.47
573.82	3444.05
574.18	3380.74
574.53	3316.38
574.88	3263.10
575.23	3217.35
575.58	3172.55
575.93	3124.17
576.28	3074.48
576.64	3020.37
576.99	2957.06
577.34	2897.84
577.69	2848.15
578.04	2801.93
578.39	2757.69
578.74	2723.63
579.09	2688.99
579.44	2646.65
579.80	2607.71
580.15	2562.96
580.50	2519.19
580.85	2480.76
581.20	2450.33
581.55	2417.14
581.90	2389.69
582.25	2361.37
582.60	2323.89
582.95	2286.56
583.30	2247.76
583.65	2212.53
584.00	2173.98
584.35	2145.36
584.71	2116.43
585.06	2087.34
585.41	2056.61
585.76	2030.13
586.11	2006.96
586.46	1987.75
586.81	1969.56
587.16	1952.71
587.51	1936.72
587.86	1918.44
588.21	1894.83
588.56	1876.22
588.91	1848.60
589.26	1827.14
589.61	1799.94
589.96	1780.61
590.31	1762.42
590.66	1752.36
591.01	1735.46
591.36	1722.80
591.71	1705.60
592.06	1691.18
592.41	1675.57
592.76	1660.80
593.10	1642.40
593.45	1630.14
593.80	1611.37
594.15	1597.95
594.50	1582.90
594.85	1572.37
595.20	1562.94
595.55	1550.56
595.90	1539.39
596.25	1533.40
596.60	1523.74
596.95	1511.17
597.30	1505.85
597.64	1546.77
597.99	1535.88
598.34	1525.05
598.69	1515.78
599.04	1506.37
599.39	1444.65
599.74	1436.48
600.09	1430.68
600.44	1424.19
600.78	1417.69
601.13	1410.99
601.48	1403.39
601.83	1396.69
602.18	1389.30
602.53	1380.64
602.88	1372.42
603.22	1365.16
603.57	1353.84
603.92	1346.39
604.27	1342.23
604.62	1337.17
604.97	1330.48
605.31	1329.66
605.66	1323.39
606.01	1312.64
606.36	1307.49
606.71	1301.01
607.05	1294.01
607.40	1289.49
607.75	1287.58
608.10	1285.84
608.44	1283.06
608.79	1279.38
609.14	1276.32
609.49	1271.52
609.84	1265.79
610.18	1261.69
610.53	1257.92
610.88	1255.95
611.23	1255.49
611.57	1254.74
611.92	1250.36
612.27	1248.16
612.62	1240.84
612.96	1233.02
613.31	1227.21
613.66	1222.02
614.00	1218.90
614.35	1215.72
614.70	1216.47
615.05	1211.58
615.39	1212.07
615.74	1210.36
616.09	1208.11
616.43	1206.62
616.78	1203.74
617.13	1200.06
617.47	1192.78
617.82	1189.93
618.17	1184.62
618.51	1185.74
618.86	1181.53
619.21	1180.61
619.55	1175.86
619.90	1171.32
620.25	1169.00
620.59	1171.09
620.94	1170.31
621.29	1170.97
621.63	1170.90
621.98	1168.35
622.32	1163.78
622.67	1161.61
623.02	1159.17
623.36	1157.39
623.71	1156.93
624.05	1152.69
624.40	1151.64
624.75	1151.57
625.09	1149.20
625.44	1145.67
625.78	1145.62
626.13	1144.10
626.48	1141.08
626.82	1142.65
627.17	1144.10
627.51	1142.81
627.86	1140.31
628.20	1140.52
628.55	1133.57
628.89	1132.77
629.24	1134.01
629.58	1133.43
629.93	1130.48
630.28	1131.98
630.62	1129.26
630.97	1127.06
631.31	1128.70
631.66	1129.10
632.00	1128.84
632.35	1127.39
632.69	1129.68
633.04	1127.93
633.38	1127.30
633.73	1127.72
634.07	1128.82
634.42	1123.04
634.76	1120.98
635.11	1121.51
635.45	1120.18
635.79	1116.83
636.14	1117.72
636.48	1116.44
636.83	1113.39
637.17	1113.49
637.52	1115.48
637.86	1114.82
638.21	1115.43
638.55	1117.51
638.89	1117.40
639.24	1116.46
639.58	1117.09
639.93	1118.19
640.27	1115.34
640.61	1115.97
640.96	1117.09
641.30	1114.77
641.65	1112.43
641.99	1113.44
642.33	1112.36
642.68	1107.64
643.02	1109.32
643.37	1109.79
643.71	1107.99
644.05	1104.62
644.40	1103.59
644.74	1103.52
645.08	1103.19
645.43	1100.99
645.77	1099.75
646.11	1099.09
646.46	1094.93
646.80	1093.92
647.14	1097.22
647.49	1101.34
647.83	1103.33
648.17	1108.38
648.52	1108.36
648.86	1108.01
649.20	1104.92
649.55	1099.35
649.89	1095.82
650.23	1097.78
650.57	1097.43
650.92	1098.60
651.26	1100.82
651.60	1100.73
651.95	1098.79
652.29	1098.46
652.63	1095.93
652.97	1098.27
653.32	1099.75
653.66	1096.85
654.00	1095.65
654.34	1096.82
654.69	1097.73
655.03	1099.91
655.37	1101.71
655.71	1103.26
656.05	1106.65
656.40	1103.26
656.74	1099.28
657.08	1098.20
657.42	1096.87
657.76	1089.64
658.11	1092.35
658.45	1092.09
658.79	1091.93
659.13	1089.66
659.47	1093.92
659.82	1093.52
660.16	1095.39
660.50	1096.85
660.84	1098.76
661.18	1097.73
661.52	1097.41
661.87	1099.19
662.21	1100.47
662.55	1098.27
662.89	1097.36
663.23	1095.14
663.57	1093.73
663.91	1093.08
664.25	1093.29
664.60	1091.02
664.94	1093.69
665.28	1091.81
665.62	1091.56
665.96	1093.29
666.30	1096.78
666.64	1095.02
666.98	1095.39
667.32	1094.79
667.66	1094.39
668.01	1094.79
668.35	1096.40
668.69	1100.15
669.03	1102.25
669.37	1103.49
669.71	1103.02
670.05	1103.54
670.39	1100.50
670.73	1095.60
671.07	1093.22
671.41	1092.19
671.75	1092.30
672.09	1092.07
672.43	1093.78
672.77	1094.76
673.11	1092.80
673.45	1088.96
673.79	1086.97
674.13	1088.16
674.47	1086.15
674.81	1083.67
675.15	1086.80
675.49	1089.10
675.83	1087.39
676.17	1089.71
676.51	1094.13
676.85	1091.18
677.19	1088.28
677.53	1088.82
677.87	1087.11
678.21	1088.02
678.55	1088.00
678.89	1089.54
679.23	1088.58
679.57	1092.23
679.90	1092.19
680.24	1092.16
680.58	1090.10
680.92	1090.64
681.26	1088.09
681.60	1086.62
681.94	1087.37
682.28	1089.05
682.62	1088.14
682.96	1088.42
683.29	1089.61
683.63	1089.31
683.97	1087.62
684.31	1090.69
684.65	1090.06
684.99	1090.43
685.33	1092.98
685.67	1095.84
686.00	1095.51
686.34	1096.31
686.68	1091.88
687.02	1088.07
687.36	1087.53
687.70	1083.57
688.03	1083.01
688.37	1087.16
688.71	1090.50
689.05	1090.62
689.39	1093.31
689.72	1094.08
690.06	1089.24
690.40	1087.44
690.74	1087.62
691.08	1088.23
691.41	1086.43
691.75	1089.14
692.09	1088.49
692.43	1087.48
692.76	1087.27
693.10	1088.30
693.44	1093.31
693.78	1091.56
694.11	1089.38
694.45	1087.60
694.79	1088.96
695.13	1085.80
695.46	1088.33
695.80	1090.15
696.14	1091.46
696.48	1090.57
696.81	1090.55
697.15	1090.85
697.49	1092.59
697.82	1092.68
698.16	1091.95
698.50	1091.84
698.83	1093.52
699.17	1089.05
699.51	1089.05
699.84	1087.53
700.18	1087.27
700.52	1082.26
700.85	1082.52
701.19	1084.14
701.53	1088.51
701.86	1088.61
702.20	1092.87
702.54	1098.09
702.87	1096.96
703.21	1092.89
703.55	1091.74
703.88	1093.33
704.22	1089.75
704.55	1092.09
704.89	1095.58
705.23	1099.68
705.56	1094.72
705.90	1098.46
706.23	1096.49
706.57	1093.69
706.91	1092.12
707.24	1097.92
707.58	1095.00
707.91	1093.12
708.25	1095.65
708.58	1094.13
708.92	1092.28
709.26	1089.47
709.59	1089.22
709.93	1085.59
710.26	1087.41
710.60	1087.74
710.93	1090.67
711.27	1092.00
711.60	1094.79
711.94	1093.01
712.27	1091.63
712.61	1093.57
712.94	1092.14
713.28	1090.88
713.61	1088.56
713.95	1088.07
714.28	1086.59
714.62	1088.93
714.95	1089.99
715.29	1089.43
715.62	1090.46
715.96	1091.37
716.29	1091.56
716.63	1090.29
716.96	1093.76
717.29	1094.48
717.63	1092.05
717.96	1092.00
718.30	1095.14
718.63	1094.93
718.97	1093.33
719.30	1093.12
719.63	1092.09
719.97	1094.29
720.30	1093.45
720.64	1089.82
720.97	1089.59
721.30	1090.53
721.64	1086.01
721.97	1085.82
722.31	1089.40
722.64	1090.95
722.97	1087.74
723.31	1086.78
723.64	1086.43
723.97	1086.94
724.31	1086.45
724.64	1089.40
724.98	1088.49
725.31	1088.86
725.64	1087.13
725.98	1085.87
726.31	1083.36
726.64	1083.90
726.97	1082.78
727.31	1083.36
727.64	1085.91
727.97	1087.09
728.31	1087.65
728.64	1087.81
728.97	1085.31
729.31	1084.63
729.64	1084.70
729.97	1085.42
730.30	1087.53
730.64	1088.16
730.97	1087.25
731.30	1090.50
731.63	1089.00
731.97	1086.94
732.30	1089.26
732.63	1088.75
732.96	1083.43
733.30	1085.47
733.63	1088.23
733.96	1087.18
734.29	1089.00
734.63	1089.03
734.96	1087.51
735.29	1085.33
735.62	1085.84
735.95	1085.68
736.29	1088.44
736.62	1090.29
736.95	1092.52
737.28	1094.81
737.61	1092.33
737.94	1091.37
738.28	1087.44
738.61	1083.62
738.94	1081.70
739.27	1083.81
739.60	1085.40
739.93	1091.53
740.27	1094.88
740.60	1094.43
740.93	1091.51
741.26	1087.41
741.59	1087.16
741.92	1088.21
742.25	1089.92
742.58	1091.86
742.91	1094.93
743.25	1092.73
743.58	1089.54
743.91	1088.63
744.24	1089.59
744.57	1090.34
744.90	1087.44
745.23	1089.59
745.56	1088.77
745.89	1086.20
746.22	1085.66
746.55	1087.11
746.88	1085.63
747.21	1086.48
747.54	1086.29
747.87	1087.90
748.20	1090.71
748.53	1090.10
748.87	1085.28
749.20	1087.48
749.53	1082.45
749.86	1077.65
750.19	1077.61
750.52	1082.10
750.85	1082.19
751.18	1084.67
751.51	1085.40
751.84	1087.69
752.16	1086.08
752.49	1089.26
752.82	1089.17
753.15	1090.03
753.48	1087.81
753.81	1088.86
754.14	1084.09
754.47	1085.49
754.80	1085.45
755.13	1085.33
755.46	1085.00
755.79	1086.97
756.12	1088.44
756.45	1089.40
756.78	1087.46
757.11	1087.11
757.43	1086.45
757.76	1082.71
758.09	1083.15
758.42	1086.71
758.75	1086.99
759.08	1089.54
759.41	1091.27
759.74	1087.86
760.07	1087.97
760.39	1088.54
760.72	1087.41
761.05	1085.45
761.38	1087.32
761.71	1083.95
762.04	1082.17
762.36	1080.56
762.69	1080.70
763.02	1079.43
763.35	1078.50
