SpectraSuite Data File
++++++++++++++++++++++++++++++++++++
Date: Mon Aug 26 10:26:59 PDT 2019
User: corrico
Dark Spectrum Present: No
Reference Spectrum Present: No
Number of Sampled Component Spectra: 1
Spectrometers: USB2+H06089
Integration Time (usec): 10000 (USB2+H06089)
Spectra Averaged: 20 (USB2+H06089)
Boxcar Smoothing: 2 (USB2+H06089)
Correct for Electrical Dark: No (USB2+H06089)
Strobe/Lamp Enabled: No (USB2+H06089)
Correct for Detector Non-linearity: No (USB2+H06089)
Correct for Stray Light: No (USB2+H06089)
Number of Pixels in Processed Spectrum: 2048
>>>>>Begin Processed Spectral Data<<<<<
339.70	1025.15
340.07	1025.15
340.45	996.90
340.82	976.78
341.19	954.89
341.57	932.38
341.94	919.03
342.31	911.12
342.69	906.61
343.06	903.24
343.43	903.10
343.81	904.76
344.18	906.30
344.55	911.78
344.93	919.57
345.30	929.12
345.67	933.90
346.04	943.52
346.42	950.49
346.79	957.00
347.16	962.76
347.54	974.11
347.91	981.64
348.28	988.46
348.65	995.41
349.03	1000.72
349.40	1007.95
349.77	1015.14
350.14	1022.56
350.52	1029.04
350.89	1036.48
351.26	1041.98
351.63	1046.31
352.01	1051.18
352.38	1055.91
352.75	1058.81
353.12	1062.46
353.50	1066.49
353.87	1070.40
354.24	1073.28
354.61	1075.55
354.98	1077.56
355.36	1079.92
355.73	1078.36
356.10	1080.58
356.47	1082.52
356.84	1083.71
357.22	1079.99
357.59	1083.25
357.96	1078.87
358.33	1076.62
358.70	1071.61
359.08	1074.17
359.45	1072.90
359.82	1072.15
360.19	1072.04
360.56	1073.74
360.94	1072.53
361.31	1071.43
361.68	1074.40
362.05	1073.93
362.42	1073.42
362.79	1074.45
363.16	1073.91
363.54	1069.25
363.91	1069.02
364.28	1070.70
364.65	1067.99
365.02	1068.88
365.39	1072.48
365.76	1070.89
366.14	1070.30
366.51	1072.04
366.88	1070.51
367.25	1070.26
367.62	1071.12
367.99	1067.68
368.36	1063.40
368.73	1062.58
369.10	1062.21
369.48	1065.20
369.85	1066.70
370.22	1073.67
370.59	1075.08
370.96	1075.94
371.33	1072.88
371.70	1073.37
372.07	1070.21
372.44	1068.38
372.81	1067.10
373.18	1070.23
373.55	1071.26
373.93	1073.79
374.30	1075.08
374.67	1075.64
375.04	1071.59
375.41	1071.75
375.78	1068.24
376.15	1070.51
376.52	1071.54
376.89	1072.11
377.26	1073.86
377.63	1074.82
378.00	1069.98
378.37	1067.54
378.74	1067.42
379.11	1068.29
379.48	1068.17
379.85	1073.16
380.22	1074.19
380.59	1075.76
380.96	1072.06
381.33	1071.36
381.70	1066.30
382.07	1066.93
382.44	1067.05
382.81	1066.37
383.18	1066.32
383.55	1067.14
383.92	1069.02
384.29	1066.65
384.66	1067.89
385.03	1070.44
385.40	1073.32
385.77	1070.51
386.14	1072.50
386.51	1071.92
386.88	1071.22
387.25	1071.10
387.62	1071.68
387.99	1071.50
388.36	1069.81
388.73	1069.27
389.10	1070.33
389.46	1071.29
389.83	1072.36
390.20	1077.30
390.57	1077.33
390.94	1078.59
391.31	1080.56
391.68	1082.57
392.05	1078.78
392.42	1081.05
392.79	1078.85
393.16	1078.00
393.53	1076.13
393.89	1075.24
394.26	1070.61
394.63	1069.44
395.00	1070.84
395.37	1069.70
395.74	1071.59
396.11	1071.80
396.48	1069.30
396.84	1065.97
397.21	1066.16
397.58	1068.17
397.95	1071.75
398.32	1073.77
398.69	1074.84
399.06	1075.03
399.42	1074.21
399.79	1075.97
400.16	1076.37
400.53	1075.38
400.90	1076.41
401.27	1075.24
401.64	1070.49
402.00	1070.89
402.37	1074.49
402.74	1073.32
403.11	1073.91
403.48	1074.77
403.84	1079.55
404.21	1076.74
404.58	1076.88
404.95	1078.10
405.32	1075.71
405.68	1074.21
406.05	1073.02
406.42	1072.60
406.79	1072.57
407.16	1078.71
407.52	1078.80
407.89	1080.37
408.26	1079.41
408.63	1078.85
408.99	1079.55
409.36	1076.76
409.73	1076.48
410.10	1078.14
410.47	1079.78
410.83	1075.05
411.20	1077.11
411.57	1077.56
411.94	1079.15
412.30	1078.12
412.67	1081.91
413.04	1078.57
413.40	1080.16
413.77	1078.64
414.14	1078.24
414.51	1079.81
414.87	1081.00
415.24	1079.83
415.61	1081.07
415.97	1079.06
416.34	1074.28
416.71	1073.04
417.08	1071.80
417.44	1068.64
417.81	1071.29
418.18	1072.06
418.54	1072.39
418.91	1070.19
419.28	1068.38
419.64	1067.12
420.01	1070.05
420.38	1070.51
420.74	1075.62
421.11	1081.19
421.48	1081.16
421.84	1077.42
422.21	1078.75
422.58	1077.91
422.94	1079.22
423.31	1081.82
423.68	1085.03
424.04	1083.86
424.41	1083.04
424.77	1081.05
425.14	1078.12
425.51	1077.63
425.87	1078.54
426.24	1076.11
426.61	1076.25
426.97	1078.03
427.34	1075.66
427.70	1078.96
428.07	1080.65
428.44	1079.15
428.80	1078.61
429.17	1081.23
429.53	1080.95
429.90	1083.57
430.27	1087.81
430.63	1088.12
431.00	1085.10
431.36	1080.86
431.73	1077.61
432.09	1072.11
432.46	1070.68
432.83	1071.90
433.19	1075.52
433.56	1077.47
433.92	1079.50
434.29	1082.94
434.65	1083.41
435.02	1082.61
435.38	1081.98
435.75	1083.36
436.11	1083.32
436.48	1085.49
436.84	1083.41
437.21	1083.01
437.57	1081.47
437.94	1076.48
438.30	1074.21
438.67	1075.55
439.03	1075.83
439.40	1075.29
439.76	1074.70
440.13	1074.54
440.49	1073.58
440.86	1075.71
441.22	1076.13
441.59	1083.67
441.95	1082.85
442.32	1082.08
442.68	1079.62
443.05	1079.60
443.41	1074.33
443.78	1075.01
444.14	1077.35
444.51	1074.52
444.87	1073.39
445.24	1075.62
445.60	1073.09
445.96	1072.97
446.33	1078.75
446.69	1080.23
447.06	1080.30
447.42	1082.10
447.79	1082.78
448.15	1080.84
448.51	1079.85
448.88	1079.01
449.24	1082.47
449.61	1081.30
449.97	1081.49
450.33	1082.71
450.70	1083.62
451.06	1081.09
451.43	1082.73
451.79	1081.47
452.15	1082.15
452.52	1083.36
452.88	1083.22
453.24	1081.33
453.61	1084.09
453.97	1084.77
454.34	1081.73
454.70	1082.83
455.06	1083.88
455.43	1081.00
455.79	1082.03
456.15	1079.08
456.52	1080.63
456.88	1078.64
457.24	1080.13
457.61	1077.51
457.97	1081.37
458.33	1080.34
458.70	1080.81
459.06	1082.05
459.42	1080.51
459.79	1080.86
460.15	1080.77
460.51	1081.80
460.88	1078.00
461.24	1079.55
461.60	1078.66
461.96	1078.87
462.33	1078.05
462.69	1077.77
463.05	1077.42
463.42	1078.26
463.78	1076.65
464.14	1074.49
464.50	1075.90
464.87	1076.97
465.23	1076.48
465.59	1076.60
465.95	1079.81
466.32	1080.72
466.68	1081.21
467.04	1081.05
467.40	1082.83
467.77	1082.15
468.13	1083.01
468.49	1083.97
468.85	1084.04
469.22	1084.42
469.58	1083.57
469.94	1085.87
470.30	1084.86
470.66	1084.84
471.03	1082.40
471.39	1083.50
471.75	1080.60
472.11	1079.48
472.47	1077.42
472.84	1081.30
473.20	1081.70
473.56	1081.02
473.92	1084.23
474.28	1085.70
474.65	1081.70
475.01	1080.20
475.37	1079.83
475.73	1076.23
476.09	1077.14
476.45	1078.57
476.81	1078.33
477.18	1079.71
477.54	1078.24
477.90	1079.36
478.26	1079.31
478.62	1080.74
478.98	1080.70
479.34	1083.90
479.71	1082.97
480.07	1079.97
480.43	1079.46
480.79	1080.67
481.15	1080.48
481.51	1082.40
481.87	1084.79
482.23	1086.10
482.59	1087.76
482.96	1089.71
483.32	1084.46
483.68	1083.88
484.04	1083.06
484.40	1078.96
484.76	1077.82
485.12	1081.54
485.48	1086.36
485.84	1085.96
486.20	1088.82
486.56	1089.92
486.92	1087.90
487.28	1081.07
487.64	1079.95
488.00	1079.34
488.37	1076.53
488.73	1078.40
489.09	1085.35
489.45	1085.42
489.81	1083.95
490.17	1085.52
490.53	1085.56
490.89	1081.23
491.25	1081.89
491.61	1081.19
491.97	1082.99
492.33	1081.00
492.69	1082.29
493.05	1085.17
493.41	1088.35
493.77	1083.64
494.13	1084.79
494.49	1085.38
494.85	1083.83
495.21	1081.28
495.57	1083.11
495.93	1082.47
496.29	1084.56
496.64	1083.29
497.00	1083.48
497.36	1083.93
497.72	1083.08
498.08	1081.00
498.44	1083.06
498.80	1084.74
499.16	1083.27
499.52	1085.99
499.88	1084.81
500.24	1082.61
500.60	1082.66
500.96	1082.61
501.32	1083.97
501.68	1083.95
502.03	1083.34
502.39	1082.08
502.75	1079.29
503.11	1078.14
503.47	1079.06
503.83	1081.98
504.19	1080.56
504.55	1085.40
504.91	1085.75
505.26	1085.10
505.62	1084.09
505.98	1083.25
506.34	1082.17
506.70	1080.58
507.06	1079.20
507.42	1080.58
507.78	1078.57
508.13	1078.89
508.49	1079.20
508.85	1079.34
509.21	1079.10
509.57	1082.31
509.93	1081.51
510.28	1082.12
510.64	1082.87
511.00	1081.68
511.36	1078.66
511.72	1076.72
512.07	1076.25
512.43	1078.52
512.79	1076.90
513.15	1079.15
513.51	1079.57
513.86	1077.09
514.22	1074.84
514.58	1075.01
514.94	1077.47
515.30	1082.15
515.65	1084.84
516.01	1089.50
516.37	1088.63
516.73	1086.41
517.08	1085.70
517.44	1085.56
517.80	1080.04
518.16	1081.77
518.51	1081.40
518.87	1076.41
519.23	1076.32
519.59	1075.55
519.94	1075.01
520.30	1075.87
520.66	1079.29
521.01	1078.24
521.37	1076.34
521.73	1079.34
522.09	1081.56
522.44	1081.44
522.80	1083.08
523.16	1088.07
523.51	1086.85
523.87	1085.54
524.23	1085.68
524.58	1086.17
524.94	1087.93
525.30	1087.39
525.65	1090.78
526.01	1092.89
526.37	1092.75
526.72	1089.26
527.08	1087.46
527.44	1086.97
527.79	1084.18
528.15	1083.79
528.51	1082.94
528.86	1084.30
529.22	1081.12
529.58	1080.81
529.93	1076.04
530.29	1079.53
530.65	1078.14
531.00	1078.57
531.36	1081.40
531.71	1084.84
532.07	1081.21
532.43	1083.71
532.78	1085.42
533.14	1081.44
533.49	1083.22
533.85	1085.45
534.21	1085.68
534.56	1084.53
534.92	1087.69
535.27	1087.88
535.63	1087.72
535.98	1087.09
536.34	1085.56
536.69	1082.92
537.05	1082.57
537.41	1078.75
537.76	1078.38
538.12	1083.18
538.47	1083.90
538.83	1085.54
539.18	1088.49
539.54	1089.57
539.89	1084.74
540.25	1087.41
540.60	1083.57
540.96	1083.04
541.31	1082.90
541.67	1086.41
542.02	1082.50
542.38	1084.11
542.73	1084.72
543.09	1081.07
543.44	1082.71
543.80	1085.07
544.15	1086.45
544.51	1085.91
544.86	1090.39
545.22	1089.00
545.57	1090.34
545.93	1090.46
546.28	1091.39
546.64	1089.29
546.99	1087.30
547.35	1087.27
547.70	1085.24
548.05	1086.13
548.41	1084.07
548.76	1085.12
549.12	1082.99
549.47	1083.69
549.83	1085.59
550.18	1089.22
550.53	1088.68
550.89	1091.84
551.24	1094.46
551.60	1094.95
551.95	1094.20
552.30	1094.46
552.66	1091.02
553.01	1087.25
553.37	1086.06
553.72	1084.49
554.07	1084.63
554.43	1084.89
554.78	1086.66
555.13	1082.87
555.49	1085.59
555.84	1082.83
556.19	1082.52
556.55	1080.48
556.90	1079.92
557.26	1079.31
557.61	1081.16
557.96	1084.89
558.32	1086.50
558.67	1088.16
559.02	1086.20
559.37	1082.52
559.73	1082.94
560.08	1083.62
560.43	1083.55
560.79	1083.79
561.14	1086.64
561.49	1081.37
561.85	1079.41
562.20	1079.99
562.55	1083.04
562.90	1083.83
563.26	1084.23
563.61	1084.60
563.96	1083.32
564.32	1078.61
564.67	1075.94
565.02	1080.34
565.37	1077.47
565.73	1081.07
566.08	1086.27
566.43	1092.42
566.78	1090.57
567.14	1094.97
567.49	1095.46
567.84	1093.24
568.19	1088.61
568.54	1085.52
568.90	1084.32
569.25	1080.91
569.60	1080.37
569.95	1080.18
570.31	1084.00
570.66	1083.88
571.01	1082.17
571.36	1078.99
571.71	1080.11
572.06	1075.85
572.42	1074.21
572.77	1072.48
573.12	1075.20
573.47	1076.67
573.82	1077.75
574.18	1082.03
574.53	1085.24
574.88	1084.11
575.23	1080.77
575.58	1081.30
575.93	1077.77
576.28	1077.96
576.64	1079.01
576.99	1077.91
577.34	1077.82
577.69	1077.63
578.04	1077.54
578.39	1079.22
578.74	1083.41
579.09	1085.21
579.44	1088.56
579.80	1090.50
580.15	1088.79
580.50	1085.70
580.85	1085.91
581.20	1082.12
581.55	1080.56
581.90	1078.94
582.25	1080.48
582.60	1082.69
582.95	1082.52
583.30	1083.18
583.65	1087.81
584.00	1088.23
584.35	1079.06
584.71	1083.76
585.06	1081.77
585.41	1078.73
585.76	1078.31
586.11	1082.54
586.46	1084.18
586.81	1086.85
587.16	1086.66
587.51	1086.92
587.86	1089.78
588.21	1087.32
588.56	1086.06
588.91	1089.07
589.26	1089.31
589.61	1089.45
589.96	1085.54
590.31	1086.48
590.66	1082.52
591.01	1083.67
591.36	1081.58
591.71	1085.07
592.06	1085.12
592.41	1088.70
592.76	1084.84
593.10	1084.72
593.45	1080.27
593.80	1078.47
594.15	1077.51
594.50	1080.58
594.85	1084.11
595.20	1084.91
595.55	1082.80
595.90	1081.87
596.25	1083.39
596.60	1079.20
596.95	1078.47
597.30	1081.33
597.64	1131.67
597.99	1133.01
598.34	1134.11
598.69	1137.17
599.04	1139.26
599.39	1090.15
599.74	1087.72
600.09	1089.19
600.44	1088.26
600.78	1087.04
601.13	1085.91
601.48	1083.13
601.83	1083.81
602.18	1088.84
602.53	1092.30
602.88	1091.72
603.22	1094.97
603.57	1093.76
603.92	1090.62
604.27	1088.91
604.62	1090.29
604.97	1088.02
605.31	1086.15
605.66	1085.59
606.01	1082.94
606.36	1082.80
606.71	1082.50
607.05	1083.25
607.40	1084.67
607.75	1084.42
608.10	1085.84
608.44	1086.45
608.79	1089.66
609.14	1089.57
609.49	1093.80
609.84	1093.19
610.18	1095.70
610.53	1096.80
610.88	1097.24
611.23	1097.71
611.57	1099.72
611.92	1097.78
612.27	1095.35
612.62	1097.50
612.96	1093.80
613.31	1092.23
613.66	1092.05
614.00	1093.80
614.35	1091.65
614.70	1091.27
615.05	1091.32
615.39	1091.39
615.74	1085.03
616.09	1083.41
616.43	1083.83
616.78	1081.21
617.13	1081.33
617.47	1082.87
617.82	1080.48
618.17	1082.76
618.51	1079.69
618.86	1080.39
619.21	1082.10
619.55	1085.91
619.90	1083.04
620.25	1087.30
620.59	1086.90
620.94	1086.48
621.29	1087.65
621.63	1088.30
621.98	1089.12
622.32	1090.41
622.67	1092.26
623.02	1088.19
623.36	1088.98
623.71	1084.25
624.05	1083.81
624.40	1084.51
624.75	1084.53
625.09	1084.42
625.44	1089.36
625.78	1092.09
626.13	1089.54
626.48	1091.98
626.82	1088.96
627.17	1086.43
627.51	1085.61
627.86	1085.40
628.20	1084.86
628.55	1086.97
628.89	1089.59
629.24	1086.66
629.58	1086.62
629.93	1085.17
630.28	1085.91
630.62	1086.64
630.97	1088.72
631.31	1087.53
631.66	1087.16
632.00	1088.54
632.35	1088.35
632.69	1087.65
633.04	1088.65
633.38	1088.35
633.73	1086.10
634.07	1084.04
634.42	1084.51
634.76	1082.33
635.11	1085.45
635.45	1084.35
635.79	1084.91
636.14	1086.15
636.48	1089.45
636.83	1087.51
637.17	1086.41
637.52	1084.18
637.86	1081.66
638.21	1080.93
638.55	1077.54
638.89	1079.92
639.24	1077.72
639.58	1079.62
639.93	1079.20
640.27	1083.79
640.61	1082.19
640.96	1085.56
641.30	1084.07
641.65	1085.68
641.99	1084.00
642.33	1084.39
642.68	1083.60
643.02	1081.51
643.37	1080.06
643.71	1082.47
644.05	1079.99
644.40	1081.87
644.74	1082.57
645.08	1084.30
645.43	1081.42
645.77	1083.76
646.11	1082.85
646.46	1081.49
646.80	1080.44
647.14	1081.91
647.49	1084.35
647.83	1082.99
648.17	1080.48
648.52	1080.37
648.86	1077.77
649.20	1076.83
649.55	1081.35
649.89	1084.56
650.23	1082.64
650.57	1081.87
650.92	1079.62
651.26	1075.73
651.60	1075.76
651.95	1078.85
652.29	1079.81
652.63	1081.82
652.97	1083.53
653.32	1084.98
653.66	1084.02
654.00	1088.89
654.34	1087.37
654.69	1084.37
655.03	1083.48
655.37	1081.82
655.71	1079.53
656.05	1080.44
656.40	1081.84
656.74	1081.82
657.08	1083.93
657.42	1081.33
657.76	1081.58
658.11	1081.77
658.45	1080.79
658.79	1080.39
659.13	1081.56
659.47	1081.19
659.82	1078.61
660.16	1076.97
660.50	1076.93
660.84	1077.61
661.18	1075.69
661.52	1078.03
661.87	1080.86
662.21	1082.24
662.55	1079.99
662.89	1083.69
663.23	1083.41
663.57	1082.52
663.91	1081.94
664.25	1081.84
664.60	1080.98
664.94	1083.29
665.28	1082.71
665.62	1081.16
665.96	1083.08
666.30	1083.25
666.64	1081.56
666.98	1081.30
667.32	1079.53
667.66	1079.15
668.01	1080.48
668.35	1081.33
668.69	1082.15
669.03	1083.79
669.37	1084.04
669.71	1081.51
670.05	1079.78
670.39	1079.48
670.73	1080.04
671.07	1081.21
671.41	1078.87
671.75	1081.77
672.09	1081.51
672.43	1081.44
672.77	1078.52
673.11	1081.37
673.45	1079.46
673.79	1080.67
674.13	1081.61
674.47	1084.84
674.81	1087.09
675.15	1087.41
675.49	1087.02
675.83	1087.51
676.17	1084.00
676.51	1082.64
676.85	1081.77
677.19	1079.83
677.53	1078.66
677.87	1080.32
678.21	1077.04
678.55	1079.22
678.89	1080.02
679.23	1079.53
679.57	1080.06
679.90	1084.25
680.24	1086.24
680.58	1086.03
680.92	1084.60
681.26	1084.81
681.60	1083.11
681.94	1078.40
682.28	1078.05
682.62	1077.61
682.96	1074.61
683.29	1075.85
683.63	1076.34
683.97	1075.29
684.31	1075.69
684.65	1077.82
684.99	1079.69
685.33	1079.41
685.67	1081.42
686.00	1082.94
686.34	1082.08
686.68	1078.28
687.02	1082.15
687.36	1082.47
687.70	1081.40
688.03	1082.99
688.37	1080.88
688.71	1078.96
689.05	1078.50
689.39	1082.33
689.72	1082.52
690.06	1084.70
690.40	1083.57
690.74	1084.23
691.08	1080.93
691.41	1079.24
691.75	1081.61
692.09	1083.53
692.43	1083.48
692.76	1085.19
693.10	1087.41
693.44	1086.24
693.78	1082.92
694.11	1082.76
694.45	1082.69
694.79	1082.83
695.13	1082.19
695.46	1084.49
695.80	1085.80
696.14	1085.99
696.48	1084.02
696.81	1083.29
697.15	1083.50
697.49	1082.78
697.82	1080.88
698.16	1080.60
698.50	1078.71
698.83	1077.56
699.17	1077.82
699.51	1080.48
699.84	1082.50
700.18	1086.69
700.52	1087.27
700.85	1090.88
701.19	1090.29
701.53	1090.69
701.86	1088.04
702.20	1085.99
702.54	1083.34
702.87	1080.98
703.21	1078.94
703.55	1078.99
703.88	1082.03
704.22	1083.86
704.55	1082.83
704.89	1083.04
705.23	1085.31
705.56	1085.35
705.90	1080.60
706.23	1083.86
706.57	1083.67
706.91	1083.64
707.24	1081.58
707.58	1083.81
707.91	1082.45
708.25	1083.74
708.58	1084.14
708.92	1083.69
709.26	1081.54
709.59	1083.50
709.93	1084.60
710.26	1085.87
710.60	1087.04
710.93	1088.91
711.27	1087.23
711.60	1085.10
711.94	1081.37
712.27	1080.11
712.61	1079.74
712.94	1081.14
713.28	1081.37
713.61	1079.43
713.95	1081.42
714.28	1081.70
714.62	1081.40
714.95	1079.50
715.29	1080.18
715.62	1078.87
715.96	1081.35
716.29	1078.68
716.63	1082.22
716.96	1086.87
717.29	1087.93
717.63	1085.66
717.96	1084.79
718.30	1082.22
718.63	1081.05
718.97	1080.37
719.30	1080.70
719.63	1084.35
719.97	1087.60
720.30	1084.86
720.64	1084.96
720.97	1085.40
721.30	1084.86
721.64	1081.98
721.97	1084.09
722.31	1082.99
722.64	1082.59
722.97	1082.17
723.31	1081.05
723.64	1079.76
723.97	1079.57
724.31	1076.90
724.64	1078.17
724.98	1079.64
725.31	1079.06
725.64	1081.75
725.98	1080.30
726.31	1077.56
726.64	1078.07
726.97	1079.36
727.31	1080.60
727.64	1082.64
727.97	1084.81
728.31	1082.01
728.64	1080.86
728.97	1075.87
729.31	1077.25
729.64	1074.94
729.97	1079.83
730.30	1078.59
730.64	1081.89
730.97	1082.54
731.30	1080.79
731.63	1076.15
731.97	1077.25
732.30	1075.90
732.63	1074.14
732.96	1078.66
733.30	1082.08
733.63	1082.92
733.96	1084.58
734.29	1085.87
734.63	1085.17
734.96	1086.08
735.29	1087.06
735.62	1081.54
735.95	1082.26
736.29	1081.80
736.62	1077.18
736.95	1078.78
737.28	1083.76
737.61	1081.68
737.94	1083.62
738.28	1087.90
738.61	1083.53
738.94	1082.01
739.27	1084.25
739.60	1081.51
739.93	1080.84
740.27	1082.08
740.60	1082.12
740.93	1078.71
741.26	1082.45
741.59	1081.66
741.92	1082.26
742.25	1085.12
742.58	1088.00
742.91	1086.66
743.25	1083.25
743.58	1079.46
743.91	1076.88
744.24	1076.46
744.57	1073.25
744.90	1080.39
745.23	1083.97
745.56	1084.91
745.89	1086.87
746.22	1088.70
746.55	1087.37
746.88	1089.54
747.21	1085.89
747.54	1082.73
747.87	1082.43
748.20	1083.36
748.53	1082.64
748.87	1085.24
749.20	1086.38
749.53	1082.36
749.86	1077.04
750.19	1076.97
750.52	1076.65
750.85	1077.49
751.18	1081.14
751.51	1083.57
751.84	1083.69
752.16	1084.14
752.49	1084.37
752.82	1082.43
753.15	1083.39
753.48	1080.93
753.81	1084.02
754.14	1079.99
754.47	1082.69
754.80	1082.54
755.13	1085.38
755.46	1083.48
755.79	1085.47
756.12	1086.10
756.45	1087.81
756.78	1084.84
757.11	1083.22
757.43	1082.17
757.76	1078.61
758.09	1077.61
758.42	1078.14
758.75	1079.22
759.08	1081.89
759.41	1086.80
759.74	1084.16
760.07	1087.76
760.39	1088.49
760.72	1087.13
761.05	1081.63
761.38	1083.64
761.71	1083.01
762.04	1080.95
762.36	1081.82
762.69	1081.75
763.02	1080.23
763.35	1078.00
763.68	1076.72
764.01	1074.49
764.33	1075.52
764.66	1076.15
764.99	1076.93
765.32	1080.93
765.65	1083.43
765.97	1083.13
766.30	1083.11
