SpectraSuite Data File
++++++++++++++++++++++++++++++++++++
Date: Mon Aug 26 10:26:49 PDT 2019
User: corrico
Dark Spectrum Present: No
Reference Spectrum Present: No
Number of Sampled Component Spectra: 1
Spectrometers: USB2+H06089
Integration Time (usec): 10000 (USB2+H06089)
Spectra Averaged: 20 (USB2+H06089)
Boxcar Smoothing: 2 (USB2+H06089)
Correct for Electrical Dark: No (USB2+H06089)
Strobe/Lamp Enabled: No (USB2+H06089)
Correct for Detector Non-linearity: No (USB2+H06089)
Correct for Stray Light: No (USB2+H06089)
Number of Pixels in Processed Spectrum: 2048
>>>>>Begin Processed Spectral Data<<<<<
339.70	1030.65
340.07	1030.65
340.45	998.29
340.82	975.61
341.19	953.00
341.57	928.49
341.94	915.29
342.31	908.95
342.69	905.76
343.06	902.35
343.43	900.17
343.81	903.89
344.18	905.81
344.55	910.47
344.93	916.55
345.30	927.34
345.67	935.61
346.04	942.63
346.42	950.68
346.79	959.29
347.16	963.95
347.54	973.19
347.91	980.90
348.28	992.97
348.65	1000.84
349.03	1011.49
349.40	1019.02
349.77	1027.33
350.14	1030.23
350.52	1041.21
350.89	1046.10
351.26	1051.37
351.63	1058.51
352.01	1062.56
352.38	1061.43
352.75	1067.00
353.12	1070.54
353.50	1073.95
353.87	1078.45
354.24	1083.64
354.61	1086.31
354.98	1089.17
355.36	1091.63
355.73	1092.02
356.10	1092.42
356.47	1093.19
356.84	1091.18
357.22	1088.82
357.59	1087.41
357.96	1086.43
358.33	1085.19
358.70	1085.49
359.08	1089.24
359.45	1092.16
359.82	1092.73
360.19	1093.22
360.56	1093.64
360.94	1087.18
361.31	1085.75
361.68	1082.36
362.05	1079.17
362.42	1077.25
362.79	1080.16
363.16	1078.00
363.54	1081.56
363.91	1082.45
364.28	1081.63
364.65	1080.39
365.02	1081.84
365.39	1079.53
365.76	1079.10
366.14	1080.53
366.51	1077.89
366.88	1079.53
367.25	1078.33
367.62	1080.77
367.99	1079.88
368.36	1084.72
368.73	1082.92
369.10	1083.55
369.48	1081.89
369.85	1081.26
370.22	1078.21
370.59	1077.61
370.96	1077.79
371.33	1077.00
371.70	1076.58
372.07	1076.90
372.44	1078.21
372.81	1077.75
373.18	1078.43
373.55	1078.36
373.93	1081.05
374.30	1080.56
374.67	1079.88
375.04	1080.11
375.41	1080.93
375.78	1078.71
376.15	1080.44
376.52	1085.40
376.89	1086.17
377.26	1085.10
377.63	1085.54
378.00	1081.26
378.37	1077.72
378.74	1076.44
379.11	1080.16
379.48	1077.56
379.85	1078.99
380.22	1081.21
380.59	1081.82
380.96	1081.07
381.33	1085.80
381.70	1084.02
382.07	1084.14
382.44	1084.16
382.81	1081.61
383.18	1079.48
383.55	1082.87
383.92	1081.42
384.29	1080.72
384.66	1080.77
385.03	1081.94
385.40	1084.00
385.77	1086.50
386.14	1088.26
386.51	1089.61
386.88	1088.82
387.25	1086.06
387.62	1080.81
387.99	1077.25
388.36	1080.41
388.73	1078.78
389.10	1076.46
389.46	1079.10
389.83	1083.95
390.20	1080.39
390.57	1081.58
390.94	1082.61
391.31	1084.14
391.68	1082.97
392.05	1086.80
392.42	1085.49
392.79	1086.27
393.16	1086.64
393.53	1083.50
393.89	1080.51
394.26	1084.84
394.63	1084.16
395.00	1081.94
395.37	1085.82
395.74	1086.57
396.11	1081.87
396.48	1088.33
396.84	1090.81
397.21	1091.04
397.58	1092.77
397.95	1096.21
398.32	1092.98
398.69	1092.91
399.06	1088.14
399.42	1083.15
399.79	1085.31
400.16	1085.00
400.53	1087.04
400.90	1089.14
401.27	1095.84
401.64	1093.17
402.00	1094.39
402.37	1090.90
402.74	1096.94
403.11	1095.11
403.48	1093.66
403.84	1095.04
404.21	1098.53
404.58	1092.30
404.95	1093.40
405.32	1093.99
405.68	1093.43
406.05	1094.97
406.42	1097.10
406.79	1094.04
407.16	1092.94
407.52	1091.30
407.89	1087.88
408.26	1087.58
408.63	1092.21
408.99	1096.89
409.36	1099.33
409.73	1102.58
410.10	1104.83
410.47	1100.36
410.83	1100.61
411.20	1100.71
411.57	1097.43
411.94	1098.65
412.30	1100.85
412.67	1100.05
413.04	1099.54
413.40	1099.23
413.77	1099.02
414.14	1098.98
414.51	1099.33
414.87	1099.42
415.24	1104.10
415.61	1104.69
415.97	1107.31
416.34	1107.87
416.71	1108.45
417.08	1107.54
417.44	1107.35
417.81	1106.35
418.18	1107.87
418.54	1106.98
418.91	1108.57
419.28	1107.42
419.64	1107.96
420.01	1106.32
420.38	1105.97
420.74	1103.68
421.11	1101.60
421.48	1102.53
421.84	1103.19
422.21	1105.53
422.58	1105.36
422.94	1107.75
423.31	1108.34
423.68	1109.51
424.04	1113.14
424.41	1114.66
424.77	1114.70
425.14	1115.83
425.51	1115.73
425.87	1112.34
426.24	1111.19
426.61	1112.76
426.97	1111.17
427.34	1110.23
427.70	1108.03
428.07	1111.47
428.44	1110.02
428.80	1108.10
429.17	1106.63
429.53	1104.83
429.90	1100.78
430.27	1101.01
430.63	1104.29
431.00	1105.90
431.36	1110.91
431.73	1112.08
432.09	1113.07
432.46	1111.29
432.83	1110.87
433.19	1109.79
433.56	1109.23
433.92	1108.48
434.29	1109.09
434.65	1112.25
435.02	1114.91
435.38	1117.40
435.75	1119.64
436.11	1121.26
436.48	1120.93
436.84	1118.26
437.21	1114.54
437.57	1114.09
437.94	1111.61
438.30	1109.79
438.67	1109.32
439.03	1115.69
439.40	1115.27
439.76	1115.80
440.13	1120.30
440.49	1122.31
440.86	1119.01
441.22	1119.81
441.59	1120.79
441.95	1119.17
442.32	1119.74
442.68	1120.46
443.05	1115.85
443.41	1112.88
443.78	1110.70
444.14	1108.24
444.51	1102.02
444.87	1106.16
445.24	1106.37
445.60	1107.12
445.96	1106.00
446.33	1111.50
446.69	1111.45
447.06	1115.48
447.42	1110.63
447.79	1111.19
448.15	1107.66
448.51	1108.34
448.88	1105.08
449.24	1108.01
449.61	1109.37
449.97	1112.11
450.33	1109.25
450.70	1109.88
451.06	1111.50
451.43	1111.05
451.79	1112.83
452.15	1112.81
452.52	1113.21
452.88	1111.99
453.24	1113.98
453.61	1111.24
453.97	1110.56
454.34	1110.42
454.70	1110.23
455.06	1109.02
455.43	1109.53
455.79	1112.13
456.15	1113.09
456.52	1112.97
456.88	1114.94
457.24	1115.29
457.61	1114.07
457.97	1111.31
458.33	1111.22
458.70	1108.55
459.06	1108.78
459.42	1110.47
459.79	1115.31
460.15	1117.91
460.51	1118.00
460.88	1118.89
461.24	1118.28
461.60	1118.61
461.96	1119.34
462.33	1120.91
462.69	1117.89
463.05	1117.04
463.42	1115.73
463.78	1115.66
464.14	1113.81
464.50	1118.64
464.87	1122.54
465.23	1122.80
465.59	1121.05
465.95	1124.25
466.32	1122.90
466.68	1122.40
467.04	1124.00
467.40	1128.49
467.77	1130.06
468.13	1133.26
468.49	1135.18
468.85	1134.55
469.22	1134.41
469.58	1134.34
469.94	1132.19
470.30	1129.36
470.66	1130.27
471.03	1131.13
471.39	1135.56
471.75	1141.13
472.11	1144.64
472.47	1147.49
472.84	1151.03
473.20	1152.25
473.56	1151.03
473.92	1156.67
474.28	1159.45
474.65	1163.29
475.01	1166.13
475.37	1171.41
475.73	1172.82
476.09	1179.47
476.45	1181.03
476.81	1187.10
477.18	1194.07
477.54	1201.96
477.90	1207.18
478.26	1211.41
478.62	1216.96
478.98	1222.44
479.34	1227.54
479.71	1235.01
480.07	1246.83
480.43	1256.73
480.79	1264.40
481.15	1277.21
481.51	1285.70
481.87	1296.17
482.23	1308.90
482.59	1320.76
482.96	1330.85
483.32	1345.67
483.68	1361.42
484.04	1373.52
484.40	1391.85
484.76	1412.02
485.12	1431.50
485.48	1447.69
485.84	1465.85
486.20	1487.43
486.56	1507.80
486.92	1531.67
487.28	1557.42
487.64	1584.29
488.00	1609.77
488.37	1636.48
488.73	1666.09
489.09	1698.95
489.45	1728.30
489.81	1766.82
490.17	1804.37
490.53	1841.98
490.89	1879.80
491.25	1926.33
491.61	1968.48
491.97	2012.77
492.33	2064.47
492.69	2115.61
493.05	2166.14
493.41	2224.96
493.77	2284.88
494.13	2348.40
494.49	2419.11
494.85	2491.99
495.21	2562.51
495.57	2640.71
495.93	2720.69
496.29	2799.96
496.64	2891.90
497.00	2983.29
497.36	3082.23
497.72	3185.28
498.08	3295.85
498.44	3406.51
498.80	3530.74
499.16	3660.76
499.52	3798.69
499.88	3946.82
500.24	4100.45
500.60	4256.43
500.96	4417.43
501.32	4580.08
501.68	4754.26
502.03	4934.88
502.39	5133.92
502.75	5338.20
503.11	5566.24
503.47	5784.47
503.83	6026.32
504.19	6272.31
504.55	6542.97
504.91	6813.51
505.26	7098.68
505.62	7396.35
505.98	7714.15
506.34	8039.04
506.70	8387.80
507.06	8774.64
507.42	9173.03
507.78	9577.64
508.13	9998.35
508.49	10434.93
508.85	10886.79
509.21	11359.30
509.57	11871.22
509.93	12420.92
510.28	12998.45
510.64	13605.00
511.00	14210.09
511.36	14785.54
511.72	15357.96
512.07	15997.33
512.43	16596.34
512.79	17261.50
513.15	18006.30
513.51	18746.75
513.86	19486.25
514.22	20329.45
514.58	21127.88
514.94	21940.63
515.30	22806.53
515.65	23592.18
516.01	24425.67
516.37	25253.63
516.73	26025.47
517.08	26879.23
517.44	27740.54
517.80	28504.78
518.16	29362.75
518.51	30196.05
518.87	30926.74
519.23	31771.56
519.59	32638.30
519.94	33439.51
520.30	34317.87
520.66	35071.15
521.01	35869.32
521.37	36573.89
521.73	37207.26
522.09	37800.24
522.44	38471.27
522.80	38869.00
523.16	39209.92
523.51	39493.71
523.87	39779.49
524.23	40032.50
524.58	40309.53
524.94	40704.19
525.30	41053.21
525.65	41232.45
526.01	41285.76
526.37	41303.32
526.72	41228.21
527.08	41071.79
527.44	40890.75
527.79	40738.43
528.15	40612.16
528.51	40354.04
528.86	40144.82
529.22	39925.42
529.58	39664.99
529.93	39298.67
530.29	38892.64
530.65	38523.56
531.00	38171.33
531.36	37724.64
531.71	37244.94
532.07	36778.52
532.43	36211.90
532.78	35554.66
533.14	34993.91
533.49	34458.93
533.85	33841.71
534.21	33215.62
534.56	32654.83
534.92	32057.17
535.27	31418.34
535.63	30816.66
535.98	30190.27
536.34	29553.90
536.69	28905.01
537.05	28294.20
537.41	27769.96
537.76	27302.16
538.12	26784.25
538.47	26300.65
538.83	25860.63
539.18	25400.48
539.54	24928.74
539.89	24472.41
540.25	23968.56
540.60	23485.78
540.96	22996.49
541.31	22512.86
541.67	22096.60
542.02	21702.95
542.38	21277.67
542.73	20840.13
543.09	20432.88
543.44	20056.45
543.80	19708.13
544.15	19298.58
544.51	18966.11
544.86	18647.75
545.22	18285.37
545.57	17917.88
545.93	17573.51
546.28	17248.04
546.64	16928.98
546.99	16585.11
547.35	16265.95
547.70	15980.08
548.05	15689.59
548.41	15398.52
548.76	15112.18
549.12	14832.77
549.47	14554.69
549.83	14276.59
550.18	13953.69
550.53	13620.14
550.89	13332.04
551.24	13056.44
551.60	12751.68
551.95	12500.54
552.30	12291.23
552.66	12052.47
553.01	11810.11
553.37	11554.15
553.72	11279.02
554.07	11009.97
554.43	10732.83
554.78	10452.01
555.13	10196.57
555.49	9972.02
555.84	9777.63
556.19	9583.56
556.55	9380.77
556.90	9186.04
557.26	8986.02
557.61	8767.06
557.96	8527.11
558.32	8335.26
558.67	8136.43
559.02	7920.72
559.37	7732.01
559.73	7582.17
560.08	7417.23
560.43	7268.53
560.79	7144.18
561.14	6992.68
561.49	6834.29
561.85	6686.30
562.20	6534.14
562.55	6403.03
562.90	6274.79
563.26	6155.28
563.61	6044.83
563.96	5939.39
564.32	5823.07
564.67	5700.96
565.02	5581.80
565.37	5472.64
565.73	5360.25
566.08	5252.77
566.43	5147.82
566.78	5038.85
567.14	4920.58
567.49	4812.40
567.84	4708.67
568.19	4607.13
568.54	4518.99
568.90	4429.63
569.25	4348.55
569.60	4268.69
569.95	4201.19
570.31	4126.22
570.66	4055.73
571.01	3970.53
571.36	3877.03
571.71	3796.93
572.06	3727.98
572.42	3666.22
572.77	3610.44
573.12	3566.18
573.47	3510.03
573.82	3449.46
574.18	3381.47
574.53	3322.30
574.88	3267.06
575.23	3219.22
575.58	3172.36
575.93	3122.13
576.28	3072.33
576.64	3013.88
576.99	2948.44
577.34	2887.12
577.69	2832.77
578.04	2778.15
578.39	2730.19
578.74	2692.08
579.09	2656.55
579.44	2622.83
579.80	2589.22
580.15	2552.24
580.50	2517.29
580.85	2478.72
581.20	2441.58
581.55	2408.46
581.90	2379.74
582.25	2344.16
582.60	2310.39
582.95	2274.91
583.30	2238.25
583.65	2201.32
584.00	2171.10
584.35	2141.01
584.71	2108.99
585.06	2083.76
585.41	2054.64
585.76	2027.68
586.11	2000.69
586.46	1978.34
586.81	1951.07
587.16	1930.50
587.51	1910.13
587.86	1892.44
588.21	1873.55
588.56	1857.47
588.91	1838.70
589.26	1819.93
589.61	1798.65
589.96	1784.03
590.31	1767.69
590.66	1753.53
591.01	1738.60
591.36	1725.82
591.71	1704.73
592.06	1686.24
592.41	1667.14
592.76	1649.75
593.10	1636.03
593.45	1624.40
593.80	1608.46
594.15	1597.56
594.50	1585.13
594.85	1571.11
595.20	1558.82
595.55	1548.45
595.90	1536.02
596.25	1526.45
596.60	1513.39
596.95	1505.36
597.30	1492.96
597.64	1534.29
597.99	1525.58
598.34	1518.89
598.69	1508.43
599.04	1499.39
599.39	1442.05
599.74	1433.81
600.09	1423.77
600.44	1416.40
600.78	1410.41
601.13	1400.62
601.48	1395.08
601.83	1386.93
602.18	1381.29
602.53	1377.90
602.88	1375.81
603.22	1367.34
603.57	1362.89
603.92	1354.07
604.27	1346.93
604.62	1336.75
604.97	1332.14
605.31	1326.36
605.66	1323.95
606.01	1317.28
606.36	1308.52
606.71	1299.28
607.05	1293.19
607.40	1285.98
607.75	1280.16
608.10	1278.52
608.44	1273.67
608.79	1270.04
609.14	1266.79
609.49	1265.04
609.84	1263.61
610.18	1260.75
610.53	1260.50
610.88	1257.29
611.23	1255.16
611.57	1251.48
611.92	1254.11
612.27	1249.00
612.62	1245.45
612.96	1236.83
613.31	1230.98
613.66	1220.47
614.00	1216.66
614.35	1211.81
614.70	1211.86
615.05	1209.40
615.39	1207.88
615.74	1204.35
616.09	1204.51
616.43	1202.50
616.78	1199.76
617.13	1198.07
617.47	1194.94
617.82	1187.70
618.17	1185.48
618.51	1181.32
618.86	1177.62
619.21	1175.65
619.55	1177.15
619.90	1175.77
620.25	1177.55
620.59	1176.21
620.94	1176.40
621.29	1176.38
621.63	1172.26
621.98	1168.28
622.32	1163.29
622.67	1159.15
623.02	1153.63
623.36	1153.79
623.71	1150.19
624.05	1154.38
624.40	1154.94
624.75	1157.32
625.09	1156.74
625.44	1158.21
625.78	1153.91
626.13	1149.62
626.48	1147.38
626.82	1143.07
627.17	1141.78
627.51	1143.45
627.86	1142.09
628.20	1136.75
628.55	1138.86
628.89	1137.66
629.24	1134.97
629.58	1135.93
629.93	1135.70
630.28	1131.88
630.62	1132.16
630.97	1129.50
631.31	1127.65
631.66	1129.05
632.00	1129.64
632.35	1127.37
632.69	1125.05
633.04	1125.77
633.38	1124.21
633.73	1122.90
634.07	1122.26
634.42	1125.61
634.76	1123.71
635.11	1123.41
635.45	1122.05
635.79	1119.83
636.14	1114.10
636.48	1113.58
636.83	1113.56
637.17	1114.45
637.52	1113.79
637.86	1115.83
638.21	1117.23
638.55	1116.76
638.89	1113.67
639.24	1114.10
639.58	1113.88
639.93	1111.26
640.27	1108.01
640.61	1109.74
640.96	1107.54
641.30	1106.46
641.65	1104.87
641.99	1108.22
642.33	1107.80
642.68	1108.41
643.02	1105.67
643.37	1102.49
643.71	1100.61
644.05	1100.47
644.40	1102.25
644.74	1105.39
645.08	1108.15
645.43	1106.49
645.77	1104.69
646.11	1102.51
646.46	1100.75
646.80	1103.84
647.14	1102.95
647.49	1103.21
647.83	1106.46
648.17	1107.38
648.52	1103.07
648.86	1102.53
649.20	1102.84
649.55	1099.05
649.89	1100.38
650.23	1100.03
650.57	1100.12
650.92	1098.04
651.26	1097.83
651.60	1095.65
651.95	1098.11
652.29	1098.88
652.63	1100.29
652.97	1099.86
653.32	1102.09
653.66	1100.10
654.00	1101.64
654.34	1101.62
654.69	1100.05
655.03	1098.02
655.37	1100.87
655.71	1101.06
656.05	1101.27
656.40	1104.29
656.74	1102.65
657.08	1101.32
657.42	1099.96
657.76	1098.02
658.11	1096.26
658.45	1094.11
658.79	1091.06
659.13	1091.70
659.47	1095.98
659.82	1098.20
660.16	1102.09
660.50	1103.07
660.84	1102.67
661.18	1098.25
661.52	1095.16
661.87	1095.79
662.21	1097.99
662.55	1097.62
662.89	1100.12
663.23	1099.54
663.57	1097.31
663.91	1093.64
664.25	1093.01
664.60	1091.56
664.94	1094.55
665.28	1094.08
665.62	1096.00
665.96	1096.10
666.30	1094.90
666.64	1095.14
666.98	1096.85
667.32	1095.44
667.66	1092.59
668.01	1094.41
668.35	1094.65
668.69	1092.54
669.03	1095.58
669.37	1095.23
669.71	1094.86
670.05	1090.92
670.39	1094.74
670.73	1092.07
671.07	1096.59
671.41	1096.92
671.75	1096.68
672.09	1094.74
672.43	1092.16
672.77	1092.37
673.11	1093.55
673.45	1093.73
673.79	1092.66
674.13	1096.33
674.47	1093.01
674.81	1091.63
675.15	1093.71
675.49	1093.62
675.83	1092.07
676.17	1091.86
676.51	1090.81
676.85	1090.08
677.19	1089.05
677.53	1088.56
677.87	1089.03
678.21	1089.75
678.55	1088.58
678.89	1089.36
679.23	1088.19
679.57	1086.34
679.90	1085.73
680.24	1086.83
680.58	1083.25
680.92	1083.43
681.26	1083.55
681.60	1079.13
681.94	1080.34
682.28	1085.35
682.62	1085.59
682.96	1086.83
683.29	1088.12
683.63	1084.02
683.97	1081.66
684.31	1082.50
684.65	1082.71
684.99	1084.58
685.33	1084.32
685.67	1086.27
686.00	1087.30
686.34	1086.34
686.68	1086.29
687.02	1092.19
687.36	1092.16
687.70	1091.27
688.03	1093.31
688.37	1094.57
688.71	1092.82
689.05	1091.18
689.39	1091.84
689.72	1091.25
690.06	1089.68
690.40	1085.96
690.74	1090.43
691.08	1090.15
691.41	1091.51
691.75	1093.05
692.09	1097.31
692.43	1094.34
692.76	1092.56
693.10	1090.95
693.44	1092.59
693.78	1091.02
694.11	1088.37
694.45	1087.79
694.79	1088.14
695.13	1086.15
695.46	1084.04
695.80	1086.50
696.14	1090.74
696.48	1092.70
696.81	1091.44
697.15	1092.30
697.49	1089.29
697.82	1086.38
698.16	1083.43
698.50	1084.74
698.83	1085.03
699.17	1087.83
699.51	1087.18
699.84	1087.55
700.18	1085.26
700.52	1084.39
700.85	1085.47
701.19	1084.46
701.53	1085.66
701.86	1085.66
702.20	1087.67
702.54	1085.05
702.87	1088.89
703.21	1088.33
703.55	1088.30
703.88	1086.15
704.22	1088.33
704.55	1085.99
704.89	1086.24
705.23	1088.77
705.56	1092.35
705.90	1092.02
706.23	1092.49
706.57	1090.13
706.91	1090.36
707.24	1086.50
707.58	1084.02
707.91	1087.65
708.25	1088.40
708.58	1087.27
708.92	1089.61
709.26	1091.65
709.59	1089.71
709.93	1091.06
710.26	1092.23
710.60	1091.72
710.93	1092.37
711.27	1092.84
711.60	1093.26
711.94	1095.46
712.27	1093.40
712.61	1090.90
712.94	1091.20
713.28	1088.44
713.61	1085.89
713.95	1090.78
714.28	1090.67
714.62	1088.42
714.95	1090.17
715.29	1087.48
715.62	1085.12
715.96	1085.17
716.29	1084.02
716.63	1085.52
716.96	1087.09
717.29	1086.52
717.63	1086.66
717.96	1087.60
718.30	1085.59
718.63	1083.27
718.97	1081.91
719.30	1085.07
719.63	1086.48
719.97	1088.35
720.30	1090.71
720.64	1091.63
720.97	1091.95
721.30	1093.31
721.64	1093.87
721.97	1095.42
722.31	1095.21
722.64	1095.14
722.97	1093.29
723.31	1090.41
723.64	1088.68
723.97	1085.54
724.31	1083.53
724.64	1084.44
724.98	1083.34
725.31	1082.03
725.64	1085.59
725.98	1083.22
726.31	1079.92
726.64	1082.78
726.97	1084.11
727.31	1081.42
727.64	1084.86
727.97	1088.98
728.31	1089.33
728.64	1089.14
728.97	1093.43
729.31	1090.62
729.64	1088.16
729.97	1085.99
730.30	1083.79
730.64	1083.41
730.97	1086.29
731.30	1086.87
731.63	1088.70
731.97	1093.55
732.30	1093.03
732.63	1092.33
732.96	1091.44
733.30	1090.36
733.63	1089.50
733.96	1090.22
734.29	1087.65
734.63	1088.00
734.96	1087.27
735.29	1086.36
735.62	1081.05
735.95	1082.12
736.29	1083.64
736.62	1083.60
736.95	1081.77
737.28	1086.34
737.61	1086.83
737.94	1085.47
738.28	1085.52
738.61	1090.03
738.94	1092.91
739.27	1092.14
739.60	1091.27
739.93	1093.83
740.27	1090.85
740.60	1088.44
740.93	1092.00
741.26	1090.41
741.59	1086.97
741.92	1088.19
742.25	1087.04
742.58	1083.83
742.91	1085.35
743.25	1086.92
743.58	1086.78
743.91	1085.84
744.24	1084.60
744.57	1084.25
744.90	1083.25
745.23	1081.14
745.56	1083.53
745.89	1084.84
746.22	1086.41
746.55	1088.21
746.88	1090.27
747.21	1090.85
747.54	1091.98
747.87	1093.50
748.20	1091.91
748.53	1088.42
748.87	1084.86
749.20	1084.30
749.53	1081.70
749.86	1085.52
750.19	1087.02
750.52	1089.40
750.85	1090.64
751.18	1091.49
751.51	1087.90
751.84	1087.90
752.16	1087.60
752.49	1087.65
752.82	1088.19
753.15	1087.60
753.48	1089.73
753.81	1089.07
754.14	1088.28
754.47	1087.65
754.80	1088.12
755.13	1088.30
755.46	1093.38
755.79	1092.82
756.12	1092.73
756.45	1091.18
756.78	1090.90
757.11	1084.86
757.43	1085.82
757.76	1084.77
758.09	1087.20
758.42	1086.90
758.75	1085.84
759.08	1084.72
759.41	1084.30
759.74	1085.61
760.07	1082.94
760.39	1083.76
760.72	1083.11
761.05	1084.67
761.38	1084.70
761.71	1086.66
762.04	1085.61
762.36	1084.18
762.69	1083.71
763.02	1083.36
763.35	1084.18
