SpectraSuite Data File
++++++++++++++++++++++++++++++++++++
Date: Mon Aug 26 10:26:59 PDT 2019
User: corrico
Dark Spectrum Present: No
Reference Spectrum Present: No
Number of Sampled Component Spectra: 1
Spectrometers: USB2+H06089
Integration Time (usec): 10000 (USB2+H06089)
Spectra Averaged: 20 (USB2+H06089)
Boxcar Smoothing: 2 (USB2+H06089)
Correct for Electrical Dark: No (USB2+H06089)
Strobe/Lamp Enabled: No (USB2+H06089)
Correct for Detector Non-linearity: No (USB2+H06089)
Correct for Stray Light: No (USB2+H06089)
Number of Pixels in Processed Spectrum: 2048
>>>>>Begin Processed Spectral Data<<<<<
339.70	1039.20
340.07	1039.20
340.45	1000.95
340.82	975.96
341.19	950.05
341.57	925.80
341.94	916.02
342.31	908.88
342.69	905.81
343.06	906.63
343.43	901.83
343.81	901.81
344.18	905.09
344.55	909.95
344.93	911.01
345.30	920.13
345.67	929.40
346.04	932.94
346.42	939.91
346.79	949.86
347.16	958.00
347.54	967.27
347.91	979.70
348.28	989.09
348.65	997.96
349.03	1004.49
349.40	1009.38
349.77	1018.39
350.14	1023.56
350.52	1031.90
350.89	1036.86
351.26	1045.92
351.63	1052.14
352.01	1057.24
352.38	1058.58
352.75	1067.03
353.12	1070.70
353.50	1069.86
353.87	1070.96
354.24	1074.87
354.61	1071.78
354.98	1069.84
355.36	1072.92
355.73	1077.79
356.10	1078.31
356.47	1082.17
356.84	1084.16
357.22	1081.56
357.59	1083.13
357.96	1082.50
358.33	1078.94
358.70	1079.60
359.08	1083.27
359.45	1077.89
359.82	1078.61
360.19	1083.39
360.56	1080.09
360.94	1078.54
361.31	1078.47
361.68	1074.98
362.05	1069.34
362.42	1070.16
362.79	1070.91
363.16	1072.55
363.54	1071.66
363.91	1072.78
364.28	1072.39
364.65	1070.28
365.02	1067.47
365.39	1069.91
365.76	1068.50
366.14	1069.27
366.51	1068.83
366.88	1067.33
367.25	1068.01
367.62	1069.77
367.99	1069.95
368.36	1070.89
368.73	1073.88
369.10	1071.73
369.48	1072.71
369.85	1069.84
370.22	1067.89
370.59	1066.47
370.96	1066.44
371.33	1065.37
371.70	1065.39
372.07	1068.08
372.44	1069.77
372.81	1071.22
373.18	1070.21
373.55	1070.05
373.93	1071.68
374.30	1071.24
374.67	1069.06
375.04	1071.22
375.41	1070.77
375.78	1068.29
376.15	1070.07
376.52	1066.91
376.89	1064.62
377.26	1065.76
377.63	1066.11
378.00	1066.18
378.37	1067.80
378.74	1068.20
379.11	1070.47
379.48	1071.71
379.85	1070.30
380.22	1073.60
380.59	1074.52
380.96	1072.74
381.33	1070.05
381.70	1070.56
382.07	1072.92
382.44	1069.93
382.81	1070.87
383.18	1071.85
383.55	1075.13
383.92	1075.71
384.29	1079.50
384.66	1078.38
385.03	1077.25
385.40	1070.19
385.77	1066.16
386.14	1065.11
386.51	1065.37
386.88	1066.21
387.25	1069.91
387.62	1070.58
387.99	1072.71
388.36	1078.12
388.73	1080.67
389.10	1080.32
389.46	1080.70
389.83	1079.17
390.20	1072.81
390.57	1067.59
390.94	1066.77
391.31	1064.99
391.68	1062.14
392.05	1061.50
392.42	1060.47
392.79	1063.63
393.16	1065.41
393.53	1069.25
393.89	1074.31
394.26	1078.28
394.63	1078.28
395.00	1078.43
395.37	1075.03
395.74	1073.81
396.11	1074.38
396.48	1072.22
396.84	1072.46
397.21	1075.03
397.58	1073.72
397.95	1070.91
398.32	1071.78
398.69	1070.40
399.06	1071.45
399.42	1073.23
399.79	1075.99
400.16	1076.51
400.53	1080.13
400.90	1081.63
401.27	1078.78
401.64	1079.85
402.00	1078.21
402.37	1077.25
402.74	1074.33
403.11	1072.27
403.48	1069.51
403.84	1069.86
404.21	1070.68
404.58	1070.98
404.95	1073.44
405.32	1073.32
405.68	1072.92
406.05	1068.48
406.42	1065.67
406.79	1066.63
407.16	1068.62
407.52	1066.70
407.89	1068.06
408.26	1072.53
408.63	1071.26
408.99	1070.84
409.36	1071.10
409.73	1072.60
410.10	1073.16
410.47	1075.05
410.83	1073.35
411.20	1080.74
411.57	1082.17
411.94	1082.73
412.30	1084.60
412.67	1087.44
413.04	1085.61
413.40	1082.29
413.77	1078.78
414.14	1077.89
414.51	1079.27
414.87	1078.73
415.24	1082.15
415.61	1083.34
415.97	1077.72
416.34	1077.04
416.71	1076.62
417.08	1074.26
417.44	1075.22
417.81	1078.40
418.18	1077.63
418.54	1077.11
418.91	1077.65
419.28	1075.03
419.64	1078.59
420.01	1078.03
420.38	1078.50
420.74	1079.03
421.11	1083.01
421.48	1082.29
421.84	1083.27
422.21	1081.51
422.58	1080.20
422.94	1077.68
423.31	1078.57
423.68	1077.07
424.04	1078.75
424.41	1079.13
424.77	1078.59
425.14	1080.11
425.51	1082.38
425.87	1079.92
426.24	1080.44
426.61	1083.53
426.97	1083.43
427.34	1081.51
427.70	1084.37
428.07	1085.63
428.44	1083.55
428.80	1079.67
429.17	1081.82
429.53	1079.17
429.90	1078.14
430.27	1080.27
430.63	1077.75
431.00	1072.22
431.36	1075.59
431.73	1072.25
432.09	1069.70
432.46	1073.35
432.83	1077.04
433.19	1073.00
433.56	1074.77
433.92	1077.96
434.29	1078.03
434.65	1077.33
435.02	1078.82
435.38	1082.64
435.75	1079.78
436.11	1080.02
436.48	1082.73
436.84	1080.86
437.21	1078.40
437.57	1077.65
437.94	1076.90
438.30	1075.15
438.67	1077.79
439.03	1078.57
439.40	1081.89
439.76	1080.86
440.13	1081.61
440.49	1082.57
440.86	1082.45
441.22	1082.66
441.59	1085.61
441.95	1084.86
442.32	1082.47
442.68	1082.78
443.05	1080.09
443.41	1078.96
443.78	1079.57
444.14	1081.12
444.51	1081.16
444.87	1081.70
445.24	1080.77
445.60	1080.91
445.96	1079.10
446.33	1078.52
446.69	1079.48
447.06	1078.57
447.42	1077.09
447.79	1077.61
448.15	1078.92
448.51	1078.45
448.88	1080.65
449.24	1081.40
449.61	1084.72
449.97	1082.69
450.33	1082.19
450.70	1082.43
451.06	1081.33
451.43	1076.95
451.79	1081.05
452.15	1082.45
452.52	1082.94
452.88	1083.93
453.24	1085.56
453.61	1082.80
453.97	1081.44
454.34	1080.46
454.70	1082.43
455.06	1081.56
455.43	1083.20
455.79	1081.96
456.15	1082.17
456.52	1079.69
456.88	1081.66
457.24	1080.44
457.61	1083.11
457.97	1084.42
458.33	1090.34
458.70	1090.71
459.06	1088.61
459.42	1088.19
459.79	1087.95
460.15	1085.47
460.51	1085.42
460.88	1086.62
461.24	1086.73
461.60	1086.13
461.96	1085.24
462.33	1085.91
462.69	1085.35
463.05	1086.83
463.42	1084.98
463.78	1083.90
464.14	1082.01
464.50	1081.87
464.87	1079.50
465.23	1079.69
465.59	1080.93
465.95	1083.01
466.32	1082.87
466.68	1081.21
467.04	1083.29
467.40	1083.39
467.77	1080.18
468.13	1081.33
468.49	1081.89
468.85	1081.98
469.22	1082.59
469.58	1084.56
469.94	1085.35
470.30	1086.03
470.66	1081.19
471.03	1078.54
471.39	1076.34
471.75	1076.62
472.11	1074.87
472.47	1079.36
472.84	1080.72
473.20	1085.00
473.56	1083.18
473.92	1085.38
474.28	1084.09
474.65	1085.10
475.01	1083.04
475.37	1082.08
475.73	1083.93
476.09	1081.98
476.45	1079.64
476.81	1080.13
477.18	1081.26
477.54	1081.89
477.90	1084.32
478.26	1083.74
478.62	1082.12
478.98	1086.22
479.34	1085.84
479.71	1084.67
480.07	1083.20
480.43	1086.69
480.79	1083.76
481.15	1082.69
481.51	1085.52
481.87	1086.38
482.23	1083.36
482.59	1085.47
482.96	1086.17
483.32	1084.60
483.68	1084.30
484.04	1086.50
484.40	1083.11
484.76	1083.41
485.12	1083.41
485.48	1082.12
485.84	1081.47
486.20	1081.02
486.56	1079.76
486.92	1077.30
487.28	1082.40
487.64	1083.04
488.00	1084.07
488.37	1085.35
488.73	1091.30
489.09	1089.00
489.45	1088.00
489.81	1091.46
490.17	1091.72
490.53	1088.28
490.89	1089.22
491.25	1089.19
491.61	1086.52
491.97	1085.94
492.33	1087.25
492.69	1085.49
493.05	1084.56
493.41	1082.38
493.77	1080.95
494.13	1079.36
494.49	1080.30
494.85	1080.09
495.21	1081.26
495.57	1082.47
495.93	1083.34
496.29	1080.58
496.64	1078.36
497.00	1079.27
497.36	1076.95
497.72	1077.14
498.08	1077.51
498.44	1080.81
498.80	1082.17
499.16	1084.30
499.52	1084.44
499.88	1087.06
500.24	1088.26
500.60	1086.15
500.96	1087.30
501.32	1085.28
501.68	1086.10
502.03	1082.29
502.39	1086.66
502.75	1084.35
503.11	1083.76
503.47	1083.01
503.83	1084.58
504.19	1080.65
504.55	1080.65
504.91	1080.86
505.26	1081.91
505.62	1080.70
505.98	1081.44
506.34	1081.73
506.70	1085.45
507.06	1085.84
507.42	1086.76
507.78	1084.16
508.13	1084.35
508.49	1082.45
508.85	1081.35
509.21	1084.44
509.57	1088.21
509.93	1087.81
510.28	1086.87
510.64	1085.96
511.00	1083.27
511.36	1080.93
511.72	1081.87
512.07	1078.45
512.43	1075.57
512.79	1076.20
513.15	1078.68
513.51	1078.47
513.86	1080.46
514.22	1085.33
514.58	1087.11
514.94	1085.80
515.30	1088.42
515.65	1088.77
516.01	1085.17
516.37	1084.53
516.73	1084.74
517.08	1081.09
517.44	1083.53
517.80	1084.39
518.16	1085.00
518.51	1085.19
518.87	1085.05
519.23	1085.59
519.59	1085.33
519.94	1082.54
520.30	1079.08
520.66	1080.53
521.01	1077.42
521.37	1079.67
521.73	1081.68
522.09	1084.00
522.44	1078.40
522.80	1081.98
523.16	1079.55
523.51	1078.54
523.87	1078.28
524.23	1082.94
524.58	1083.74
524.94	1087.20
525.30	1088.26
525.65	1089.07
526.01	1088.86
526.37	1089.61
526.72	1089.45
527.08	1086.48
527.44	1084.14
527.79	1085.40
528.15	1083.11
528.51	1083.29
528.86	1086.08
529.22	1090.08
529.58	1090.03
529.93	1086.22
530.29	1083.79
530.65	1084.60
531.00	1081.80
531.36	1081.40
531.71	1087.93
532.07	1089.24
532.43	1085.68
532.78	1088.02
533.14	1088.82
533.49	1084.09
533.85	1086.08
534.21	1090.15
534.56	1089.45
534.92	1087.97
535.27	1085.59
535.63	1080.98
535.98	1079.34
536.34	1078.82
536.69	1081.42
537.05	1086.97
537.41	1087.93
537.76	1086.66
538.12	1086.27
538.47	1083.27
538.83	1079.85
539.18	1079.01
539.54	1081.73
539.89	1083.50
540.25	1083.27
540.60	1084.91
540.96	1090.41
541.31	1088.61
541.67	1087.32
542.02	1086.48
542.38	1088.65
542.73	1085.87
543.09	1083.50
543.44	1083.69
543.80	1087.48
544.15	1086.31
544.51	1087.16
544.86	1089.87
545.22	1090.22
545.57	1087.44
545.93	1085.24
546.28	1083.13
546.64	1082.45
546.99	1084.30
547.35	1084.51
547.70	1083.81
548.05	1085.28
548.41	1088.42
548.76	1086.20
549.12	1089.31
549.47	1093.22
549.83	1090.17
550.18	1090.67
550.53	1090.34
550.89	1084.67
551.24	1083.11
551.60	1084.89
551.95	1082.43
552.30	1082.76
552.66	1086.66
553.01	1084.53
553.37	1081.96
553.72	1080.02
554.07	1080.41
554.43	1081.12
554.78	1080.53
555.13	1081.49
555.49	1080.95
555.84	1081.07
556.19	1079.76
556.55	1080.46
556.90	1084.04
557.26	1088.02
557.61	1085.54
557.96	1083.55
558.32	1087.44
558.67	1085.10
559.02	1080.39
559.37	1082.01
559.73	1084.74
560.08	1079.95
560.43	1079.31
560.79	1078.89
561.14	1076.44
561.49	1075.41
561.85	1077.86
562.20	1077.04
562.55	1081.00
562.90	1081.70
563.26	1087.16
563.61	1086.13
563.96	1088.47
564.32	1086.90
564.67	1090.39
565.02	1085.87
565.37	1083.69
565.73	1084.56
566.08	1085.05
566.43	1085.49
566.78	1087.41
567.14	1089.89
567.49	1089.00
567.84	1088.42
568.19	1082.22
568.54	1076.27
568.90	1078.36
569.25	1077.72
569.60	1077.37
569.95	1081.54
570.31	1084.14
570.66	1082.87
571.01	1085.12
571.36	1086.34
571.71	1085.77
572.06	1085.38
572.42	1081.68
572.77	1078.94
573.12	1078.94
573.47	1081.66
573.82	1083.41
574.18	1087.41
574.53	1086.27
574.88	1084.42
575.23	1083.11
575.58	1083.08
575.93	1082.99
576.28	1083.90
576.64	1085.17
576.99	1087.13
577.34	1087.76
577.69	1086.22
578.04	1086.31
578.39	1086.29
578.74	1082.90
579.09	1078.82
579.44	1080.63
579.80	1079.41
580.15	1081.47
580.50	1080.09
580.85	1082.85
581.20	1082.05
581.55	1084.81
581.90	1085.03
582.25	1087.53
582.60	1087.37
582.95	1088.77
583.30	1088.70
583.65	1083.76
584.00	1080.93
584.35	1081.82
584.71	1081.14
585.06	1082.10
585.41	1083.76
585.76	1087.06
586.11	1086.38
586.46	1084.00
586.81	1082.31
587.16	1082.38
587.51	1083.41
587.86	1084.96
588.21	1086.62
588.56	1087.86
588.91	1088.23
589.26	1085.56
589.61	1084.37
589.96	1085.61
590.31	1084.11
590.66	1086.27
591.01	1089.87
591.36	1090.81
591.71	1091.88
592.06	1092.70
592.41	1090.34
592.76	1087.90
593.10	1087.41
593.45	1085.33
593.80	1084.02
594.15	1084.79
594.50	1083.93
594.85	1081.84
595.20	1079.81
595.55	1081.94
595.90	1085.14
596.25	1084.14
596.60	1085.40
596.95	1090.60
597.30	1091.77
597.64	1138.06
597.99	1144.55
598.34	1143.59
598.69	1138.23
599.04	1137.99
599.39	1089.78
599.74	1085.26
600.09	1085.56
600.44	1088.58
600.78	1085.91
601.13	1087.62
601.48	1087.67
601.83	1088.56
602.18	1088.12
602.53	1091.49
602.88	1090.55
603.22	1089.38
603.57	1091.58
603.92	1092.54
604.27	1091.79
604.62	1090.22
604.97	1091.18
605.31	1090.46
605.66	1091.04
606.01	1091.11
606.36	1090.50
606.71	1090.15
607.05	1089.45
607.40	1087.16
607.75	1084.25
608.10	1082.59
608.44	1079.57
608.79	1080.11
609.14	1086.69
609.49	1090.81
609.84	1096.12
610.18	1104.19
610.53	1107.73
610.88	1105.60
611.23	1105.44
611.57	1106.77
611.92	1101.43
612.27	1100.61
612.62	1097.88
612.96	1098.16
613.31	1094.06
613.66	1096.94
614.00	1096.40
614.35	1096.28
614.70	1094.69
615.05	1095.11
615.39	1094.06
615.74	1091.86
616.09	1090.97
616.43	1089.87
616.78	1087.18
617.13	1088.12
617.47	1086.85
617.82	1084.35
618.17	1085.45
618.51	1089.61
618.86	1086.55
619.21	1091.74
619.55	1094.32
619.90	1095.77
620.25	1094.32
620.59	1095.82
620.94	1088.16
621.29	1092.91
621.63	1089.75
621.98	1086.97
622.32	1085.77
622.67	1086.99
623.02	1083.62
623.36	1084.23
623.71	1082.54
624.05	1086.03
624.40	1087.83
624.75	1085.33
625.09	1084.11
625.44	1089.24
625.78	1085.49
626.13	1086.62
626.48	1086.38
626.82	1086.78
627.17	1087.04
627.51	1086.99
627.86	1086.36
628.20	1088.35
628.55	1087.83
628.89	1088.07
629.24	1090.55
629.58	1089.92
629.93	1088.86
630.28	1090.74
630.62	1087.23
630.97	1085.03
631.31	1086.85
631.66	1089.61
632.00	1088.56
632.35	1091.27
632.69	1090.20
633.04	1088.54
633.38	1086.36
633.73	1086.78
634.07	1086.20
634.42	1086.57
634.76	1086.59
635.11	1086.50
635.45	1084.35
635.79	1084.16
636.14	1085.38
636.48	1084.23
636.83	1084.81
637.17	1084.51
637.52	1085.12
637.86	1083.29
638.21	1084.00
638.55	1082.31
638.89	1082.29
639.24	1082.97
639.58	1085.03
639.93	1084.58
640.27	1085.31
640.61	1085.42
640.96	1083.29
641.30	1082.12
641.65	1080.34
641.99	1078.36
642.33	1081.16
642.68	1078.24
643.02	1078.94
643.37	1081.56
643.71	1082.38
644.05	1078.99
644.40	1081.12
644.74	1080.13
645.08	1080.77
645.43	1080.18
645.77	1081.63
646.11	1080.65
646.46	1081.16
646.80	1081.80
647.14	1082.03
647.49	1082.01
647.83	1084.89
648.17	1084.86
648.52	1082.73
648.86	1082.40
649.20	1085.38
649.55	1086.69
649.89	1086.31
650.23	1086.78
650.57	1087.39
650.92	1084.67
651.26	1083.60
651.60	1086.24
651.95	1084.74
652.29	1086.78
652.63	1085.89
652.97	1085.91
653.32	1085.89
653.66	1086.57
654.00	1084.74
654.34	1087.11
654.69	1084.74
655.03	1081.21
655.37	1082.73
655.71	1080.93
656.05	1079.46
656.40	1078.57
656.74	1081.75
657.08	1081.84
657.42	1080.70
657.76	1080.09
658.11	1084.96
658.45	1084.51
658.79	1083.97
659.13	1087.55
659.47	1089.36
659.82	1085.03
660.16	1083.20
660.50	1083.60
660.84	1082.73
661.18	1078.54
661.52	1076.95
661.87	1078.54
662.21	1078.45
662.55	1080.16
662.89	1084.70
663.23	1087.34
663.57	1084.89
663.91	1085.54
664.25	1087.46
664.60	1086.62
664.94	1087.04
665.28	1090.90
665.62	1090.20
665.96	1089.24
666.30	1089.29
666.64	1091.86
666.98	1088.61
667.32	1087.37
667.66	1085.91
668.01	1086.03
668.35	1085.35
668.69	1090.50
669.03	1091.37
669.37	1087.34
669.71	1089.10
670.05	1084.63
670.39	1078.96
670.73	1077.42
671.07	1081.42
671.41	1079.90
671.75	1082.10
672.09	1084.51
672.43	1084.39
672.77	1083.95
673.11	1083.71
673.45	1084.04
673.79	1083.88
674.13	1084.89
674.47	1084.89
674.81	1084.79
675.15	1082.83
675.49	1080.06
675.83	1082.40
676.17	1083.50
676.51	1084.16
676.85	1087.67
677.19	1092.02
677.53	1091.74
677.87	1087.95
678.21	1082.61
678.55	1079.53
678.89	1075.94
679.23	1075.71
679.57	1079.71
679.90	1086.55
680.24	1086.59
680.58	1086.99
680.92	1085.35
681.26	1080.84
681.60	1080.70
681.94	1083.60
682.28	1086.66
682.62	1088.07
682.96	1091.91
683.29	1090.06
683.63	1090.83
683.97	1087.60
684.31	1087.16
684.65	1084.11
684.99	1081.98
685.33	1080.86
685.67	1085.56
686.00	1085.56
686.34	1089.54
686.68	1092.42
687.02	1091.42
687.36	1088.19
687.70	1087.97
688.03	1085.52
688.37	1083.97
688.71	1085.77
689.05	1086.15
689.39	1085.12
689.72	1085.17
690.06	1083.60
690.40	1080.13
690.74	1078.87
691.08	1079.60
691.41	1080.53
691.75	1082.85
692.09	1085.07
692.43	1085.94
692.76	1088.98
693.10	1089.57
693.44	1086.90
693.78	1087.06
694.11	1088.37
694.45	1084.81
694.79	1085.66
695.13	1086.43
695.46	1084.56
695.80	1081.07
696.14	1079.97
696.48	1075.99
696.81	1077.11
697.15	1076.11
697.49	1077.70
697.82	1079.31
698.16	1084.11
698.50	1086.20
698.83	1086.78
699.17	1087.13
699.51	1086.80
699.84	1084.53
700.18	1081.19
700.52	1082.87
700.85	1081.30
701.19	1080.63
701.53	1078.10
701.86	1079.10
702.20	1080.18
702.54	1079.48
702.87	1082.01
703.21	1083.08
703.55	1087.23
703.88	1086.17
704.22	1089.19
704.55	1087.02
704.89	1087.79
705.23	1084.44
705.56	1086.36
705.90	1084.18
706.23	1084.44
706.57	1086.36
706.91	1085.21
707.24	1081.94
707.58	1082.76
707.91	1082.71
708.25	1078.59
708.58	1079.74
708.92	1078.73
709.26	1080.70
709.59	1084.14
709.93	1088.72
710.26	1087.23
710.60	1088.26
710.93	1083.93
711.27	1081.30
711.60	1080.98
711.94	1085.31
712.27	1085.19
712.61	1089.38
712.94	1086.57
713.28	1084.74
713.61	1083.04
713.95	1081.98
714.28	1080.48
714.62	1080.74
714.95	1082.47
715.29	1080.58
715.62	1081.56
715.96	1082.50
716.29	1086.99
716.63	1086.27
716.96	1085.89
717.29	1086.78
717.63	1086.41
717.96	1081.28
718.30	1082.73
718.63	1083.83
718.97	1082.45
719.30	1079.95
719.63	1082.31
719.97	1080.51
720.30	1081.66
720.64	1081.61
720.97	1082.97
721.30	1085.63
721.64	1081.82
721.97	1080.95
722.31	1083.22
722.64	1082.59
722.97	1080.02
723.31	1079.71
723.64	1078.03
723.97	1076.53
724.31	1078.31
724.64	1077.58
724.98	1080.39
725.31	1082.10
725.64	1081.42
725.98	1080.84
726.31	1079.83
726.64	1078.80
726.97	1078.54
727.31	1082.38
727.64	1083.74
727.97	1084.09
728.31	1086.10
728.64	1082.45
728.97	1081.23
729.31	1079.67
729.64	1082.66
729.97	1080.34
730.30	1082.47
730.64	1084.60
730.97	1084.91
731.30	1083.93
731.63	1088.30
731.97	1089.87
732.30	1083.69
732.63	1082.31
732.96	1082.03
733.30	1079.46
733.63	1077.91
733.96	1081.94
734.29	1082.26
734.63	1081.05
734.96	1083.22
735.29	1084.37
735.62	1081.82
735.95	1081.84
736.29	1082.85
736.62	1081.63
736.95	1079.78
737.28	1082.78
737.61	1085.33
737.94	1084.67
738.28	1084.72
738.61	1085.80
738.94	1086.29
739.27	1083.22
739.60	1082.10
739.93	1082.78
740.27	1086.73
740.60	1085.21
740.93	1086.17
741.26	1088.65
741.59	1089.03
741.92	1088.04
742.25	1089.59
742.58	1089.17
742.91	1088.21
743.25	1087.37
743.58	1083.50
743.91	1082.73
744.24	1084.93
744.57	1082.24
744.90	1081.42
745.23	1081.96
745.56	1081.70
745.89	1080.18
746.22	1080.95
746.55	1081.02
746.88	1083.32
747.21	1081.02
747.54	1079.90
747.87	1082.57
748.20	1082.73
748.53	1081.87
748.87	1082.64
749.20	1085.17
749.53	1083.50
749.86	1082.17
750.19	1079.69
750.52	1078.03
750.85	1076.53
751.18	1076.67
751.51	1077.16
751.84	1082.29
752.16	1084.65
752.49	1087.72
752.82	1089.05
753.15	1091.34
753.48	1089.22
753.81	1087.58
754.14	1082.57
754.47	1081.49
754.80	1077.23
755.13	1076.27
755.46	1076.67
755.79	1077.44
756.12	1079.27
756.45	1082.03
756.78	1084.72
757.11	1083.01
757.43	1087.09
757.76	1086.64
758.09	1086.64
758.42	1086.73
758.75	1089.31
759.08	1085.70
759.41	1085.45
759.74	1082.08
760.07	1074.63
760.39	1075.97
760.72	1077.40
761.05	1076.79
761.38	1079.78
761.71	1084.28
762.04	1082.99
762.36	1081.56
762.69	1081.66
763.02	1082.85
763.35	1083.55
763.68	1083.57
764.01	1084.93
764.33	1086.50
764.66	1087.48
764.99	1087.16
765.32	1088.61
765.65	1088.70
765.97	1086.41
766.30	1083.74
