SpectraSuite Data File
++++++++++++++++++++++++++++++++++++
Date: Mon Aug 26 10:26:40 PDT 2019
User: corrico
Dark Spectrum Present: No
Reference Spectrum Present: No
Number of Sampled Component Spectra: 1
Spectrometers: USB2+H06089
Integration Time (usec): 10000 (USB2+H06089)
Spectra Averaged: 20 (USB2+H06089)
Boxcar Smoothing: 2 (USB2+H06089)
Correct for Electrical Dark: No (USB2+H06089)
Strobe/Lamp Enabled: No (USB2+H06089)
Correct for Detector Non-linearity: No (USB2+H06089)
Correct for Stray Light: No (USB2+H06089)
Number of Pixels in Processed Spectrum: 2048
>>>>>Begin Processed Spectral Data<<<<<
339.70	1015.44
340.07	1015.44
340.45	990.33
340.82	971.28
341.19	951.01
341.57	928.42
341.94	916.60
342.31	902.84
342.69	899.98
343.06	898.72
343.43	898.86
343.81	899.02
344.18	904.97
344.55	906.91
344.93	909.98
345.30	916.83
345.67	923.48
346.04	933.03
346.42	942.07
346.79	953.37
347.16	960.46
347.54	974.04
347.91	982.25
348.28	990.30
348.65	997.77
349.03	1007.69
349.40	1014.51
349.77	1021.92
350.14	1028.57
350.52	1034.77
350.89	1042.36
351.26	1048.02
351.63	1054.88
352.01	1062.60
352.38	1068.52
352.75	1071.59
353.12	1076.58
353.50	1080.74
353.87	1085.63
354.24	1090.06
354.61	1090.71
354.98	1093.01
355.36	1092.40
355.73	1091.88
356.10	1088.93
356.47	1087.97
356.84	1086.71
357.22	1089.03
357.59	1088.75
357.96	1088.14
358.33	1089.89
358.70	1088.04
359.08	1086.71
359.45	1089.47
359.82	1089.38
360.19	1087.93
360.56	1087.37
360.94	1086.24
361.31	1083.13
361.68	1083.22
362.05	1086.06
362.42	1087.18
362.79	1086.36
363.16	1084.63
363.54	1082.64
363.91	1080.04
364.28	1079.81
364.65	1080.13
365.02	1079.08
365.39	1079.74
365.76	1082.29
366.14	1078.73
366.51	1079.17
366.88	1076.69
367.25	1079.64
367.62	1078.96
367.99	1081.89
368.36	1080.02
368.73	1084.77
369.10	1083.90
369.48	1083.53
369.85	1082.36
370.22	1080.53
370.59	1078.75
370.96	1080.18
371.33	1078.50
371.70	1077.75
372.07	1078.59
372.44	1078.24
372.81	1075.27
373.18	1074.98
373.55	1077.30
373.93	1079.99
374.30	1080.34
374.67	1081.33
375.04	1081.12
375.41	1078.89
375.78	1078.66
376.15	1079.71
376.52	1080.04
376.89	1080.95
377.26	1083.48
377.63	1084.02
378.00	1083.48
378.37	1083.69
378.74	1083.67
379.11	1084.00
379.48	1083.41
379.85	1082.64
380.22	1084.02
380.59	1084.39
380.96	1082.19
381.33	1082.36
381.70	1085.19
382.07	1084.46
382.44	1083.41
382.81	1084.98
383.18	1084.49
383.55	1081.66
383.92	1081.82
384.29	1084.09
384.66	1084.39
385.03	1086.78
385.40	1086.94
385.77	1085.89
386.14	1084.28
386.51	1084.53
386.88	1083.29
387.25	1088.51
387.62	1090.92
387.99	1092.89
388.36	1092.56
388.73	1091.37
389.10	1088.77
389.46	1088.96
389.83	1085.26
390.20	1085.87
390.57	1086.66
390.94	1084.74
391.31	1082.87
391.68	1087.18
392.05	1087.58
392.42	1085.66
392.79	1086.08
393.16	1086.48
393.53	1086.27
393.89	1082.97
394.26	1086.31
394.63	1086.48
395.00	1085.26
395.37	1086.73
395.74	1091.60
396.11	1092.96
396.48	1093.40
396.84	1090.69
397.21	1088.00
397.58	1085.63
397.95	1082.99
398.32	1081.66
398.69	1085.47
399.06	1088.93
399.42	1089.24
399.79	1089.92
400.16	1092.23
400.53	1092.73
400.90	1092.70
401.27	1094.27
401.64	1097.31
402.00	1098.58
402.37	1098.06
402.74	1098.98
403.11	1100.75
403.48	1097.88
403.84	1096.70
404.21	1099.75
404.58	1097.95
404.95	1096.12
405.32	1095.32
405.68	1093.50
406.05	1091.25
406.42	1090.95
406.79	1089.71
407.16	1093.99
407.52	1095.37
407.89	1098.09
408.26	1098.25
408.63	1099.68
408.99	1098.11
409.36	1099.84
409.73	1098.11
410.10	1098.98
410.47	1099.42
410.83	1099.58
411.20	1099.28
411.57	1101.48
411.94	1100.45
412.30	1099.75
412.67	1097.55
413.04	1097.41
413.40	1095.58
413.77	1096.73
414.14	1098.62
414.51	1102.25
414.87	1105.18
415.24	1103.84
415.61	1102.65
415.97	1101.81
416.34	1103.73
416.71	1099.47
417.08	1102.84
417.44	1103.77
417.81	1106.32
418.18	1103.98
418.54	1107.59
418.91	1109.51
419.28	1112.27
419.64	1110.14
420.01	1111.38
420.38	1113.67
420.74	1107.38
421.11	1107.87
421.48	1108.57
421.84	1107.45
422.21	1103.47
422.58	1106.63
422.94	1104.10
423.31	1101.32
423.68	1102.58
424.04	1103.19
424.41	1104.50
424.77	1105.51
425.14	1110.56
425.51	1111.01
425.87	1111.50
426.24	1110.79
426.61	1110.87
426.97	1113.11
427.34	1112.74
427.70	1112.88
428.07	1113.77
428.44	1112.85
428.80	1109.18
429.17	1110.09
429.53	1110.54
429.90	1111.71
430.27	1111.15
430.63	1110.47
431.00	1107.73
431.36	1109.25
431.73	1106.93
432.09	1112.06
432.46	1112.78
432.83	1113.11
433.19	1112.97
433.56	1117.54
433.92	1112.43
434.29	1112.53
434.65	1109.81
435.02	1108.22
435.38	1104.55
435.75	1108.43
436.11	1109.37
436.48	1112.78
436.84	1112.34
437.21	1113.44
437.57	1114.10
437.94	1111.85
438.30	1110.72
438.67	1110.51
439.03	1110.47
439.40	1109.30
439.76	1109.41
440.13	1108.95
440.49	1111.94
440.86	1108.41
441.22	1108.29
441.59	1107.73
441.95	1109.84
442.32	1110.70
442.68	1111.61
443.05	1112.83
443.41	1114.21
443.78	1116.41
444.14	1115.69
444.51	1118.68
444.87	1117.58
445.24	1114.00
445.60	1110.00
445.96	1104.57
446.33	1103.09
446.69	1101.60
447.06	1101.78
447.42	1102.35
447.79	1105.22
448.15	1106.37
448.51	1107.33
448.88	1109.09
449.24	1112.27
449.61	1111.40
449.97	1110.12
450.33	1105.93
450.70	1106.70
451.06	1107.38
451.43	1111.01
451.79	1109.04
452.15	1111.31
452.52	1111.75
452.88	1106.56
453.24	1103.45
453.61	1109.13
453.97	1107.87
454.34	1108.45
454.70	1110.54
455.06	1106.28
455.43	1102.11
455.79	1103.82
456.15	1101.53
456.52	1100.08
456.88	1106.77
457.24	1109.86
457.61	1112.22
457.97	1115.99
458.33	1117.25
458.70	1116.30
459.06	1114.75
459.42	1115.05
459.79	1115.43
460.15	1121.73
460.51	1122.17
460.88	1121.63
461.24	1120.27
461.60	1120.09
461.96	1115.92
462.33	1116.86
462.69	1117.25
463.05	1119.81
463.42	1120.95
463.78	1118.87
464.14	1120.88
464.50	1122.22
464.87	1121.26
465.23	1121.82
465.59	1124.32
465.95	1121.70
466.32	1125.07
466.68	1125.61
467.04	1125.03
467.40	1128.61
467.77	1132.28
468.13	1131.86
468.49	1136.52
468.85	1138.13
469.22	1138.72
469.58	1142.39
469.94	1143.07
470.30	1140.68
470.66	1142.53
471.03	1141.85
471.39	1142.44
471.75	1145.04
472.11	1145.88
472.47	1146.72
472.84	1152.92
473.20	1155.08
473.56	1158.73
473.92	1164.39
474.28	1168.68
474.65	1169.52
475.01	1171.65
475.37	1174.74
475.73	1175.91
476.09	1181.36
476.45	1189.30
476.81	1194.91
477.18	1200.34
477.54	1210.13
477.90	1215.04
478.26	1215.65
478.62	1216.70
478.98	1222.53
479.34	1227.59
479.71	1234.54
480.07	1242.92
480.43	1254.57
480.79	1265.25
481.15	1274.96
481.51	1285.21
481.87	1297.85
482.23	1310.82
482.59	1323.71
482.96	1335.98
483.32	1353.41
483.68	1369.52
484.04	1384.43
484.40	1397.51
484.76	1415.67
485.12	1431.50
485.48	1449.31
485.84	1469.83
486.20	1491.67
486.56	1511.73
486.92	1530.52
487.28	1555.82
487.64	1581.20
488.00	1609.84
488.37	1639.83
488.73	1674.47
489.09	1706.46
489.45	1742.22
489.81	1779.44
490.17	1821.15
490.53	1862.62
490.89	1901.83
491.25	1943.02
491.61	1984.91
491.97	2028.47
492.33	2076.10
492.69	2131.46
493.05	2187.14
493.41	2246.02
493.77	2307.89
494.13	2374.12
494.49	2439.40
494.85	2509.66
495.21	2584.30
495.57	2661.66
495.93	2743.18
496.29	2825.52
496.64	2917.24
497.00	3005.18
497.36	3104.25
497.72	3202.98
498.08	3310.20
498.44	3424.93
498.80	3552.63
499.16	3683.61
499.52	3824.37
499.88	3981.53
500.24	4133.20
500.60	4284.05
500.96	4444.47
501.32	4616.33
501.68	4784.08
502.03	4969.87
502.39	5182.81
502.75	5395.80
503.11	5623.23
503.47	5855.58
503.83	6094.73
504.19	6340.37
504.55	6607.38
504.91	6884.76
505.26	7167.73
505.62	7476.54
505.98	7799.11
506.34	8133.43
506.70	8477.14
507.06	8863.91
507.42	9254.03
507.78	9658.41
508.13	10078.65
508.49	10519.12
508.85	10973.06
509.21	11459.97
509.57	11980.24
509.93	12520.72
510.28	13105.83
510.64	13729.44
511.00	14332.29
511.36	14897.02
511.72	15484.19
512.07	16118.89
512.43	16717.07
512.79	17384.40
513.15	18139.27
513.51	18888.85
513.86	19625.46
514.22	20447.83
514.58	21230.88
514.94	22028.44
515.30	22875.02
515.65	23683.72
516.01	24507.19
516.37	25356.54
516.73	26141.98
517.08	27002.67
517.44	27836.41
517.80	28630.51
518.16	29476.00
518.51	30286.23
518.87	30996.46
519.23	31851.37
519.59	32717.60
519.94	33528.03
520.30	34413.97
520.66	35199.78
521.01	35978.11
521.37	36665.55
521.73	37277.29
522.09	37874.29
522.44	38503.83
522.80	38902.93
523.16	39251.16
523.51	39513.28
523.87	39782.88
524.23	40053.73
524.58	40333.80
524.94	40709.15
525.30	41077.27
525.65	41247.03
526.01	41270.22
526.37	41271.95
526.72	41185.63
527.08	41044.01
527.44	40872.87
527.79	40735.50
528.15	40623.30
528.51	40405.96
528.86	40170.08
529.22	39949.53
529.58	39688.42
529.93	39293.03
530.29	38840.53
530.65	38470.52
531.00	38115.90
531.36	37688.03
531.71	37235.23
532.07	36781.82
532.43	36204.53
532.78	35548.27
533.14	34964.96
533.49	34415.85
533.85	33798.04
534.21	33205.48
534.56	32653.68
534.92	32058.18
535.27	31429.25
535.63	30837.17
535.98	30203.49
536.34	29577.51
536.69	28941.00
537.05	28331.88
537.41	27814.41
537.76	27333.29
538.12	26783.78
538.47	26304.84
538.83	25867.25
539.18	25383.91
539.54	24889.65
539.89	24436.78
540.25	23910.84
540.60	23432.62
540.96	22938.44
541.31	22479.89
541.67	22075.63
542.02	21702.97
542.38	21268.35
542.73	20838.44
543.09	20444.84
543.44	20063.89
543.80	19706.94
544.15	19295.61
544.51	18976.48
544.86	18657.72
545.22	18307.06
545.57	17931.43
545.93	17593.71
546.28	17268.22
546.64	16949.34
546.99	16610.45
547.35	16297.50
547.70	16007.93
548.05	15697.13
548.41	15384.74
548.76	15088.99
549.12	14807.38
549.47	14516.61
549.83	14259.55
550.18	13946.22
550.53	13619.79
550.89	13337.38
551.24	13074.40
551.60	12761.30
551.95	12507.19
552.30	12282.48
552.66	12039.34
553.01	11795.15
553.37	11541.04
553.72	11276.68
554.07	11008.59
554.43	10725.79
554.78	10448.29
555.13	10186.78
555.49	9964.29
555.84	9771.76
556.19	9591.30
556.55	9399.83
556.90	9221.94
557.26	9012.05
557.61	8794.49
557.96	8556.23
558.32	8350.47
558.67	8144.17
559.02	7936.55
559.37	7754.24
559.73	7599.60
560.08	7442.04
560.43	7288.62
560.79	7160.92
561.14	7002.77
561.49	6845.29
561.85	6693.42
562.20	6545.10
562.55	6407.50
562.90	6289.86
563.26	6168.08
563.61	6052.34
563.96	5942.55
564.32	5825.87
564.67	5701.71
565.02	5583.65
565.37	5473.13
565.73	5358.49
566.08	5250.99
566.43	5142.44
566.78	5030.49
567.14	4921.51
567.49	4819.68
567.84	4719.43
568.19	4616.85
568.54	4534.20
568.90	4449.12
569.25	4368.66
569.60	4295.68
569.95	4227.87
570.31	4153.49
570.66	4073.30
571.01	3982.44
571.36	3890.34
571.71	3818.00
572.06	3746.47
572.42	3687.98
572.77	3638.90
573.12	3589.26
573.47	3524.94
573.82	3457.95
574.18	3389.40
574.53	3325.11
574.88	3270.06
575.23	3223.71
575.58	3178.73
575.93	3129.16
576.28	3080.50
576.64	3020.27
576.99	2958.27
577.34	2904.44
577.69	2851.69
578.04	2803.49
578.39	2758.04
578.74	2719.68
579.09	2674.09
579.44	2635.33
579.80	2592.96
580.15	2549.50
580.50	2512.26
580.85	2485.84
581.20	2456.56
581.55	2426.85
581.90	2400.13
582.25	2363.31
582.60	2323.92
582.95	2285.56
583.30	2244.29
583.65	2212.25
584.00	2179.76
584.35	2149.55
584.71	2121.93
585.06	2096.37
585.41	2062.41
585.76	2036.69
586.11	2006.85
586.46	1978.48
586.81	1955.54
587.16	1939.77
587.51	1925.07
587.86	1909.95
588.21	1890.22
588.56	1871.47
588.91	1849.00
589.26	1825.29
589.61	1804.39
589.96	1790.44
590.31	1774.83
590.66	1762.73
591.01	1746.93
591.36	1732.11
591.71	1707.14
592.06	1692.14
592.41	1678.82
592.76	1665.95
593.10	1652.42
593.45	1643.31
593.80	1627.14
594.15	1605.63
594.50	1587.07
594.85	1571.39
595.20	1560.58
595.55	1551.10
595.90	1544.73
596.25	1535.56
596.60	1522.99
596.95	1513.37
597.30	1502.51
597.64	1539.35
597.99	1530.24
598.34	1523.38
598.69	1513.55
599.04	1504.10
599.39	1446.47
599.74	1437.02
600.09	1427.98
600.44	1418.83
600.78	1408.14
601.13	1398.89
601.48	1396.18
601.83	1390.51
602.18	1385.71
602.53	1382.79
602.88	1376.77
603.22	1366.59
603.57	1361.37
603.92	1351.85
604.27	1341.64
604.62	1333.22
604.97	1327.95
605.31	1323.67
605.66	1320.04
606.01	1316.11
606.36	1314.02
606.71	1309.86
607.05	1302.25
607.40	1294.85
607.75	1291.32
608.10	1287.39
608.44	1280.90
608.79	1276.62
609.14	1270.96
609.49	1267.52
609.84	1263.98
610.18	1264.87
610.53	1258.34
610.88	1262.37
611.23	1259.84
611.57	1254.74
611.92	1247.32
612.27	1243.43
612.62	1237.56
612.96	1232.15
613.31	1225.76
613.66	1219.14
614.00	1219.26
614.35	1213.26
614.70	1205.54
615.05	1203.32
615.39	1204.21
615.74	1198.56
616.09	1197.02
616.43	1197.70
616.78	1196.81
617.13	1192.48
617.47	1191.29
617.82	1187.68
618.17	1187.75
618.51	1183.75
618.86	1183.75
619.21	1182.46
619.55	1181.60
619.90	1181.06
620.25	1183.87
620.59	1180.57
620.94	1174.46
621.29	1175.07
621.63	1167.30
621.98	1159.10
622.32	1154.47
622.67	1155.17
623.02	1152.67
623.36	1154.16
623.71	1158.59
624.05	1161.09
624.40	1161.82
624.75	1159.45
625.09	1157.61
625.44	1154.42
625.78	1150.96
626.13	1148.01
626.48	1147.78
626.82	1146.16
627.17	1145.06
627.51	1147.56
627.86	1147.54
628.20	1143.77
628.55	1143.05
628.89	1141.92
629.24	1137.03
629.58	1134.64
629.93	1132.96
630.28	1132.52
630.62	1131.77
630.97	1133.17
631.31	1132.87
631.66	1134.48
632.00	1130.48
632.35	1129.07
632.69	1127.62
633.04	1123.78
633.38	1123.57
633.73	1126.41
634.07	1126.17
634.42	1122.64
634.76	1127.18
635.11	1123.67
635.45	1125.61
635.79	1124.25
636.14	1124.04
636.48	1122.12
636.83	1122.26
637.17	1117.49
637.52	1117.61
637.86	1119.83
638.21	1118.12
638.55	1117.14
638.89	1117.37
639.24	1117.70
639.58	1114.52
639.93	1115.85
640.27	1116.93
640.61	1114.07
640.96	1110.33
641.30	1110.05
641.65	1108.59
641.99	1108.71
642.33	1112.97
642.68	1118.12
643.02	1118.35
643.37	1116.58
643.71	1114.33
644.05	1111.92
644.40	1104.57
644.74	1105.08
645.08	1105.69
645.43	1106.54
645.77	1104.64
646.11	1107.05
646.46	1103.80
646.80	1103.80
647.14	1103.75
647.49	1104.57
647.83	1106.00
648.17	1107.92
648.52	1107.80
648.86	1106.58
649.20	1106.54
649.55	1102.21
649.89	1099.82
650.23	1097.41
650.57	1096.56
650.92	1096.82
651.26	1097.92
651.60	1100.73
651.95	1103.38
652.29	1104.01
652.63	1103.80
652.97	1105.88
653.32	1109.11
653.66	1104.97
654.00	1103.47
654.34	1103.45
654.69	1102.02
655.03	1098.79
655.37	1099.26
655.71	1100.45
656.05	1096.94
656.40	1100.12
656.74	1100.03
657.08	1102.74
657.42	1102.35
657.76	1103.59
658.11	1100.87
658.45	1097.57
658.79	1095.75
659.13	1095.49
659.47	1095.86
659.82	1093.10
660.16	1094.29
660.50	1094.32
660.84	1096.54
661.18	1095.25
661.52	1098.93
661.87	1099.26
662.21	1099.12
662.55	1095.21
662.89	1096.03
663.23	1092.61
663.57	1094.13
663.91	1091.91
664.25	1094.41
664.60	1094.79
664.94	1093.38
665.28	1088.16
665.62	1092.07
665.96	1090.53
666.30	1091.34
666.64	1093.50
666.98	1097.43
667.32	1096.12
667.66	1095.25
668.01	1092.70
668.35	1093.10
668.69	1093.73
669.03	1091.93
669.37	1091.65
669.71	1090.06
670.05	1092.40
670.39	1089.12
670.73	1088.28
671.07	1089.82
671.41	1093.66
671.75	1091.25
672.09	1093.47
672.43	1096.14
672.77	1094.90
673.11	1093.52
673.45	1093.80
673.79	1090.85
674.13	1090.76
674.47	1091.53
674.81	1091.53
675.15	1092.45
675.49	1094.08
675.83	1096.07
676.17	1095.70
676.51	1096.73
676.85	1093.47
677.19	1095.98
677.53	1096.47
677.87	1095.77
678.21	1095.35
678.55	1097.55
678.89	1093.01
679.23	1086.83
679.57	1086.27
679.90	1086.78
680.24	1084.21
680.58	1086.59
680.92	1087.25
681.26	1090.50
681.60	1087.41
681.94	1089.92
682.28	1084.60
682.62	1088.04
682.96	1083.95
683.29	1085.21
683.63	1086.66
683.97	1092.05
684.31	1088.91
684.65	1092.59
684.99	1092.49
685.33	1088.44
685.67	1088.47
686.00	1088.04
686.34	1087.30
686.68	1087.11
687.02	1088.09
687.36	1086.06
687.70	1089.29
688.03	1088.54
688.37	1090.53
688.71	1090.69
689.05	1092.56
689.39	1093.17
689.72	1093.01
690.06	1090.76
690.40	1090.55
690.74	1090.78
691.08	1088.75
691.41	1089.03
691.75	1091.09
692.09	1092.00
692.43	1092.91
692.76	1092.82
693.10	1092.12
693.44	1092.05
693.78	1093.01
694.11	1092.87
694.45	1090.81
694.79	1089.87
695.13	1089.31
695.46	1088.56
695.80	1087.30
696.14	1090.48
696.48	1090.01
696.81	1087.37
697.15	1087.20
697.49	1085.94
697.82	1082.99
698.16	1086.17
698.50	1088.84
698.83	1086.34
699.17	1087.13
699.51	1090.83
699.84	1088.09
700.18	1089.59
700.52	1090.64
700.85	1090.20
701.19	1088.19
701.53	1088.14
701.86	1088.12
702.20	1089.47
702.54	1090.76
702.87	1090.27
703.21	1085.94
703.55	1084.53
703.88	1084.35
704.22	1083.69
704.55	1084.77
704.89	1089.17
705.23	1087.48
705.56	1086.97
705.90	1089.00
706.23	1089.17
706.57	1089.10
706.91	1088.47
707.24	1089.92
707.58	1085.05
707.91	1086.01
708.25	1086.69
708.58	1085.38
708.92	1083.88
709.26	1088.72
709.59	1087.58
709.93	1084.96
710.26	1088.51
710.60	1086.36
710.93	1087.55
711.27	1087.90
711.60	1089.59
711.94	1087.97
712.27	1087.53
712.61	1083.67
712.94	1078.64
713.28	1077.40
713.61	1074.94
713.95	1078.12
714.28	1080.34
714.62	1084.89
714.95	1086.57
715.29	1089.92
715.62	1092.21
715.96	1089.07
716.29	1088.12
716.63	1086.36
716.96	1087.30
717.29	1086.66
717.63	1087.74
717.96	1089.22
718.30	1094.88
718.63	1096.89
718.97	1094.32
719.30	1095.32
719.63	1094.15
719.97	1092.30
720.30	1092.45
720.64	1093.17
720.97	1090.88
721.30	1090.36
721.64	1092.07
721.97	1088.00
722.31	1088.61
722.64	1095.14
722.97	1096.99
723.31	1093.97
723.64	1097.88
723.97	1094.72
724.31	1088.82
724.64	1087.67
724.98	1086.38
725.31	1083.95
725.64	1088.63
725.98	1090.90
726.31	1090.62
726.64	1091.34
726.97	1090.43
727.31	1089.85
727.64	1088.54
727.97	1090.22
728.31	1094.36
728.64	1093.36
728.97	1087.25
729.31	1089.54
729.64	1088.42
729.97	1086.06
730.30	1086.99
730.64	1091.63
730.97	1090.62
731.30	1094.27
731.63	1091.88
731.97	1090.71
732.30	1092.19
732.63	1091.67
732.96	1087.79
733.30	1089.54
733.63	1092.28
733.96	1088.98
734.29	1090.17
734.63	1089.99
734.96	1084.93
735.29	1082.64
735.62	1083.67
735.95	1084.00
736.29	1084.81
736.62	1089.75
736.95	1089.45
737.28	1088.12
737.61	1088.12
737.94	1087.27
738.28	1084.91
738.61	1085.19
738.94	1086.92
739.27	1085.40
739.60	1085.10
739.93	1090.27
740.27	1091.46
740.60	1089.26
740.93	1086.38
741.26	1086.17
741.59	1084.18
741.92	1086.43
742.25	1089.87
742.58	1092.52
742.91	1093.15
743.25	1091.93
743.58	1089.68
743.91	1086.41
744.24	1086.29
744.57	1085.49
744.90	1089.26
745.23	1089.52
745.56	1094.32
745.89	1094.79
746.22	1094.43
746.55	1089.57
746.88	1089.00
747.21	1087.48
747.54	1088.40
747.87	1090.92
748.20	1092.75
748.53	1092.75
748.87	1091.39
749.20	1088.54
749.53	1086.85
749.86	1087.20
750.19	1084.02
750.52	1079.90
750.85	1078.52
751.18	1077.82
751.51	1077.47
751.84	1080.41
752.16	1085.56
752.49	1086.13
752.82	1087.11
753.15	1085.77
753.48	1086.22
753.81	1084.16
754.14	1085.19
754.47	1086.78
754.80	1083.76
755.13	1083.64
755.46	1085.33
755.79	1088.23
756.12	1088.42
756.45	1091.81
756.78	1089.50
757.11	1088.30
757.43	1086.03
757.76	1082.22
758.09	1082.24
758.42	1084.04
758.75	1086.29
759.08	1088.68
759.41	1090.83
759.74	1089.50
760.07	1089.40
760.39	1087.44
760.72	1086.17
761.05	1086.83
761.38	1085.80
761.71	1085.63
762.04	1084.84
762.36	1086.27
762.69	1085.47
763.02	1084.32
763.35	1082.92
