SpectraSuite Data File
++++++++++++++++++++++++++++++++++++
Date: Mon Aug 26 10:27:04 PDT 2019
User: corrico
Dark Spectrum Present: No
Reference Spectrum Present: No
Number of Sampled Component Spectra: 1
Spectrometers: USB2+H06089
Integration Time (usec): 10000 (USB2+H06089)
Spectra Averaged: 20 (USB2+H06089)
Boxcar Smoothing: 2 (USB2+H06089)
Correct for Electrical Dark: No (USB2+H06089)
Strobe/Lamp Enabled: No (USB2+H06089)
Correct for Detector Non-linearity: No (USB2+H06089)
Correct for Stray Light: No (USB2+H06089)
Number of Pixels in Processed Spectrum: 2048
>>>>>Begin Processed Spectral Data<<<<<
339.70	1036.04
340.07	1036.04
340.45	1003.50
340.82	980.45
341.19	955.64
341.57	929.87
341.94	917.70
342.31	908.39
342.69	905.23
343.06	904.36
343.43	903.21
343.81	905.65
344.18	912.50
344.55	915.66
344.93	920.49
345.30	924.72
345.67	928.87
346.04	931.79
346.42	937.36
346.79	943.73
347.16	952.60
347.54	963.11
347.91	974.41
348.28	985.48
348.65	991.19
349.03	999.08
349.40	1007.25
349.77	1011.98
350.14	1017.24
350.52	1027.96
350.89	1037.93
351.26	1041.59
351.63	1045.19
352.01	1051.42
352.38	1055.72
352.75	1056.94
353.12	1062.91
353.50	1067.47
353.87	1069.81
354.24	1073.21
354.61	1076.53
354.98	1076.37
355.36	1078.96
355.73	1078.82
356.10	1081.63
356.47	1082.54
356.84	1082.85
357.22	1083.46
357.59	1083.22
357.96	1079.50
358.33	1078.80
358.70	1077.00
359.08	1077.09
359.45	1077.02
359.82	1078.73
360.19	1078.87
360.56	1080.88
360.94	1080.95
361.31	1082.15
361.68	1076.20
362.05	1075.03
362.42	1074.47
362.79	1070.56
363.16	1068.67
363.54	1070.12
363.91	1067.78
364.28	1066.51
364.65	1065.81
365.02	1065.44
365.39	1064.52
365.76	1064.90
366.14	1064.38
366.51	1065.88
366.88	1064.36
367.25	1064.73
367.62	1066.16
367.99	1063.80
368.36	1061.81
368.73	1066.47
369.10	1067.61
369.48	1064.83
369.85	1069.23
370.22	1071.66
370.59	1074.45
370.96	1075.31
371.33	1078.19
371.70	1076.06
372.07	1078.54
372.44	1075.85
372.81	1076.32
373.18	1077.37
373.55	1079.17
373.93	1077.35
374.30	1073.04
374.67	1069.48
375.04	1066.96
375.41	1067.80
375.78	1065.62
376.15	1068.83
376.52	1069.16
376.89	1070.91
377.26	1071.99
377.63	1072.60
378.00	1071.66
378.37	1076.37
378.74	1075.50
379.11	1071.71
379.48	1072.48
379.85	1073.70
380.22	1072.46
380.59	1071.68
380.96	1072.69
381.33	1073.35
381.70	1071.38
382.07	1069.13
382.44	1069.11
382.81	1069.67
383.18	1071.03
383.55	1071.78
383.92	1073.86
384.29	1075.99
384.66	1075.55
385.03	1073.35
385.40	1073.81
385.77	1073.28
386.14	1071.50
386.51	1072.57
386.88	1072.76
387.25	1073.79
387.62	1074.77
387.99	1076.51
388.36	1078.10
388.73	1079.99
389.10	1077.58
389.46	1080.58
389.83	1080.98
390.20	1076.95
390.57	1076.06
390.94	1078.14
391.31	1074.19
391.68	1073.42
392.05	1074.26
392.42	1072.36
392.79	1070.91
393.16	1069.53
393.53	1071.64
393.89	1070.42
394.26	1069.62
394.63	1071.17
395.00	1071.05
395.37	1069.06
395.74	1070.02
396.11	1071.64
396.48	1068.95
396.84	1071.10
397.21	1070.12
397.58	1073.28
397.95	1074.40
398.32	1078.71
398.69	1079.01
399.06	1081.07
399.42	1078.07
399.79	1075.45
400.16	1075.03
400.53	1074.54
400.90	1075.94
401.27	1079.10
401.64	1082.19
402.00	1080.25
402.37	1081.16
402.74	1080.74
403.11	1078.24
403.48	1074.96
403.84	1075.08
404.21	1075.17
404.58	1073.02
404.95	1073.98
405.32	1079.13
405.68	1079.69
406.05	1076.20
406.42	1074.61
406.79	1071.97
407.16	1069.41
407.52	1067.45
407.89	1069.62
408.26	1069.13
408.63	1070.84
408.99	1073.51
409.36	1074.52
409.73	1075.80
410.10	1078.92
410.47	1078.45
410.83	1073.51
411.20	1073.93
411.57	1071.36
411.94	1072.32
412.30	1072.60
412.67	1074.35
413.04	1071.50
413.40	1073.88
413.77	1073.53
414.14	1074.45
414.51	1071.24
414.87	1072.27
415.24	1069.32
415.61	1069.67
415.97	1070.07
416.34	1071.57
416.71	1074.77
417.08	1075.85
417.44	1072.04
417.81	1072.34
418.18	1074.40
418.54	1071.61
418.91	1076.53
419.28	1079.31
419.64	1078.21
420.01	1078.14
420.38	1084.67
420.74	1080.25
421.11	1079.53
421.48	1080.95
421.84	1083.34
422.21	1078.66
422.58	1079.95
422.94	1081.82
423.31	1080.51
423.68	1076.15
424.04	1074.03
424.41	1073.49
424.77	1069.79
425.14	1071.38
425.51	1075.01
425.87	1077.25
426.24	1076.13
426.61	1079.34
426.97	1079.71
427.34	1079.69
427.70	1080.44
428.07	1082.80
428.44	1085.28
428.80	1082.71
429.17	1082.47
429.53	1084.74
429.90	1082.29
430.27	1079.50
430.63	1079.90
431.00	1079.81
431.36	1077.49
431.73	1080.34
432.09	1078.57
432.46	1078.40
432.83	1078.31
433.19	1074.75
433.56	1071.43
433.92	1072.41
434.29	1072.95
434.65	1072.04
435.02	1076.97
435.38	1078.33
435.75	1079.76
436.11	1082.61
436.48	1085.05
436.84	1084.07
437.21	1084.09
437.57	1083.67
437.94	1080.41
438.30	1076.23
438.67	1075.48
439.03	1077.44
439.40	1074.91
439.76	1073.49
440.13	1076.08
440.49	1075.03
440.86	1075.94
441.22	1081.98
441.59	1084.72
441.95	1082.71
442.32	1086.83
442.68	1083.67
443.05	1079.64
443.41	1079.74
443.78	1084.46
444.14	1082.83
444.51	1085.03
444.87	1086.78
445.24	1086.57
445.60	1085.87
445.96	1082.22
446.33	1082.10
446.69	1082.15
447.06	1082.69
447.42	1083.01
447.79	1088.07
448.15	1085.24
448.51	1082.45
448.88	1081.61
449.24	1078.24
449.61	1074.49
449.97	1077.33
450.33	1079.46
450.70	1081.47
451.06	1083.01
451.43	1081.91
451.79	1079.67
452.15	1079.60
452.52	1076.27
452.88	1075.13
453.24	1076.72
453.61	1079.64
453.97	1081.19
454.34	1082.90
454.70	1083.13
455.06	1083.62
455.43	1084.74
455.79	1082.03
456.15	1081.84
456.52	1079.71
456.88	1080.11
457.24	1078.38
457.61	1080.86
457.97	1080.06
458.33	1079.69
458.70	1080.11
459.06	1077.51
459.42	1075.34
459.79	1076.55
460.15	1078.54
460.51	1078.45
460.88	1079.78
461.24	1080.79
461.60	1081.87
461.96	1084.32
462.33	1085.96
462.69	1086.71
463.05	1084.28
463.42	1081.58
463.78	1079.38
464.14	1074.17
464.50	1073.46
464.87	1071.31
465.23	1071.36
465.59	1071.26
465.95	1070.65
466.32	1070.80
466.68	1074.61
467.04	1078.68
467.40	1080.23
467.77	1082.57
468.13	1084.21
468.49	1084.07
468.85	1083.27
469.22	1081.19
469.58	1083.69
469.94	1079.88
470.30	1082.66
470.66	1081.02
471.03	1080.30
471.39	1079.99
471.75	1084.21
472.11	1081.98
472.47	1082.61
472.84	1085.94
473.20	1084.04
473.56	1083.18
473.92	1082.10
474.28	1079.88
474.65	1077.89
475.01	1078.73
475.37	1074.82
475.73	1075.83
476.09	1077.07
476.45	1077.44
476.81	1078.61
477.18	1083.11
477.54	1084.42
477.90	1081.61
478.26	1082.03
478.62	1081.37
478.98	1080.34
479.34	1079.20
479.71	1084.11
480.07	1083.88
480.43	1084.77
480.79	1084.93
481.15	1085.82
481.51	1085.73
481.87	1087.23
482.23	1084.91
482.59	1084.81
482.96	1081.35
483.32	1080.77
483.68	1080.81
484.04	1083.27
484.40	1082.45
484.76	1085.84
485.12	1084.23
485.48	1082.19
485.84	1078.50
486.20	1077.18
486.56	1076.13
486.92	1076.95
487.28	1077.82
487.64	1080.81
488.00	1084.39
488.37	1086.69
488.73	1084.72
489.09	1085.52
489.45	1082.19
489.81	1081.19
490.17	1079.95
490.53	1082.45
490.89	1083.67
491.25	1085.40
491.61	1085.68
491.97	1084.91
492.33	1083.79
492.69	1081.68
493.05	1083.86
493.41	1085.03
493.77	1082.94
494.13	1083.76
494.49	1081.96
494.85	1078.75
495.21	1076.23
495.57	1076.74
495.93	1074.19
496.29	1078.21
496.64	1081.87
497.00	1079.20
497.36	1080.60
497.72	1084.16
498.08	1083.39
498.44	1083.32
498.80	1086.73
499.16	1088.04
499.52	1088.12
499.88	1086.36
500.24	1087.74
500.60	1087.83
500.96	1086.62
501.32	1084.96
501.68	1086.22
502.03	1086.10
502.39	1087.30
502.75	1088.51
503.11	1086.15
503.47	1083.64
503.83	1081.58
504.19	1079.22
504.55	1077.23
504.91	1077.98
505.26	1079.27
505.62	1078.40
505.98	1079.24
506.34	1081.42
506.70	1084.32
507.06	1088.30
507.42	1086.57
507.78	1084.79
508.13	1084.23
508.49	1084.14
508.85	1078.89
509.21	1082.12
509.57	1083.97
509.93	1083.34
510.28	1081.70
510.64	1082.87
511.00	1082.57
511.36	1080.88
511.72	1080.11
512.07	1082.24
512.43	1084.46
512.79	1082.66
513.15	1084.39
513.51	1081.98
513.86	1080.37
514.22	1079.46
514.58	1078.54
514.94	1076.11
515.30	1077.72
515.65	1079.90
516.01	1078.40
516.37	1078.71
516.73	1079.36
517.08	1082.99
517.44	1078.45
517.80	1078.05
518.16	1079.03
518.51	1081.98
518.87	1075.83
519.23	1077.98
519.59	1080.44
519.94	1082.01
520.30	1081.80
520.66	1088.09
521.01	1090.95
521.37	1089.92
521.73	1088.19
522.09	1086.36
522.44	1081.47
522.80	1077.93
523.16	1079.03
523.51	1078.19
523.87	1080.27
524.23	1082.31
524.58	1082.66
524.94	1082.69
525.30	1086.87
525.65	1085.12
526.01	1083.29
526.37	1085.63
526.72	1083.69
527.08	1081.19
527.44	1083.67
527.79	1082.78
528.15	1079.69
528.51	1079.97
528.86	1080.27
529.22	1079.22
529.58	1082.45
529.93	1082.85
530.29	1083.86
530.65	1082.03
531.00	1081.89
531.36	1081.75
531.71	1083.71
532.07	1083.55
532.43	1082.47
532.78	1081.91
533.14	1083.60
533.49	1085.14
533.85	1086.50
534.21	1089.03
534.56	1088.79
534.92	1088.40
535.27	1084.23
535.63	1083.39
535.98	1085.31
536.34	1082.92
536.69	1081.70
537.05	1083.86
537.41	1085.05
537.76	1086.69
538.12	1089.75
538.47	1088.58
538.83	1089.78
539.18	1088.28
539.54	1086.69
539.89	1087.69
540.25	1090.88
540.60	1092.02
540.96	1093.01
541.31	1092.37
541.67	1092.23
542.02	1090.48
542.38	1087.86
542.73	1085.94
543.09	1082.36
543.44	1081.98
543.80	1081.49
544.15	1081.73
544.51	1081.98
544.86	1088.51
545.22	1087.30
545.57	1086.48
545.93	1088.93
546.28	1089.29
546.64	1085.80
546.99	1086.50
547.35	1087.09
547.70	1085.35
548.05	1085.49
548.41	1084.04
548.76	1084.58
549.12	1086.57
549.47	1088.12
549.83	1087.55
550.18	1086.22
550.53	1084.04
550.89	1081.94
551.24	1080.16
551.60	1079.95
551.95	1082.22
552.30	1084.21
552.66	1084.18
553.01	1081.51
553.37	1081.73
553.72	1080.34
554.07	1077.09
554.43	1076.34
554.78	1079.76
555.13	1078.99
555.49	1078.75
555.84	1082.59
556.19	1083.86
556.55	1079.43
556.90	1077.42
557.26	1079.67
557.61	1077.65
557.96	1079.62
558.32	1085.21
558.67	1086.52
559.02	1086.57
559.37	1087.32
559.73	1087.32
560.08	1085.42
560.43	1087.02
560.79	1086.10
561.14	1087.72
561.49	1087.83
561.85	1087.65
562.20	1089.75
562.55	1088.16
562.90	1086.97
563.26	1084.32
563.61	1084.04
563.96	1080.09
564.32	1082.97
564.67	1084.89
565.02	1082.85
565.37	1083.11
565.73	1081.54
566.08	1080.41
566.43	1077.98
566.78	1078.92
567.14	1077.51
567.49	1079.99
567.84	1082.71
568.19	1081.49
568.54	1080.09
568.90	1080.16
569.25	1080.20
569.60	1075.22
569.95	1075.34
570.31	1078.99
570.66	1079.38
571.01	1078.45
571.36	1079.43
571.71	1081.30
572.06	1079.60
572.42	1078.68
572.77	1081.73
573.12	1085.75
573.47	1085.45
573.82	1087.83
574.18	1088.12
574.53	1086.57
574.88	1083.32
575.23	1082.47
575.58	1082.26
575.93	1085.73
576.28	1086.34
576.64	1086.20
576.99	1083.90
577.34	1083.62
577.69	1083.43
578.04	1080.86
578.39	1084.04
578.74	1087.11
579.09	1085.75
579.44	1084.96
579.80	1086.85
580.15	1084.37
580.50	1084.35
580.85	1086.83
581.20	1087.69
581.55	1091.77
581.90	1092.35
582.25	1090.06
582.60	1089.00
582.95	1087.25
583.30	1081.56
583.65	1078.99
584.00	1080.86
584.35	1081.14
584.71	1081.51
585.06	1082.85
585.41	1085.21
585.76	1090.74
586.11	1089.40
586.46	1087.55
586.81	1090.27
587.16	1091.56
587.51	1087.30
587.86	1088.40
588.21	1091.56
588.56	1088.51
588.91	1086.92
589.26	1088.49
589.61	1086.71
589.96	1084.51
590.31	1085.54
590.66	1084.65
591.01	1083.08
591.36	1086.43
591.71	1085.42
592.06	1083.86
592.41	1085.33
592.76	1081.54
593.10	1078.36
593.45	1079.62
593.80	1083.20
594.15	1085.07
594.50	1088.16
594.85	1089.19
595.20	1088.68
595.55	1086.06
595.90	1083.46
596.25	1083.53
596.60	1083.76
596.95	1084.93
597.30	1087.55
597.64	1134.13
597.99	1135.23
598.34	1134.81
598.69	1132.84
599.04	1131.67
599.39	1085.66
599.74	1084.65
600.09	1085.05
600.44	1086.57
600.78	1087.58
601.13	1090.36
601.48	1091.18
601.83	1090.55
602.18	1088.96
602.53	1085.38
602.88	1081.70
603.22	1080.09
603.57	1081.58
603.92	1081.00
604.27	1082.66
604.62	1083.04
604.97	1084.35
605.31	1083.11
605.66	1087.06
606.01	1086.83
606.36	1088.65
606.71	1089.45
607.05	1091.13
607.40	1090.34
607.75	1092.47
608.10	1092.87
608.44	1090.60
608.79	1091.63
609.14	1091.04
609.49	1093.03
609.84	1095.28
610.18	1101.67
610.53	1104.43
610.88	1110.09
611.23	1112.95
611.57	1110.63
611.92	1106.91
612.27	1108.55
612.62	1106.49
612.96	1101.74
613.31	1102.09
613.66	1099.40
614.00	1093.90
614.35	1090.57
614.70	1091.02
615.05	1091.81
615.39	1097.17
615.74	1095.51
616.09	1094.76
616.43	1091.39
616.78	1087.81
617.13	1082.40
617.47	1083.83
617.82	1083.71
618.17	1085.19
618.51	1085.99
618.86	1087.53
619.21	1087.93
619.55	1085.28
619.90	1085.52
620.25	1086.90
620.59	1089.71
620.94	1086.80
621.29	1093.59
621.63	1094.01
621.98	1095.86
622.32	1093.76
622.67	1095.93
623.02	1090.83
623.36	1093.47
623.71	1089.89
624.05	1088.28
624.40	1086.57
624.75	1088.42
625.09	1085.05
625.44	1085.94
625.78	1085.00
626.13	1090.03
626.48	1088.16
626.82	1086.17
627.17	1085.84
627.51	1087.69
627.86	1084.65
628.20	1085.47
628.55	1087.20
628.89	1087.62
629.24	1088.19
629.58	1088.58
629.93	1088.84
630.28	1088.23
630.62	1086.48
630.97	1086.59
631.31	1085.21
631.66	1084.44
632.00	1086.36
632.35	1086.43
632.69	1085.75
633.04	1084.74
633.38	1086.38
633.73	1084.07
634.07	1084.14
634.42	1083.04
634.76	1085.31
635.11	1081.66
635.45	1082.15
635.79	1083.57
636.14	1081.91
636.48	1082.17
636.83	1083.67
637.17	1082.38
637.52	1082.52
637.86	1083.81
638.21	1079.88
638.55	1080.72
638.89	1082.31
639.24	1083.36
639.58	1083.27
639.93	1085.59
640.27	1084.96
640.61	1085.35
640.96	1081.37
641.30	1080.84
641.65	1081.26
641.99	1083.95
642.33	1083.11
642.68	1085.49
643.02	1085.05
643.37	1085.45
643.71	1082.45
644.05	1083.57
644.40	1085.52
644.74	1090.24
645.08	1088.65
645.43	1093.01
645.77	1091.91
646.11	1089.14
646.46	1086.20
646.80	1086.62
647.14	1082.99
647.49	1082.76
647.83	1085.33
648.17	1085.73
648.52	1085.80
648.86	1086.76
649.20	1088.16
649.55	1085.70
649.89	1086.76
650.23	1087.83
650.57	1088.49
650.92	1088.44
651.26	1090.95
651.60	1091.11
651.95	1090.20
652.29	1086.87
652.63	1084.65
652.97	1084.98
653.32	1082.78
653.66	1082.54
654.00	1082.83
654.34	1085.40
654.69	1083.69
655.03	1085.31
655.37	1084.14
655.71	1089.82
656.05	1087.86
656.40	1087.27
656.74	1084.96
657.08	1084.91
657.42	1081.44
657.76	1081.21
658.11	1081.37
658.45	1083.13
658.79	1084.30
659.13	1086.45
659.47	1087.34
659.82	1089.14
660.16	1088.72
660.50	1091.30
660.84	1091.49
661.18	1092.84
661.52	1090.67
661.87	1091.58
662.21	1089.73
662.55	1088.70
662.89	1088.42
663.23	1089.85
663.57	1088.33
663.91	1086.24
664.25	1086.15
664.60	1085.68
664.94	1083.83
665.28	1084.16
665.62	1086.50
665.96	1085.99
666.30	1085.35
666.64	1084.18
666.98	1086.73
667.32	1086.76
667.66	1085.31
668.01	1086.27
668.35	1089.50
668.69	1085.87
669.03	1084.77
669.37	1085.14
669.71	1082.52
670.05	1081.44
670.39	1080.67
670.73	1079.20
671.07	1080.32
671.41	1080.86
671.75	1081.82
672.09	1082.29
672.43	1085.31
672.77	1086.87
673.11	1093.73
673.45	1091.98
673.79	1094.67
674.13	1092.63
674.47	1088.91
674.81	1083.43
675.15	1084.02
675.49	1080.88
675.83	1083.01
676.17	1082.76
676.51	1080.91
676.85	1080.67
677.19	1081.63
677.53	1079.69
677.87	1081.33
678.21	1085.94
678.55	1087.37
678.89	1090.06
679.23	1087.46
679.57	1089.22
679.90	1087.90
680.24	1084.60
680.58	1079.92
680.92	1083.93
681.26	1082.05
681.60	1077.07
681.94	1076.13
682.28	1080.63
682.62	1077.91
682.96	1076.58
683.29	1079.50
683.63	1080.56
683.97	1078.99
684.31	1082.47
684.65	1083.60
684.99	1082.29
685.33	1081.68
685.67	1081.87
686.00	1081.12
686.34	1080.86
686.68	1081.49
687.02	1083.13
687.36	1083.67
687.70	1080.46
688.03	1078.26
688.37	1082.40
688.71	1081.58
689.05	1080.34
689.39	1080.02
689.72	1080.77
690.06	1076.83
690.40	1077.96
690.74	1082.33
691.08	1080.98
691.41	1082.85
691.75	1085.19
692.09	1084.58
692.43	1083.90
692.76	1086.85
693.10	1084.44
693.44	1084.70
693.78	1086.87
694.11	1083.81
694.45	1085.84
694.79	1088.72
695.13	1089.17
695.46	1085.91
695.80	1085.00
696.14	1085.19
696.48	1083.71
696.81	1084.44
697.15	1086.62
697.49	1086.80
697.82	1080.56
698.16	1080.70
698.50	1079.27
698.83	1080.34
699.17	1079.88
699.51	1084.16
699.84	1084.77
700.18	1083.29
700.52	1080.60
700.85	1079.60
701.19	1079.27
701.53	1078.45
701.86	1077.98
702.20	1076.30
702.54	1078.00
702.87	1078.47
703.21	1081.12
703.55	1081.66
703.88	1082.61
704.22	1083.53
704.55	1083.34
704.89	1080.93
705.23	1082.59
705.56	1086.55
705.90	1087.86
706.23	1089.17
706.57	1090.67
706.91	1090.15
707.24	1088.96
707.58	1087.95
707.91	1088.44
708.25	1089.14
708.58	1088.61
708.92	1084.35
709.26	1081.77
709.59	1079.29
709.93	1074.91
710.26	1074.66
710.60	1078.47
710.93	1077.86
711.27	1077.28
711.60	1080.72
711.94	1079.01
712.27	1077.02
712.61	1077.33
712.94	1079.24
713.28	1076.04
713.61	1076.93
713.95	1076.69
714.28	1077.54
714.62	1079.74
714.95	1082.92
715.29	1085.73
715.62	1085.80
715.96	1088.65
716.29	1088.16
716.63	1087.27
716.96	1084.04
717.29	1085.87
717.63	1085.63
717.96	1084.25
718.30	1086.06
718.63	1084.25
718.97	1082.08
719.30	1079.24
719.63	1081.40
719.97	1077.40
720.30	1076.46
720.64	1077.91
720.97	1077.75
721.30	1075.36
721.64	1076.55
721.97	1079.01
722.31	1080.98
722.64	1079.76
722.97	1077.16
723.31	1077.93
723.64	1077.91
723.97	1078.07
724.31	1080.93
724.64	1083.83
724.98	1083.22
725.31	1083.15
725.64	1080.77
725.98	1079.92
726.31	1078.73
726.64	1079.34
726.97	1077.18
727.31	1076.53
727.64	1078.59
727.97	1078.82
728.31	1078.71
728.64	1083.67
728.97	1083.29
729.31	1082.52
729.64	1081.44
729.97	1079.48
730.30	1076.67
730.64	1079.24
730.97	1076.48
731.30	1079.17
731.63	1080.34
731.97	1079.85
732.30	1078.10
732.63	1080.56
732.96	1077.35
733.30	1079.55
733.63	1082.33
733.96	1085.14
734.29	1087.34
734.63	1089.89
734.96	1089.68
735.29	1086.87
735.62	1088.82
735.95	1086.17
736.29	1086.27
736.62	1087.46
736.95	1090.03
737.28	1087.88
737.61	1086.31
737.94	1083.60
738.28	1082.71
738.61	1080.39
738.94	1077.68
739.27	1080.58
739.60	1082.01
739.93	1081.96
740.27	1084.46
740.60	1083.55
740.93	1080.34
741.26	1081.80
741.59	1081.66
741.92	1080.74
742.25	1083.71
742.58	1089.26
742.91	1087.34
743.25	1085.73
743.58	1083.06
743.91	1083.76
744.24	1078.28
744.57	1077.40
744.90	1077.56
745.23	1080.51
745.56	1078.82
745.89	1082.26
746.22	1081.66
746.55	1083.50
746.88	1083.76
747.21	1082.78
747.54	1078.45
747.87	1081.94
748.20	1078.99
748.53	1078.92
748.87	1078.47
749.20	1081.35
749.53	1081.68
749.86	1082.52
750.19	1079.78
750.52	1081.30
750.85	1079.01
751.18	1079.46
751.51	1080.98
751.84	1082.73
752.16	1081.58
752.49	1080.70
752.82	1077.47
753.15	1075.90
753.48	1075.57
753.81	1077.02
754.14	1077.16
754.47	1078.21
754.80	1079.29
755.13	1079.17
755.46	1078.00
755.79	1078.71
756.12	1080.88
756.45	1078.94
756.78	1080.06
757.11	1077.77
757.43	1077.28
757.76	1075.94
758.09	1079.99
758.42	1080.95
758.75	1084.51
759.08	1086.41
759.41	1086.06
759.74	1082.97
760.07	1084.77
760.39	1082.87
760.72	1085.63
761.05	1085.45
761.38	1084.91
761.71	1080.20
762.04	1080.67
762.36	1079.57
762.69	1080.25
763.02	1081.94
763.35	1081.09
763.68	1081.58
764.01	1079.22
764.33	1079.17
764.66	1078.85
764.99	1080.32
765.32	1081.33
765.65	1082.33
765.97	1082.54
766.30	1083.86
