SpectraSuite Data File
++++++++++++++++++++++++++++++++++++
Date: Mon Aug 26 10:26:40 PDT 2019
User: corrico
Dark Spectrum Present: No
Reference Spectrum Present: No
Number of Sampled Component Spectra: 1
Spectrometers: USB2+H06089
Integration Time (usec): 10000 (USB2+H06089)
Spectra Averaged: 20 (USB2+H06089)
Boxcar Smoothing: 2 (USB2+H06089)
Correct for Electrical Dark: No (USB2+H06089)
Strobe/Lamp Enabled: No (USB2+H06089)
Correct for Detector Non-linearity: No (USB2+H06089)
Correct for Stray Light: No (USB2+H06089)
Number of Pixels in Processed Spectrum: 2048
>>>>>Begin Processed Spectral Data<<<<<
339.70	1031.71
340.07	1031.71
340.45	999.62
340.82	977.85
341.19	956.32
341.57	926.69
341.94	913.02
342.31	905.90
342.69	899.54
343.06	895.51
343.43	901.62
343.81	902.91
344.18	904.71
344.55	910.82
344.93	913.72
345.30	916.23
345.67	924.35
346.04	933.36
346.42	938.95
346.79	947.10
347.16	958.45
347.54	963.90
347.91	974.04
348.28	986.49
348.65	998.10
349.03	1006.03
349.40	1016.59
349.77	1023.77
350.14	1029.44
350.52	1035.10
350.89	1043.27
351.26	1050.81
351.63	1056.56
352.01	1063.63
352.38	1069.65
352.75	1073.72
353.12	1075.08
353.50	1078.07
353.87	1080.95
354.24	1085.03
354.61	1086.41
354.98	1090.15
355.36	1091.30
355.73	1091.46
356.10	1093.29
356.47	1092.98
356.84	1093.22
357.22	1095.84
357.59	1096.96
357.96	1096.10
358.33	1095.63
358.70	1096.00
359.08	1093.24
359.45	1092.19
359.82	1089.03
360.19	1088.61
360.56	1085.12
360.94	1084.37
361.31	1085.33
361.68	1083.53
362.05	1084.96
362.42	1084.18
362.79	1086.20
363.16	1085.54
363.54	1085.80
363.91	1082.90
364.28	1087.25
364.65	1081.30
365.02	1078.50
365.39	1077.44
365.76	1079.29
366.14	1075.20
366.51	1077.93
366.88	1079.03
367.25	1082.26
367.62	1080.88
367.99	1079.78
368.36	1080.46
368.73	1083.39
369.10	1081.33
369.48	1080.04
369.85	1083.11
370.22	1082.69
370.59	1076.37
370.96	1076.15
371.33	1077.25
371.70	1075.29
372.07	1073.39
372.44	1076.30
372.81	1078.14
373.18	1079.03
373.55	1079.17
373.93	1080.39
374.30	1078.50
374.67	1077.33
375.04	1075.03
375.41	1076.76
375.78	1080.63
376.15	1086.36
376.52	1087.90
376.89	1089.66
377.26	1091.56
377.63	1090.90
378.00	1088.14
378.37	1087.37
378.74	1088.65
379.11	1088.07
379.48	1085.99
379.85	1085.52
380.22	1084.60
380.59	1083.01
380.96	1081.63
381.33	1082.15
381.70	1082.83
382.07	1085.07
382.44	1086.87
382.81	1087.67
383.18	1088.02
383.55	1085.73
383.92	1083.11
384.29	1081.30
384.66	1080.65
385.03	1080.81
385.40	1082.03
385.77	1083.86
386.14	1083.90
386.51	1083.15
386.88	1082.78
387.25	1083.43
387.62	1082.90
387.99	1084.25
388.36	1083.34
388.73	1080.23
389.10	1080.44
389.46	1084.65
389.83	1085.10
390.20	1086.87
390.57	1089.33
390.94	1090.85
391.31	1086.38
391.68	1086.41
392.05	1087.16
392.42	1090.81
392.79	1088.33
393.16	1091.06
393.53	1089.29
393.89	1093.03
394.26	1090.15
394.63	1092.45
395.00	1091.30
395.37	1090.99
395.74	1086.41
396.11	1085.91
396.48	1087.02
396.84	1086.69
397.21	1086.57
397.58	1087.27
397.95	1091.16
398.32	1088.77
398.69	1089.07
399.06	1090.10
399.42	1089.64
399.79	1085.17
400.16	1087.65
400.53	1086.80
400.90	1088.82
401.27	1093.36
401.64	1097.99
402.00	1095.25
402.37	1097.01
402.74	1095.65
403.11	1089.68
403.48	1087.67
403.84	1088.96
404.21	1090.20
404.58	1089.40
404.95	1091.32
405.32	1093.40
405.68	1094.04
406.05	1090.90
406.42	1092.49
406.79	1092.59
407.16	1089.33
407.52	1089.00
407.89	1091.09
408.26	1096.42
408.63	1100.96
408.99	1101.74
409.36	1102.04
409.73	1103.98
410.10	1099.65
410.47	1098.09
410.83	1101.48
411.20	1102.25
411.57	1099.09
411.94	1103.54
412.30	1103.82
412.67	1103.49
413.04	1104.33
413.40	1107.26
413.77	1105.08
414.14	1103.40
414.51	1104.92
414.87	1104.62
415.24	1105.41
415.61	1101.76
415.97	1104.26
416.34	1102.77
416.71	1104.64
417.08	1103.77
417.44	1108.76
417.81	1107.54
418.18	1106.91
418.54	1108.85
418.91	1111.78
419.28	1109.11
419.64	1106.96
420.01	1105.55
420.38	1100.52
420.74	1097.08
421.11	1099.98
421.48	1103.09
421.84	1106.39
422.21	1109.67
422.58	1111.40
422.94	1111.66
423.31	1111.71
423.68	1111.43
424.04	1109.09
424.41	1108.95
424.77	1108.57
425.14	1108.50
425.51	1107.75
425.87	1109.02
426.24	1110.47
426.61	1110.54
426.97	1112.27
427.34	1113.53
427.70	1115.24
428.07	1112.34
428.44	1110.51
428.80	1110.16
429.17	1112.85
429.53	1112.22
429.90	1114.91
430.27	1115.22
430.63	1111.82
431.00	1107.66
431.36	1108.64
431.73	1105.93
432.09	1106.84
432.46	1110.14
432.83	1114.24
433.19	1114.12
433.56	1113.84
433.92	1114.63
434.29	1114.12
434.65	1111.85
435.02	1109.69
435.38	1113.04
435.75	1113.79
436.11	1114.45
436.48	1117.61
436.84	1118.96
437.21	1117.91
437.57	1115.76
437.94	1116.74
438.30	1116.11
438.67	1118.89
439.03	1119.10
439.40	1118.12
439.76	1116.88
440.13	1113.09
440.49	1111.15
440.86	1112.11
441.22	1114.40
441.59	1116.01
441.95	1114.70
442.32	1112.32
442.68	1110.28
443.05	1110.30
443.41	1109.65
443.78	1109.06
444.14	1107.80
444.51	1109.11
444.87	1109.60
445.24	1109.84
445.60	1113.53
445.96	1117.61
446.33	1116.08
446.69	1114.70
447.06	1113.95
447.42	1111.43
447.79	1111.47
448.15	1111.15
448.51	1109.39
448.88	1106.14
449.24	1106.32
449.61	1106.02
449.97	1107.12
450.33	1108.55
450.70	1111.61
451.06	1113.28
451.43	1111.29
451.79	1109.55
452.15	1110.79
452.52	1111.19
452.88	1108.13
453.24	1107.92
453.61	1109.06
453.97	1106.77
454.34	1108.57
454.70	1108.50
455.06	1109.81
455.43	1108.57
455.79	1109.74
456.15	1105.97
456.52	1108.27
456.88	1108.38
457.24	1109.88
457.61	1108.06
457.97	1108.43
458.33	1108.01
458.70	1108.78
459.06	1107.85
459.42	1109.93
459.79	1111.54
460.15	1111.31
460.51	1111.19
460.88	1112.25
461.24	1114.59
461.60	1113.95
461.96	1113.72
462.33	1113.02
462.69	1115.05
463.05	1113.65
463.42	1115.03
463.78	1117.40
464.14	1121.19
464.50	1124.51
464.87	1125.42
465.23	1127.72
465.59	1130.08
465.95	1128.56
466.32	1125.66
466.68	1122.85
467.04	1119.67
467.40	1119.88
467.77	1121.89
468.13	1123.01
468.49	1130.27
468.85	1134.13
469.22	1132.56
469.58	1133.90
469.94	1134.60
470.30	1133.15
470.66	1133.47
471.03	1136.87
471.39	1137.64
471.75	1142.35
472.11	1145.43
472.47	1148.20
472.84	1152.57
473.20	1154.98
473.56	1156.69
473.92	1160.51
474.28	1164.07
474.65	1168.00
475.01	1174.46
475.37	1179.89
475.73	1183.09
476.09	1190.14
476.45	1193.30
476.81	1196.44
477.18	1199.92
477.54	1207.30
477.90	1209.10
478.26	1216.47
478.62	1222.56
478.98	1230.91
479.34	1234.05
479.71	1243.74
480.07	1249.52
480.43	1259.14
480.79	1264.94
481.15	1276.55
481.51	1287.62
481.87	1300.45
482.23	1313.53
482.59	1330.31
482.96	1341.60
483.32	1354.33
483.68	1368.56
484.04	1379.75
484.40	1395.78
484.76	1418.34
485.12	1435.85
485.48	1454.43
485.84	1475.33
486.20	1494.27
486.56	1512.36
486.92	1537.19
487.28	1559.92
487.64	1584.89
488.00	1610.71
488.37	1639.15
488.73	1669.90
489.09	1703.11
489.45	1738.20
489.81	1773.68
490.17	1814.24
490.53	1853.00
490.89	1894.64
491.25	1938.78
491.61	1985.64
491.97	2032.19
492.33	2081.58
492.69	2136.72
493.05	2190.48
493.41	2247.27
493.77	2307.93
494.13	2377.49
494.49	2446.52
494.85	2521.97
495.21	2595.93
495.57	2675.63
495.93	2748.77
496.29	2830.74
496.64	2923.91
497.00	3014.75
497.36	3113.08
497.72	3220.46
498.08	3325.15
498.44	3434.15
498.80	3565.99
499.16	3702.03
499.52	3838.20
499.88	3995.69
500.24	4153.54
500.60	4303.75
500.96	4459.14
501.32	4626.96
501.68	4797.42
502.03	4981.62
502.39	5195.43
502.75	5406.73
503.11	5637.37
503.47	5870.02
503.83	6105.99
504.19	6346.74
504.55	6618.66
504.91	6893.95
505.26	7175.61
505.62	7477.01
505.98	7798.27
506.34	8131.26
506.70	8488.77
507.06	8878.68
507.42	9288.32
507.78	9692.53
508.13	10105.64
508.49	10532.90
508.85	10982.10
509.21	11459.24
509.57	11989.25
509.93	12544.48
510.28	13151.77
510.64	13766.33
511.00	14377.09
511.36	14951.74
511.72	15537.88
512.07	16158.50
512.43	16764.37
512.79	17421.38
513.15	18147.16
513.51	18906.12
513.86	19624.60
514.22	20469.20
514.58	21276.29
514.94	22107.76
515.30	22938.28
515.65	23780.01
516.01	24604.20
516.37	25440.55
516.73	26213.02
517.08	27066.42
517.44	27890.85
517.80	28681.02
518.16	29532.18
518.51	30342.96
518.87	31083.48
519.23	31946.14
519.59	32845.07
519.94	33679.98
520.30	34576.34
520.66	35357.49
521.01	36143.49
521.37	36778.55
521.73	37387.44
522.09	37962.25
522.44	38600.58
522.80	39011.11
523.16	39381.88
523.51	39636.95
523.87	39936.58
524.23	40189.85
524.58	40470.11
524.94	40845.88
525.30	41190.01
525.65	41373.56
526.01	41409.53
526.37	41410.35
526.72	41345.70
527.08	41231.49
527.44	41038.74
527.79	40891.24
528.15	40772.06
528.51	40550.79
528.86	40317.65
529.22	40091.79
529.58	39851.04
529.93	39479.78
530.29	39025.74
530.65	38644.82
531.00	38306.61
531.36	37841.48
531.71	37359.77
532.07	36875.56
532.43	36290.78
532.78	35622.91
533.14	35055.79
533.49	34497.90
533.85	33924.31
534.21	33327.75
534.56	32768.65
534.92	32167.92
535.27	31546.63
535.63	30920.75
535.98	30290.58
536.34	29661.14
536.69	29028.89
537.05	28419.77
537.41	27901.60
537.76	27418.44
538.12	26894.86
538.47	26414.65
538.83	25950.62
539.18	25479.63
539.54	24984.59
539.89	24517.11
540.25	24008.09
540.60	23541.97
540.96	23026.59
541.31	22552.35
541.67	22124.59
542.02	21709.62
542.38	21271.37
542.73	20849.33
543.09	20459.96
543.44	20088.82
543.80	19753.16
544.15	19359.41
544.51	19026.45
544.86	18720.24
545.22	18364.59
545.57	17987.53
545.93	17631.68
546.28	17309.97
546.64	16976.68
546.99	16645.73
547.35	16332.47
547.70	16051.89
548.05	15736.99
548.41	15424.79
548.76	15133.62
549.12	14845.43
549.47	14555.56
549.83	14294.14
550.18	13980.84
550.53	13641.32
550.89	13354.21
551.24	13082.33
551.60	12767.60
551.95	12509.20
552.30	12298.02
552.66	12070.63
553.01	11819.99
553.37	11572.71
553.72	11303.71
554.07	11020.51
554.43	10728.92
554.78	10442.84
555.13	10177.23
555.49	9967.59
555.84	9776.68
556.19	9594.25
556.55	9407.06
556.90	9219.39
557.26	9005.68
557.61	8789.48
557.96	8540.17
558.32	8344.36
558.67	8150.00
559.02	7943.01
559.37	7756.72
559.73	7624.32
560.08	7465.70
560.43	7308.51
560.79	7176.83
561.14	7027.81
561.49	6855.01
561.85	6699.03
562.20	6552.35
562.55	6416.16
562.90	6283.92
563.26	6167.69
563.61	6049.09
563.96	5941.66
564.32	5824.05
564.67	5714.98
565.02	5588.52
565.37	5474.75
565.73	5360.95
566.08	5254.85
566.43	5139.23
566.78	5035.01
567.14	4932.68
567.49	4823.26
567.84	4717.28
568.19	4617.13
568.54	4526.17
568.90	4439.36
569.25	4366.13
569.60	4296.31
569.95	4225.72
570.31	4153.35
570.66	4069.44
571.01	3980.64
571.36	3888.03
571.71	3813.67
572.06	3743.22
572.42	3692.31
572.77	3640.73
573.12	3587.15
573.47	3528.36
573.82	3464.02
574.18	3392.75
574.53	3325.27
574.88	3268.58
575.23	3214.21
575.58	3169.39
575.93	3114.15
576.28	3068.23
576.64	3015.17
576.99	2957.78
577.34	2899.20
577.69	2851.50
578.04	2802.16
578.39	2751.60
578.74	2709.94
579.09	2677.64
579.44	2638.56
579.80	2595.93
580.15	2556.59
580.50	2514.69
580.85	2471.79
581.20	2438.98
581.55	2405.77
581.90	2381.89
582.25	2351.47
582.60	2320.97
582.95	2286.87
583.30	2252.55
583.65	2214.94
584.00	2181.38
584.35	2151.16
584.71	2119.12
585.06	2093.45
585.41	2062.92
585.76	2037.60
586.11	2006.89
586.46	1983.18
586.81	1954.96
587.16	1934.08
587.51	1917.18
587.86	1899.63
588.21	1881.79
588.56	1864.35
588.91	1849.87
589.26	1830.98
589.61	1812.98
589.96	1797.65
590.31	1780.49
590.66	1758.00
591.01	1736.91
591.36	1721.79
591.71	1699.65
592.06	1686.05
592.41	1673.34
592.76	1661.10
593.10	1642.99
593.45	1631.26
593.80	1612.47
594.15	1599.08
594.50	1587.56
594.85	1577.47
595.20	1566.52
595.55	1556.71
595.90	1545.43
596.25	1534.48
596.60	1522.03
596.95	1507.45
597.30	1496.35
597.64	1536.68
597.99	1524.91
598.34	1521.18
598.69	1516.39
599.04	1510.30
599.39	1450.15
599.74	1439.76
600.09	1429.93
600.44	1420.12
600.78	1411.34
601.13	1405.37
601.48	1402.43
601.83	1395.08
602.18	1391.45
602.53	1385.50
602.88	1379.63
603.22	1371.23
603.57	1361.12
603.92	1348.55
604.27	1341.27
604.62	1334.81
604.97	1329.68
605.31	1324.91
605.66	1321.61
606.01	1313.79
606.36	1308.92
606.71	1299.56
607.05	1297.01
607.40	1293.54
607.75	1289.24
608.10	1282.87
608.44	1281.07
608.79	1274.61
609.14	1271.50
609.49	1269.90
609.84	1267.87
610.18	1268.45
610.53	1263.73
610.88	1260.38
611.23	1255.44
611.57	1251.55
611.92	1244.79
612.27	1243.92
612.62	1239.69
612.96	1240.23
613.31	1235.59
613.66	1230.93
614.00	1225.11
614.35	1223.12
614.70	1217.97
615.05	1217.10
615.39	1214.64
615.74	1214.11
616.09	1207.69
616.43	1205.49
616.78	1199.64
617.13	1196.97
617.47	1189.02
617.82	1185.08
618.17	1181.71
618.51	1178.53
618.86	1176.94
619.21	1179.21
619.55	1180.47
619.90	1178.39
620.25	1176.96
620.59	1173.59
620.94	1170.48
621.29	1168.86
621.63	1168.86
621.98	1167.81
622.32	1165.33
622.67	1164.25
623.02	1160.67
623.36	1155.15
623.71	1155.29
624.05	1153.81
624.40	1150.91
624.75	1152.69
625.09	1151.96
625.44	1148.85
625.78	1147.42
626.13	1146.96
626.48	1144.31
626.82	1142.32
627.17	1141.27
627.51	1141.17
627.86	1140.78
628.20	1136.63
628.55	1138.04
628.89	1137.36
629.24	1134.72
629.58	1135.67
629.93	1135.51
630.28	1133.17
630.62	1129.99
630.97	1130.92
631.31	1128.93
631.66	1130.31
632.00	1128.96
632.35	1130.48
632.69	1130.67
633.04	1127.90
633.38	1124.88
633.73	1125.52
634.07	1122.22
634.42	1121.56
634.76	1120.44
635.11	1121.63
635.45	1118.50
635.79	1122.66
636.14	1121.73
636.48	1118.31
636.83	1113.81
637.17	1114.19
637.52	1112.90
637.86	1110.37
638.21	1112.22
638.55	1112.74
638.89	1112.97
639.24	1112.08
639.58	1112.57
639.93	1115.41
640.27	1117.11
640.61	1116.62
640.96	1114.02
641.30	1113.16
641.65	1110.07
641.99	1107.61
642.33	1108.27
642.68	1105.65
643.02	1105.11
643.37	1108.03
643.71	1107.96
644.05	1106.96
644.40	1107.56
644.74	1105.86
645.08	1100.47
645.43	1102.49
645.77	1102.88
646.11	1104.45
646.46	1105.81
646.80	1108.74
647.14	1109.04
647.49	1109.13
647.83	1105.86
648.17	1105.25
648.52	1105.93
648.86	1102.95
649.20	1101.69
649.55	1102.39
649.89	1100.59
650.23	1096.52
650.57	1098.65
650.92	1097.97
651.26	1099.05
651.60	1099.98
651.95	1102.70
652.29	1100.75
652.63	1097.92
652.97	1097.43
653.32	1095.07
653.66	1091.39
654.00	1091.09
654.34	1093.05
654.69	1094.29
655.03	1095.21
655.37	1098.27
655.71	1100.03
656.05	1097.59
656.40	1095.79
656.74	1099.30
657.08	1097.78
657.42	1096.03
657.76	1098.41
658.11	1101.29
658.45	1099.70
658.79	1104.85
659.13	1103.09
659.47	1100.15
659.82	1096.78
660.16	1097.24
660.50	1092.84
660.84	1094.72
661.18	1094.41
661.52	1096.78
661.87	1093.38
662.21	1094.18
662.55	1095.89
662.89	1099.21
663.23	1096.70
663.57	1099.98
663.91	1097.62
664.25	1093.97
664.60	1094.01
664.94	1094.01
665.28	1090.78
665.62	1090.34
665.96	1091.11
666.30	1092.07
666.64	1092.12
666.98	1092.35
667.32	1092.19
667.66	1092.56
668.01	1090.69
668.35	1090.22
668.69	1091.32
669.03	1091.77
669.37	1090.01
669.71	1089.52
670.05	1092.21
670.39	1093.22
670.73	1092.16
671.07	1093.57
671.41	1094.95
671.75	1090.81
672.09	1088.72
672.43	1093.15
672.77	1093.17
673.11	1094.20
673.45	1095.09
673.79	1095.84
674.13	1093.69
674.47	1093.94
674.81	1091.46
675.15	1091.23
675.49	1091.04
675.83	1090.17
676.17	1089.12
676.51	1090.13
676.85	1089.87
677.19	1091.18
677.53	1093.01
677.87	1091.23
678.21	1088.16
678.55	1089.96
678.89	1087.79
679.23	1084.02
679.57	1088.26
679.90	1089.36
680.24	1090.88
680.58	1089.68
680.92	1093.57
681.26	1091.04
681.60	1090.64
681.94	1091.20
682.28	1094.32
682.62	1089.36
682.96	1088.58
683.29	1090.10
683.63	1088.75
683.97	1088.56
684.31	1090.34
684.65	1092.84
684.99	1089.31
685.33	1087.83
685.67	1083.60
686.00	1081.82
686.34	1080.41
686.68	1082.59
687.02	1082.61
687.36	1085.87
687.70	1086.97
688.03	1086.94
688.37	1088.12
688.71	1086.69
689.05	1084.00
689.39	1083.53
689.72	1083.93
690.06	1084.02
690.40	1083.86
690.74	1086.76
691.08	1091.20
691.41	1092.80
691.75	1090.62
692.09	1093.26
692.43	1091.18
692.76	1089.52
693.10	1090.36
693.44	1092.09
693.78	1090.55
694.11	1091.44
694.45	1088.89
694.79	1084.89
695.13	1086.57
695.46	1084.98
695.80	1085.12
696.14	1086.66
696.48	1089.31
696.81	1086.01
697.15	1088.63
697.49	1089.12
697.82	1089.66
698.16	1086.36
698.50	1086.10
698.83	1084.23
699.17	1082.61
699.51	1080.81
699.84	1084.28
700.18	1086.59
700.52	1085.63
700.85	1084.25
701.19	1084.23
701.53	1080.48
701.86	1081.05
702.20	1084.65
702.54	1088.65
702.87	1089.66
703.21	1094.20
703.55	1092.40
703.88	1091.63
704.22	1094.72
704.55	1096.17
704.89	1094.79
705.23	1094.25
705.56	1094.22
705.90	1090.83
706.23	1089.33
706.57	1088.47
706.91	1088.49
707.24	1090.76
707.58	1089.75
707.91	1092.02
708.25	1091.77
708.58	1089.29
708.92	1084.84
709.26	1087.34
709.59	1083.88
709.93	1085.47
710.26	1087.13
710.60	1085.38
710.93	1083.46
711.27	1085.49
711.60	1084.32
711.94	1085.00
712.27	1087.72
712.61	1086.76
712.94	1086.15
713.28	1085.10
713.61	1086.10
713.95	1084.65
714.28	1084.74
714.62	1083.32
714.95	1085.00
715.29	1087.67
715.62	1089.24
715.96	1089.87
716.29	1090.46
716.63	1089.50
716.96	1087.41
717.29	1088.56
717.63	1086.38
717.96	1086.27
718.30	1087.13
718.63	1084.09
718.97	1085.21
719.30	1085.54
719.63	1085.07
719.97	1084.72
720.30	1087.37
720.64	1088.21
720.97	1090.27
721.30	1091.67
721.64	1092.12
721.97	1093.10
722.31	1091.86
722.64	1090.67
722.97	1087.90
723.31	1088.23
723.64	1088.04
723.97	1086.31
724.31	1087.67
724.64	1091.53
724.98	1089.94
725.31	1089.47
725.64	1090.32
725.98	1091.77
726.31	1091.11
726.64	1090.15
726.97	1089.10
727.31	1089.73
727.64	1087.97
727.97	1088.23
728.31	1089.14
728.64	1088.16
728.97	1086.55
729.31	1085.19
729.64	1083.69
729.97	1085.21
730.30	1088.63
730.64	1089.10
730.97	1089.22
731.30	1089.89
731.63	1089.31
731.97	1086.24
732.30	1082.01
732.63	1082.57
732.96	1081.68
733.30	1078.82
733.63	1078.26
733.96	1084.23
734.29	1084.86
734.63	1084.18
734.96	1085.70
735.29	1090.74
735.62	1089.33
735.95	1088.19
736.29	1091.65
736.62	1095.35
736.95	1091.93
737.28	1092.94
737.61	1094.36
737.94	1093.97
738.28	1088.61
738.61	1086.52
738.94	1084.23
739.27	1080.72
739.60	1078.38
739.93	1081.26
740.27	1083.67
740.60	1085.49
740.93	1090.17
741.26	1091.63
741.59	1092.23
741.92	1093.64
742.25	1092.82
742.58	1090.64
742.91	1089.45
743.25	1086.13
743.58	1083.04
743.91	1080.58
744.24	1081.58
744.57	1083.01
744.90	1085.17
745.23	1084.81
745.56	1086.34
745.89	1087.60
746.22	1086.78
746.55	1086.50
746.88	1085.77
747.21	1088.07
747.54	1083.86
747.87	1084.84
748.20	1084.86
748.53	1089.45
748.87	1087.09
749.20	1088.79
749.53	1088.49
749.86	1089.50
750.19	1088.84
750.52	1089.92
750.85	1088.51
751.18	1086.99
751.51	1086.50
751.84	1085.63
752.16	1087.51
752.49	1090.15
752.82	1090.97
753.15	1089.78
753.48	1087.79
753.81	1084.63
754.14	1086.08
754.47	1085.35
754.80	1086.06
755.13	1087.83
755.46	1088.65
755.79	1087.18
756.12	1090.88
756.45	1093.08
756.78	1096.03
757.11	1096.00
757.43	1094.34
757.76	1089.71
758.09	1086.90
758.42	1083.55
758.75	1082.85
759.08	1082.50
759.41	1084.32
759.74	1084.58
760.07	1082.78
760.39	1083.01
760.72	1083.15
761.05	1083.41
761.38	1085.21
761.71	1085.96
762.04	1088.82
762.36	1092.30
762.69	1086.97
763.02	1083.34
763.35	1081.91
