SpectraSuite Data File
++++++++++++++++++++++++++++++++++++
Date: Mon Aug 26 10:26:53 PDT 2019
User: corrico
Dark Spectrum Present: No
Reference Spectrum Present: No
Number of Sampled Component Spectra: 1
Spectrometers: USB2+H06089
Integration Time (usec): 10000 (USB2+H06089)
Spectra Averaged: 20 (USB2+H06089)
Boxcar Smoothing: 2 (USB2+H06089)
Correct for Electrical Dark: No (USB2+H06089)
Strobe/Lamp Enabled: No (USB2+H06089)
Correct for Detector Non-linearity: No (USB2+H06089)
Correct for Stray Light: No (USB2+H06089)
Number of Pixels in Processed Spectrum: 2048
>>>>>Begin Processed Spectral Data<<<<<
339.70	1029.37
340.07	1029.37
340.45	998.92
340.82	978.98
341.19	956.69
341.57	930.71
341.94	920.49
342.31	910.44
342.69	904.59
343.06	901.25
343.43	903.63
343.81	903.47
344.18	906.00
344.55	910.16
344.93	914.87
345.30	918.73
345.67	926.45
346.04	935.86
346.42	941.71
346.79	949.79
347.16	959.22
347.54	965.49
347.91	972.68
348.28	985.74
348.65	995.10
349.03	1008.16
349.40	1019.49
349.77	1030.84
350.14	1034.94
350.52	1044.93
350.89	1045.49
351.26	1052.56
351.63	1055.35
352.01	1062.14
352.38	1063.89
352.75	1072.06
353.12	1074.66
353.50	1079.97
353.87	1081.16
354.24	1084.91
354.61	1084.02
354.98	1085.00
355.36	1086.10
355.73	1090.27
356.10	1090.85
356.47	1091.34
356.84	1091.32
357.22	1087.23
357.59	1087.41
357.96	1086.38
358.33	1087.46
358.70	1088.79
359.08	1091.42
359.45	1088.37
359.82	1089.45
360.19	1088.82
360.56	1087.13
360.94	1085.99
361.31	1085.70
361.68	1083.36
362.05	1082.36
362.42	1079.78
362.79	1079.27
363.16	1081.96
363.54	1084.04
363.91	1083.43
364.28	1084.98
364.65	1087.23
365.02	1088.00
365.39	1086.78
365.76	1085.03
366.14	1086.90
366.51	1084.23
366.88	1081.58
367.25	1079.24
367.62	1080.13
367.99	1077.86
368.36	1080.09
368.73	1078.43
369.10	1079.10
369.48	1082.17
369.85	1081.33
370.22	1080.41
370.59	1081.21
370.96	1082.33
371.33	1080.11
371.70	1079.48
372.07	1079.06
372.44	1076.60
372.81	1075.64
373.18	1075.87
373.55	1075.13
373.93	1073.56
374.30	1076.25
374.67	1076.72
375.04	1074.94
375.41	1077.07
375.78	1079.20
376.15	1077.30
376.52	1079.08
376.89	1081.07
377.26	1083.43
377.63	1084.18
378.00	1086.52
378.37	1086.31
378.74	1089.03
379.11	1086.94
379.48	1085.91
379.85	1086.90
380.22	1087.72
380.59	1086.59
380.96	1088.65
381.33	1087.86
381.70	1086.03
382.07	1085.26
382.44	1085.12
382.81	1081.89
383.18	1084.16
383.55	1084.63
383.92	1089.00
384.29	1089.50
384.66	1091.23
385.03	1091.58
385.40	1092.49
385.77	1087.25
386.14	1083.46
386.51	1084.14
386.88	1082.40
387.25	1083.32
387.62	1083.13
387.99	1087.62
388.36	1086.66
388.73	1087.55
389.10	1089.50
389.46	1091.32
389.83	1089.96
390.20	1091.11
390.57	1093.99
390.94	1090.29
391.31	1088.35
391.68	1085.17
392.05	1084.16
392.42	1081.26
392.79	1083.90
393.16	1085.07
393.53	1087.90
393.89	1086.92
394.26	1085.61
394.63	1085.99
395.00	1088.77
395.37	1089.71
395.74	1091.95
396.11	1092.52
396.48	1090.76
396.84	1087.58
397.21	1087.25
397.58	1085.03
397.95	1086.15
398.32	1085.77
398.69	1085.45
399.06	1088.89
399.42	1095.00
399.79	1094.36
400.16	1097.78
400.53	1099.84
400.90	1099.16
401.27	1094.46
401.64	1095.02
402.00	1092.52
402.37	1093.55
402.74	1091.23
403.11	1093.24
403.48	1090.92
403.84	1091.02
404.21	1088.35
404.58	1088.86
404.95	1090.22
405.32	1092.63
405.68	1093.43
406.05	1095.89
406.42	1095.84
406.79	1094.34
407.16	1097.71
407.52	1097.78
407.89	1100.38
408.26	1102.28
408.63	1100.33
408.99	1098.51
409.36	1096.05
409.73	1092.73
410.10	1089.24
410.47	1090.90
410.83	1092.82
411.20	1097.57
411.57	1098.16
411.94	1098.86
412.30	1101.01
412.67	1099.30
413.04	1100.03
413.40	1098.32
413.77	1102.35
414.14	1102.65
414.51	1103.38
414.87	1101.50
415.24	1103.54
415.61	1102.56
415.97	1101.48
416.34	1101.57
416.71	1101.13
417.08	1102.58
417.44	1100.50
417.81	1103.63
418.18	1104.29
418.54	1105.48
418.91	1103.96
419.28	1107.00
419.64	1107.40
420.01	1107.45
420.38	1106.93
420.74	1108.83
421.11	1106.65
421.48	1105.18
421.84	1106.02
422.21	1108.57
422.58	1110.02
422.94	1112.48
423.31	1113.93
423.68	1115.64
424.04	1114.21
424.41	1115.80
424.77	1115.57
425.14	1116.90
425.51	1117.96
425.87	1118.33
426.24	1115.05
426.61	1115.66
426.97	1112.60
427.34	1108.45
427.70	1110.91
428.07	1110.87
428.44	1110.89
428.80	1112.90
429.17	1114.14
429.53	1112.85
429.90	1114.42
430.27	1115.48
430.63	1114.73
431.00	1119.08
431.36	1119.71
431.73	1120.23
432.09	1116.95
432.46	1117.11
432.83	1114.84
433.19	1113.79
433.56	1112.62
433.92	1115.66
434.29	1116.76
434.65	1115.20
435.02	1114.56
435.38	1114.68
435.75	1115.27
436.11	1114.19
436.48	1116.51
436.84	1118.73
437.21	1119.20
437.57	1117.63
437.94	1115.22
438.30	1115.52
438.67	1110.51
439.03	1108.29
439.40	1105.22
439.76	1106.79
440.13	1103.16
440.49	1108.20
440.86	1109.95
441.22	1116.15
441.59	1116.55
441.95	1115.87
442.32	1112.39
442.68	1112.36
443.05	1109.11
443.41	1107.42
443.78	1109.72
444.14	1109.77
444.51	1109.27
444.87	1111.17
445.24	1112.95
445.60	1115.03
445.96	1112.57
446.33	1111.24
446.69	1109.55
447.06	1107.12
447.42	1103.70
447.79	1104.38
448.15	1105.11
448.51	1106.93
448.88	1106.02
449.24	1105.88
449.61	1109.69
449.97	1108.85
450.33	1104.97
450.70	1109.65
451.06	1109.16
451.43	1107.49
451.79	1113.95
452.15	1121.37
452.52	1120.06
452.88	1120.63
453.24	1122.29
453.61	1119.43
453.97	1112.74
454.34	1113.65
454.70	1115.76
455.06	1114.14
455.43	1113.56
455.79	1113.93
456.15	1111.73
456.52	1109.09
456.88	1111.97
457.24	1112.22
457.61	1115.90
457.97	1121.26
458.33	1122.94
458.70	1121.23
459.06	1121.51
459.42	1121.61
459.79	1116.67
460.15	1118.42
460.51	1120.34
460.88	1120.16
461.24	1119.97
461.60	1122.03
461.96	1118.78
462.33	1116.88
462.69	1117.00
463.05	1114.68
463.42	1114.98
463.78	1117.91
464.14	1118.45
464.50	1120.53
464.87	1122.90
465.23	1122.61
465.59	1125.45
465.95	1128.61
466.32	1128.51
466.68	1127.60
467.04	1130.41
467.40	1128.82
467.77	1128.93
468.13	1129.71
468.49	1129.89
468.85	1131.02
469.22	1135.02
469.58	1138.93
469.94	1139.09
470.30	1144.12
470.66	1143.80
471.03	1144.97
471.39	1145.90
471.75	1150.00
472.11	1152.46
472.47	1154.28
472.84	1157.00
473.20	1154.80
473.56	1153.30
473.92	1152.50
474.28	1159.60
474.65	1162.97
475.01	1167.86
475.37	1171.53
475.73	1177.57
476.09	1176.87
476.45	1177.85
476.81	1184.31
477.18	1191.54
477.54	1197.21
477.90	1204.60
478.26	1205.91
478.62	1212.21
478.98	1217.50
479.34	1224.45
479.71	1230.84
480.07	1244.98
480.43	1253.12
480.79	1264.73
481.15	1275.12
481.51	1285.02
481.87	1295.51
482.23	1304.08
482.59	1314.49
482.96	1324.32
483.32	1339.82
483.68	1355.43
484.04	1372.23
484.40	1386.77
484.76	1406.50
485.12	1422.53
485.48	1441.18
485.84	1464.08
486.20	1487.76
486.56	1506.74
486.92	1532.68
487.28	1557.84
487.64	1579.39
488.00	1606.59
488.37	1635.64
488.73	1667.02
489.09	1702.81
489.45	1739.63
489.81	1778.29
490.17	1819.53
490.53	1857.19
490.89	1888.44
491.25	1930.33
491.61	1972.44
491.97	2020.23
492.33	2069.57
492.69	2125.98
493.05	2182.22
493.41	2240.59
493.77	2298.78
494.13	2362.21
494.49	2434.53
494.85	2509.10
495.21	2584.16
495.57	2662.94
495.93	2754.62
496.29	2834.60
496.64	2922.51
497.00	3009.27
497.36	3106.57
497.72	3203.14
498.08	3316.23
498.44	3429.00
498.80	3559.37
499.16	3690.35
499.52	3824.97
499.88	3970.79
500.24	4126.43
500.60	4277.38
500.96	4442.66
501.32	4619.91
501.68	4793.42
502.03	4970.71
502.39	5179.25
502.75	5391.66
503.11	5612.11
503.47	5835.33
503.83	6090.21
504.19	6346.11
504.55	6615.13
504.91	6891.29
505.26	7177.25
505.62	7472.93
505.98	7780.41
506.34	8100.13
506.70	8453.03
507.06	8840.84
507.42	9244.69
507.78	9658.76
508.13	10081.37
508.49	10516.38
508.85	10986.80
509.21	11465.77
509.57	11986.09
509.93	12539.23
510.28	13122.89
510.64	13730.96
511.00	14326.91
511.36	14898.19
511.72	15487.82
512.07	16129.33
512.43	16741.92
512.79	17431.28
513.15	18169.88
513.51	18905.89
513.86	19638.34
514.22	20458.30
514.58	21231.05
514.94	22061.66
515.30	22917.24
515.65	23734.72
516.01	24566.10
516.37	25407.83
516.73	26163.26
517.08	27020.03
517.44	27851.04
517.80	28646.38
518.16	29511.58
518.51	30354.01
518.87	31092.36
519.23	31961.33
519.59	32849.35
519.94	33661.44
520.30	34548.86
520.66	35318.78
521.01	36112.45
521.37	36783.88
521.73	37423.41
522.09	37993.52
522.44	38646.32
522.80	39036.34
523.16	39383.54
523.51	39627.66
523.87	39939.63
524.23	40204.97
524.58	40469.97
524.94	40837.92
525.30	41168.15
525.65	41340.44
526.01	41360.22
526.37	41387.15
526.72	41312.96
527.08	41208.48
527.44	41046.35
527.79	40917.78
528.15	40792.66
528.51	40584.75
528.86	40367.48
529.22	40123.92
529.58	39867.02
529.93	39494.01
530.29	39058.32
530.65	38685.19
531.00	38334.42
531.36	37893.58
531.71	37418.38
532.07	36927.19
532.43	36345.99
532.78	35691.27
533.14	35131.28
533.49	34570.53
533.85	33982.36
534.21	33364.13
534.56	32804.36
534.92	32192.52
535.27	31599.83
535.63	31007.98
535.98	30392.61
536.34	29761.81
536.69	29118.00
537.05	28494.92
537.41	27953.58
537.76	27483.74
538.12	26963.18
538.47	26511.06
538.83	26070.20
539.18	25621.56
539.54	25148.87
539.89	24687.71
540.25	24141.39
540.60	23662.61
540.96	23148.83
541.31	22663.06
541.67	22248.06
542.02	21871.14
542.38	21428.07
542.73	20978.88
543.09	20570.59
543.44	20187.50
543.80	19833.65
544.15	19421.44
544.51	19100.29
544.86	18785.91
545.22	18430.97
545.57	18055.36
545.93	17720.73
546.28	17413.49
546.64	17080.41
546.99	16732.56
547.35	16397.75
547.70	16108.76
548.05	15792.58
548.41	15489.62
548.76	15191.50
549.12	14915.81
549.47	14619.17
549.83	14345.49
550.18	14026.69
550.53	13708.21
550.89	13427.84
551.24	13167.06
551.60	12862.53
551.95	12608.44
552.30	12382.74
552.66	12135.56
553.01	11877.24
553.37	11618.21
553.72	11351.32
554.07	11074.17
554.43	10798.72
554.78	10524.64
555.13	10259.53
555.49	10025.36
555.84	9825.05
556.19	9635.21
556.55	9436.38
556.90	9247.22
557.26	9044.25
557.61	8823.56
557.96	8584.31
558.32	8377.95
558.67	8174.84
559.02	7959.32
559.37	7782.14
559.73	7631.95
560.08	7479.42
560.43	7323.65
560.79	7204.96
561.14	7050.93
561.49	6887.87
561.85	6727.45
562.20	6578.99
562.55	6437.41
562.90	6315.02
563.26	6190.58
563.61	6079.96
563.96	5974.94
564.32	5849.47
564.67	5719.59
565.02	5605.40
565.37	5492.61
565.73	5378.60
566.08	5275.80
566.43	5166.31
566.78	5048.16
567.14	4943.02
567.49	4837.68
567.84	4737.03
568.19	4641.63
568.54	4558.24
568.90	4467.87
569.25	4383.59
569.60	4301.23
569.95	4228.20
570.31	4153.21
570.66	4079.09
571.01	3992.58
571.36	3905.30
571.71	3825.82
572.06	3754.36
572.42	3689.48
572.77	3641.52
573.12	3589.00
573.47	3531.92
573.82	3463.17
574.18	3398.01
574.53	3331.54
574.88	3279.84
575.23	3225.12
575.58	3185.38
575.93	3135.62
576.28	3087.31
576.64	3034.90
576.99	2979.99
577.34	2917.81
577.69	2863.13
578.04	2808.97
578.39	2756.21
578.74	2717.20
579.09	2679.66
579.44	2638.56
579.80	2598.60
580.15	2559.61
580.50	2518.79
580.85	2477.88
581.20	2449.14
581.55	2416.28
581.90	2387.46
582.25	2354.88
582.60	2324.88
582.95	2286.87
583.30	2249.40
583.65	2214.05
584.00	2184.40
584.35	2154.39
584.71	2127.66
585.06	2099.84
585.41	2066.06
585.76	2035.24
586.11	2009.26
586.46	1983.88
586.81	1962.61
587.16	1946.32
587.51	1928.30
587.86	1906.44
588.21	1888.53
588.56	1873.76
588.91	1855.62
589.26	1835.78
589.61	1815.37
589.96	1794.72
590.31	1775.44
590.66	1758.37
591.01	1742.88
591.36	1731.36
591.71	1712.48
592.06	1694.15
592.41	1679.29
592.76	1661.57
593.10	1646.24
593.45	1631.73
593.80	1619.44
594.15	1603.92
594.50	1594.61
594.85	1580.89
595.20	1570.31
595.55	1557.25
595.90	1547.16
596.25	1536.07
596.60	1525.02
596.95	1514.19
597.30	1502.04
597.64	1541.76
597.99	1534.71
598.34	1527.06
598.69	1520.51
599.04	1512.27
599.39	1451.46
599.74	1440.69
600.09	1429.60
600.44	1418.83
600.78	1414.27
601.13	1406.24
601.48	1394.66
601.83	1392.74
602.18	1389.18
602.53	1380.35
602.88	1373.80
603.22	1367.86
603.57	1359.64
603.92	1349.25
604.27	1341.62
604.62	1334.22
604.97	1329.99
605.31	1321.54
605.66	1315.24
606.01	1311.00
606.36	1307.61
606.71	1298.01
607.05	1291.16
607.40	1290.52
607.75	1290.29
608.10	1284.44
608.44	1281.84
608.79	1277.49
609.14	1272.78
609.49	1264.38
609.84	1263.89
610.18	1263.68
610.53	1262.44
610.88	1257.17
611.23	1254.81
611.57	1251.04
611.92	1245.42
612.27	1242.64
612.62	1240.13
612.96	1235.87
613.31	1231.61
613.66	1224.45
614.00	1222.23
614.35	1219.07
614.70	1217.80
615.05	1215.84
615.39	1213.54
615.74	1207.15
616.09	1202.08
616.43	1196.11
616.78	1192.34
617.13	1192.83
617.47	1191.40
617.82	1191.03
618.17	1188.22
618.51	1184.22
618.86	1183.40
619.21	1183.12
619.55	1181.24
619.90	1179.65
620.25	1177.78
620.59	1176.07
620.94	1173.36
621.29	1170.60
621.63	1170.50
621.98	1168.58
622.32	1162.61
622.67	1160.67
623.02	1158.19
623.36	1159.03
623.71	1155.50
624.05	1155.05
624.40	1152.92
624.75	1151.78
625.09	1146.70
625.44	1150.40
625.78	1150.35
626.13	1148.03
626.48	1144.99
626.82	1146.61
627.17	1143.38
627.51	1142.86
627.86	1143.33
628.20	1142.11
628.55	1141.48
628.89	1139.09
629.24	1136.68
629.58	1137.50
629.93	1138.88
630.28	1139.12
630.62	1137.52
630.97	1136.40
631.31	1130.46
631.66	1123.64
632.00	1122.01
632.35	1120.23
632.69	1121.00
633.04	1122.45
633.38	1128.28
633.73	1124.28
634.07	1125.14
634.42	1122.50
634.76	1123.48
635.11	1120.95
635.45	1119.06
635.79	1119.06
636.14	1119.69
636.48	1115.45
636.83	1115.34
637.17	1118.78
637.52	1118.00
637.86	1116.34
638.21	1118.57
638.55	1118.82
638.89	1114.49
639.24	1115.38
639.58	1115.87
639.93	1110.54
640.27	1108.78
640.61	1108.88
640.96	1106.65
641.30	1102.98
641.65	1106.58
641.99	1109.44
642.33	1110.79
642.68	1111.50
643.02	1113.60
643.37	1111.61
643.71	1106.16
644.05	1103.16
644.40	1100.31
644.74	1101.92
645.08	1103.54
645.43	1108.06
645.77	1108.71
646.11	1110.12
646.46	1108.10
646.80	1108.76
647.14	1104.87
647.49	1104.55
647.83	1104.29
648.17	1105.04
648.52	1105.53
648.86	1107.89
649.20	1110.33
649.55	1107.28
649.89	1105.01
650.23	1101.46
650.57	1099.79
650.92	1096.70
651.26	1099.51
651.60	1101.67
651.95	1102.04
652.29	1102.98
652.63	1102.60
652.97	1101.32
653.32	1100.75
653.66	1099.84
654.00	1095.30
654.34	1093.10
654.69	1093.10
655.03	1090.81
655.37	1093.43
655.71	1099.63
656.05	1101.29
656.40	1100.05
656.74	1100.96
657.08	1100.82
657.42	1098.74
657.76	1102.67
658.11	1105.01
658.45	1101.15
658.79	1097.99
659.13	1097.88
659.47	1093.97
659.82	1093.33
660.16	1096.07
660.50	1097.57
660.84	1096.03
661.18	1099.61
661.52	1101.81
661.87	1103.23
662.21	1104.52
662.55	1102.63
662.89	1097.78
663.23	1097.66
663.57	1097.48
663.91	1096.33
664.25	1095.67
664.60	1099.70
664.94	1096.56
665.28	1096.75
665.62	1096.89
665.96	1097.34
666.30	1092.82
666.64	1092.45
666.98	1090.53
667.32	1088.00
667.66	1088.68
668.01	1089.89
668.35	1091.09
668.69	1091.18
669.03	1091.77
669.37	1093.76
669.71	1096.19
670.05	1092.33
670.39	1090.34
670.73	1091.95
671.07	1090.85
671.41	1085.70
671.75	1087.25
672.09	1092.09
672.43	1088.84
672.77	1088.98
673.11	1088.40
673.45	1087.62
673.79	1087.20
674.13	1090.32
674.47	1090.36
674.81	1094.97
675.15	1096.63
675.49	1094.06
675.83	1093.08
676.17	1091.44
676.51	1089.99
676.85	1089.94
677.19	1091.20
677.53	1090.78
677.87	1092.54
678.21	1091.93
678.55	1091.06
678.89	1090.69
679.23	1090.39
679.57	1091.56
679.90	1091.88
680.24	1092.33
680.58	1089.82
680.92	1092.26
681.26	1093.83
681.60	1096.70
681.94	1098.90
682.28	1098.44
682.62	1098.44
682.96	1097.76
683.29	1096.89
683.63	1093.12
683.97	1096.80
684.31	1096.99
684.65	1094.53
684.99	1093.29
685.33	1094.90
685.67	1094.08
686.00	1092.02
686.34	1094.25
686.68	1093.73
687.02	1095.32
687.36	1093.87
687.70	1091.98
688.03	1092.61
688.37	1094.43
688.71	1096.26
689.05	1098.58
689.39	1100.29
689.72	1094.67
690.06	1092.07
690.40	1087.86
690.74	1085.21
691.08	1086.41
691.41	1089.71
691.75	1090.48
692.09	1091.39
692.43	1091.09
692.76	1089.92
693.10	1092.02
693.44	1092.35
693.78	1094.32
694.11	1095.96
694.45	1092.49
694.79	1088.16
695.13	1088.54
695.46	1086.45
695.80	1084.89
696.14	1085.56
696.48	1086.69
696.81	1084.60
697.15	1087.46
697.49	1085.12
697.82	1085.26
698.16	1087.86
698.50	1087.86
698.83	1085.82
699.17	1090.24
699.51	1094.97
699.84	1091.58
700.18	1093.83
700.52	1094.65
700.85	1094.29
701.19	1091.46
701.53	1087.30
701.86	1086.66
702.20	1087.46
702.54	1085.87
702.87	1085.77
703.21	1091.09
703.55	1089.57
703.88	1090.60
704.22	1091.23
704.55	1093.03
704.89	1094.43
705.23	1097.66
705.56	1093.69
705.90	1092.23
706.23	1091.58
706.57	1090.43
706.91	1089.47
707.24	1091.42
707.58	1091.88
707.91	1093.24
708.25	1092.61
708.58	1090.67
708.92	1089.10
709.26	1089.52
709.59	1087.90
709.93	1087.76
710.26	1088.61
710.60	1086.76
710.93	1085.84
711.27	1085.49
711.60	1085.26
711.94	1083.53
712.27	1088.02
712.61	1089.40
712.94	1089.45
713.28	1092.26
713.61	1094.60
713.95	1091.88
714.28	1090.60
714.62	1089.89
714.95	1085.07
715.29	1081.21
715.62	1081.02
715.96	1085.03
716.29	1085.19
716.63	1087.02
716.96	1086.80
717.29	1085.28
717.63	1083.29
717.96	1081.12
718.30	1081.49
718.63	1084.56
718.97	1088.68
719.30	1089.00
719.63	1090.36
719.97	1090.24
720.30	1091.79
720.64	1091.39
720.97	1091.25
721.30	1092.00
721.64	1091.67
721.97	1089.80
722.31	1089.85
722.64	1088.96
722.97	1089.33
723.31	1089.57
723.64	1090.22
723.97	1087.90
724.31	1088.63
724.64	1086.69
724.98	1084.79
725.31	1082.99
725.64	1083.43
725.98	1081.82
726.31	1081.94
726.64	1083.64
726.97	1083.81
727.31	1084.18
727.64	1083.88
727.97	1083.57
728.31	1084.60
728.64	1086.06
728.97	1086.17
729.31	1086.87
729.64	1091.46
729.97	1091.93
730.30	1092.33
730.64	1093.33
730.97	1095.89
731.30	1095.25
731.63	1091.44
731.97	1091.46
732.30	1091.81
732.63	1089.94
732.96	1086.50
733.30	1089.75
733.63	1089.50
733.96	1084.89
734.29	1084.65
734.63	1086.10
734.96	1086.50
735.29	1085.56
735.62	1091.98
735.95	1092.52
736.29	1093.55
736.62	1092.19
736.95	1091.32
737.28	1087.13
737.61	1087.41
737.94	1087.44
738.28	1088.14
738.61	1092.28
738.94	1094.22
739.27	1093.12
739.60	1090.50
739.93	1094.50
740.27	1093.83
740.60	1090.41
740.93	1089.33
741.26	1092.56
741.59	1090.27
741.92	1087.58
742.25	1092.98
742.58	1092.94
742.91	1091.84
743.25	1088.28
743.58	1088.79
743.91	1082.54
744.24	1084.51
744.57	1083.79
744.90	1085.99
745.23	1084.37
745.56	1086.03
745.89	1082.85
746.22	1081.35
746.55	1079.69
746.88	1082.83
747.21	1085.40
747.54	1087.02
747.87	1089.22
748.20	1089.47
748.53	1086.83
748.87	1085.99
749.20	1084.04
749.53	1083.86
749.86	1085.19
750.19	1088.42
750.52	1088.56
750.85	1092.49
751.18	1094.29
751.51	1092.26
751.84	1087.72
752.16	1085.99
752.49	1083.60
752.82	1082.01
753.15	1079.34
753.48	1079.38
753.81	1083.15
754.14	1083.67
754.47	1083.11
754.80	1085.52
755.13	1086.15
755.46	1084.79
755.79	1083.60
756.12	1083.46
756.45	1084.39
756.78	1088.56
757.11	1083.60
757.43	1082.40
757.76	1082.54
758.09	1085.82
758.42	1080.32
758.75	1083.11
759.08	1087.23
759.41	1088.14
759.74	1082.10
760.07	1086.08
760.39	1087.95
760.72	1086.52
761.05	1084.07
761.38	1088.04
761.71	1088.42
762.04	1087.97
762.36	1086.06
762.69	1087.02
763.02	1085.87
763.35	1086.87
