SpectraSuite Data File
++++++++++++++++++++++++++++++++++++
Date: Mon Aug 26 10:26:40 PDT 2019
User: corrico
Dark Spectrum Present: No
Reference Spectrum Present: No
Number of Sampled Component Spectra: 1
Spectrometers: USB2+H06089
Integration Time (usec): 10000 (USB2+H06089)
Spectra Averaged: 20 (USB2+H06089)
Boxcar Smoothing: 2 (USB2+H06089)
Correct for Electrical Dark: No (USB2+H06089)
Strobe/Lamp Enabled: No (USB2+H06089)
Correct for Detector Non-linearity: No (USB2+H06089)
Correct for Stray Light: No (USB2+H06089)
Number of Pixels in Processed Spectrum: 2048
>>>>>Begin Processed Spectral Data<<<<<
339.70	1033.58
340.07	1033.58
340.45	1000.30
340.82	978.77
341.19	955.80
341.57	931.28
341.94	918.05
342.31	908.39
342.69	905.30
343.06	900.43
343.43	899.07
343.81	903.82
344.18	908.01
344.55	909.81
344.93	916.55
345.30	923.22
345.67	928.65
346.04	934.67
346.42	942.21
346.79	948.15
347.16	955.03
347.54	962.17
347.91	974.72
348.28	985.83
348.65	996.62
349.03	1005.66
349.40	1015.58
349.77	1022.49
350.14	1027.35
350.52	1036.93
350.89	1045.87
351.26	1052.40
351.63	1058.58
352.01	1063.68
352.38	1068.67
352.75	1068.50
353.12	1071.08
353.50	1072.90
353.87	1078.82
354.24	1079.03
354.61	1083.67
354.98	1086.13
355.36	1084.21
355.73	1083.50
356.10	1083.55
356.47	1084.14
356.84	1084.07
357.22	1086.55
357.59	1087.55
357.96	1085.82
358.33	1085.52
358.70	1084.84
359.08	1086.36
359.45	1086.24
359.82	1088.12
360.19	1088.21
360.56	1089.71
360.94	1089.52
361.31	1086.34
361.68	1087.30
362.05	1085.07
362.42	1083.22
362.79	1081.68
363.16	1080.51
363.54	1076.23
363.91	1075.17
364.28	1073.84
364.65	1073.84
365.02	1075.97
365.39	1072.64
365.76	1077.33
366.14	1079.36
366.51	1078.96
366.88	1078.05
367.25	1081.89
367.62	1082.71
367.99	1083.01
368.36	1080.95
368.73	1081.05
369.10	1080.67
369.48	1079.57
369.85	1078.47
370.22	1082.15
370.59	1081.51
370.96	1084.46
371.33	1082.45
371.70	1081.00
372.07	1079.88
372.44	1079.74
372.81	1076.76
373.18	1076.32
373.55	1076.25
373.93	1075.03
374.30	1080.37
374.67	1080.56
375.04	1080.06
375.41	1080.18
375.78	1080.34
376.15	1077.00
376.52	1078.47
376.89	1079.69
377.26	1076.67
377.63	1080.30
378.00	1080.56
378.37	1084.89
378.74	1084.30
379.11	1088.44
379.48	1086.90
379.85	1087.95
380.22	1082.78
380.59	1083.39
380.96	1084.67
381.33	1085.94
381.70	1084.93
382.07	1085.61
382.44	1083.32
382.81	1082.08
383.18	1078.78
383.55	1077.23
383.92	1077.23
384.29	1079.60
384.66	1081.12
385.03	1083.55
385.40	1083.90
385.77	1084.89
386.14	1083.20
386.51	1083.13
386.88	1083.08
387.25	1083.13
387.62	1084.28
387.99	1082.45
388.36	1080.46
388.73	1079.95
389.10	1084.16
389.46	1084.00
389.83	1088.54
390.20	1088.30
390.57	1087.51
390.94	1084.28
391.31	1083.64
391.68	1081.47
392.05	1082.99
392.42	1082.83
392.79	1082.01
393.16	1083.55
393.53	1084.53
393.89	1086.13
394.26	1087.51
394.63	1089.19
395.00	1085.31
395.37	1087.20
395.74	1086.20
396.11	1085.05
396.48	1085.28
396.84	1088.23
397.21	1088.86
397.58	1090.60
397.95	1091.63
398.32	1090.03
398.69	1090.81
399.06	1087.83
399.42	1087.30
399.79	1087.30
400.16	1089.89
400.53	1090.24
400.90	1090.69
401.27	1091.42
401.64	1091.63
402.00	1090.08
402.37	1088.40
402.74	1087.74
403.11	1088.44
403.48	1089.89
403.84	1092.61
404.21	1093.15
404.58	1096.85
404.95	1095.72
405.32	1097.43
405.68	1097.66
406.05	1099.23
406.42	1096.40
406.79	1097.62
407.16	1097.41
407.52	1096.82
407.89	1098.02
408.26	1103.40
408.63	1102.53
408.99	1103.07
409.36	1102.58
409.73	1102.98
410.10	1103.07
410.47	1104.24
410.83	1101.27
411.20	1101.85
411.57	1101.50
411.94	1100.45
412.30	1097.92
412.67	1098.18
413.04	1097.95
413.40	1099.21
413.77	1099.33
414.14	1103.80
414.51	1106.02
414.87	1106.84
415.24	1106.44
415.61	1103.49
415.97	1102.91
416.34	1101.27
416.71	1100.33
417.08	1100.12
417.44	1102.42
417.81	1103.80
418.18	1107.71
418.54	1105.34
418.91	1104.64
419.28	1103.38
419.64	1098.39
420.01	1094.48
420.38	1096.73
420.74	1095.44
421.11	1096.96
421.48	1100.78
421.84	1103.75
422.21	1103.12
422.58	1106.65
422.94	1106.18
423.31	1103.31
423.68	1103.49
424.04	1105.58
424.41	1106.39
424.77	1107.35
425.14	1112.97
425.51	1111.15
425.87	1115.76
426.24	1117.16
426.61	1119.76
426.97	1120.39
427.34	1118.38
427.70	1119.34
428.07	1118.80
428.44	1115.80
428.80	1111.99
429.17	1116.32
429.53	1109.95
429.90	1111.15
430.27	1114.14
430.63	1117.40
431.00	1117.86
431.36	1120.06
431.73	1119.57
432.09	1117.61
432.46	1116.41
432.83	1115.85
433.19	1116.06
433.56	1115.80
433.92	1113.95
434.29	1111.71
434.65	1109.55
435.02	1112.32
435.38	1109.48
435.75	1111.75
436.11	1110.98
436.48	1113.67
436.84	1109.06
437.21	1109.32
437.57	1110.05
437.94	1112.08
438.30	1110.89
438.67	1111.22
439.03	1112.55
439.40	1113.14
439.76	1112.29
440.13	1113.30
440.49	1113.84
440.86	1112.85
441.22	1112.95
441.59	1114.45
441.95	1112.13
442.32	1114.49
442.68	1114.89
443.05	1112.32
443.41	1112.22
443.78	1114.75
444.14	1113.72
444.51	1117.54
444.87	1119.20
445.24	1117.51
445.60	1119.17
445.96	1119.90
446.33	1116.97
446.69	1115.10
447.06	1114.00
447.42	1111.17
447.79	1108.85
448.15	1108.27
448.51	1108.41
448.88	1108.81
449.24	1107.75
449.61	1106.86
449.97	1106.56
450.33	1109.44
450.70	1109.81
451.06	1110.75
451.43	1112.29
451.79	1110.44
452.15	1108.55
452.52	1108.22
452.88	1108.76
453.24	1110.00
453.61	1114.24
453.97	1115.69
454.34	1112.83
454.70	1116.06
455.06	1112.34
455.43	1108.64
455.79	1104.83
456.15	1106.82
456.52	1104.08
456.88	1109.02
457.24	1107.75
457.61	1109.60
457.97	1112.04
458.33	1111.26
458.70	1106.44
459.06	1106.89
459.42	1110.75
459.79	1108.20
460.15	1108.81
460.51	1114.89
460.88	1118.19
461.24	1115.05
461.60	1118.50
461.96	1118.92
462.33	1114.84
462.69	1114.82
463.05	1114.33
463.42	1112.60
463.78	1111.29
464.14	1115.22
464.50	1117.18
464.87	1120.70
465.23	1121.14
465.59	1122.78
465.95	1120.02
466.32	1121.47
466.68	1122.05
467.04	1126.59
467.40	1129.21
467.77	1132.66
468.13	1132.47
468.49	1133.15
468.85	1133.94
469.22	1133.47
469.58	1134.88
469.94	1134.60
470.30	1137.13
470.66	1136.77
471.03	1140.31
471.39	1142.67
471.75	1148.41
472.11	1151.68
472.47	1153.06
472.84	1153.04
473.20	1156.44
473.56	1153.86
473.92	1154.16
474.28	1156.51
474.65	1161.68
475.01	1164.79
475.37	1173.43
475.73	1180.05
476.09	1188.80
476.45	1195.80
476.81	1197.39
477.18	1199.13
477.54	1200.81
477.90	1205.05
478.26	1207.65
478.62	1215.93
478.98	1222.18
479.34	1229.13
479.71	1234.45
480.07	1242.12
480.43	1252.87
480.79	1262.41
481.15	1273.49
481.51	1285.70
481.87	1300.87
482.23	1309.11
482.59	1320.86
482.96	1335.06
483.32	1349.55
483.68	1359.78
484.04	1375.37
484.40	1390.56
484.76	1408.09
485.12	1426.30
485.48	1445.75
485.84	1467.28
486.20	1492.16
486.56	1512.15
486.92	1537.87
487.28	1561.16
487.64	1585.32
488.00	1612.51
488.37	1641.25
488.73	1668.97
489.09	1704.35
489.45	1739.84
489.81	1773.89
490.17	1813.52
490.53	1852.89
490.89	1892.98
491.25	1935.88
491.61	1983.44
491.97	2025.36
492.33	2076.43
492.69	2129.56
493.05	2183.30
493.41	2239.38
493.77	2303.60
494.13	2362.42
494.49	2429.03
494.85	2499.48
495.21	2571.59
495.57	2649.49
495.93	2736.48
496.29	2820.35
496.64	2915.75
497.00	3008.10
497.36	3109.45
497.72	3210.89
498.08	3318.08
498.44	3427.27
498.80	3554.90
499.16	3682.48
499.52	3823.83
499.88	3976.27
500.24	4136.05
500.60	4284.09
500.96	4448.35
501.32	4613.13
501.68	4784.13
502.03	4965.75
502.39	5184.22
502.75	5401.02
503.11	5628.40
503.47	5859.04
503.83	6107.86
504.19	6353.48
504.55	6613.86
504.91	6893.16
505.26	7177.79
505.62	7470.83
505.98	7779.82
506.34	8117.45
506.70	8472.22
507.06	8851.81
507.42	9251.44
507.78	9655.55
508.13	10060.47
508.49	10489.58
508.85	10953.12
509.21	11427.90
509.57	11956.25
509.93	12511.01
510.28	13095.23
510.64	13707.35
511.00	14312.98
511.36	14883.47
511.72	15468.53
512.07	16113.14
512.43	16725.91
512.79	17392.52
513.15	18122.70
513.51	18865.93
513.86	19583.73
514.22	20402.24
514.58	21193.90
514.94	22028.09
515.30	22866.05
515.65	23678.47
516.01	24517.51
516.37	25358.82
516.73	26128.69
517.08	26998.90
517.44	27848.72
517.80	28655.69
518.16	29508.28
518.51	30332.06
518.87	31055.14
519.23	31909.44
519.59	32772.77
519.94	33597.41
520.30	34476.68
520.66	35253.31
521.01	36024.12
521.37	36672.19
521.73	37282.00
522.09	37865.68
522.44	38533.34
522.80	38952.55
523.16	39319.88
523.51	39578.39
523.87	39851.11
524.23	40107.70
524.58	40372.25
524.94	40755.49
525.30	41107.37
525.65	41307.39
526.01	41320.80
526.37	41339.57
526.72	41268.09
527.08	41155.32
527.44	40953.76
527.79	40793.69
528.15	40643.89
528.51	40386.60
528.86	40139.81
529.22	39911.82
529.58	39681.70
529.93	39326.41
530.29	38906.00
530.65	38539.03
531.00	38188.70
531.36	37722.13
531.71	37260.42
532.07	36787.37
532.43	36190.02
532.78	35547.68
533.14	34979.75
533.49	34425.16
533.85	33819.08
534.21	33232.80
534.56	32685.23
534.92	32086.43
535.27	31456.45
535.63	30828.39
535.98	30203.35
536.34	29574.61
536.69	28946.18
537.05	28326.29
537.41	27828.15
537.76	27339.77
538.12	26783.94
538.47	26307.83
538.83	25875.18
539.18	25398.70
539.54	24911.21
539.89	24460.05
540.25	23939.87
540.60	23449.97
540.96	22962.11
541.31	22485.83
541.67	22072.33
542.02	21676.85
542.38	21245.49
542.73	20809.66
543.09	20435.76
543.44	20066.28
543.80	19718.64
544.15	19322.01
544.51	18993.26
544.86	18668.02
545.22	18310.27
545.57	17937.26
545.93	17589.36
546.28	17262.55
546.64	16938.15
546.99	16596.60
547.35	16279.85
547.70	15980.45
548.05	15664.92
548.41	15349.65
548.76	15062.49
549.12	14773.53
549.47	14507.95
549.83	14249.02
550.18	13931.08
550.53	13588.59
550.89	13316.64
551.24	13047.27
551.60	12750.28
551.95	12513.30
552.30	12297.08
552.66	12059.31
553.01	11811.86
553.37	11546.99
553.72	11255.57
554.07	10988.84
554.43	10704.23
554.78	10417.77
555.13	10165.09
555.49	9961.18
555.84	9777.68
556.19	9592.76
556.55	9395.82
556.90	9199.05
557.26	8990.09
557.61	8769.78
557.96	8534.01
558.32	8334.91
558.67	8143.54
559.02	7928.52
559.37	7737.81
559.73	7582.82
560.08	7424.62
560.43	7272.44
560.79	7148.75
561.14	6998.23
561.49	6833.87
561.85	6679.00
562.20	6532.29
562.55	6391.42
562.90	6258.29
563.26	6138.50
563.61	6021.17
563.96	5910.32
564.32	5795.24
564.67	5683.29
565.02	5566.47
565.37	5462.51
565.73	5348.71
566.08	5239.34
566.43	5127.88
566.78	5021.71
567.14	4912.64
567.49	4798.99
567.84	4705.81
568.19	4611.11
568.54	4523.72
568.90	4438.97
569.25	4372.33
569.60	4293.01
569.95	4216.05
570.31	4134.74
570.66	4054.23
571.01	3960.42
571.36	3871.60
571.71	3797.40
572.06	3733.48
572.42	3673.17
572.77	3623.66
573.12	3570.56
573.47	3511.15
573.82	3444.75
574.18	3380.46
574.53	3314.71
574.88	3258.45
575.23	3207.00
575.58	3161.20
575.93	3108.37
576.28	3058.47
576.64	3003.94
576.99	2948.23
577.34	2894.26
577.69	2840.61
578.04	2791.86
578.39	2742.01
578.74	2703.08
579.09	2663.37
579.44	2630.93
579.80	2590.95
580.15	2554.09
580.50	2513.67
580.85	2476.43
581.20	2438.14
581.55	2410.17
581.90	2383.44
582.25	2352.57
582.60	2317.67
582.95	2285.18
583.30	2245.63
583.65	2207.41
584.00	2174.12
584.35	2146.36
584.71	2114.98
585.06	2088.20
585.41	2062.04
585.76	2032.87
586.11	2005.49
586.46	1983.86
586.81	1964.18
587.16	1944.19
587.51	1926.38
587.86	1906.62
588.21	1885.56
588.56	1862.04
588.91	1840.22
589.26	1818.27
589.61	1800.90
589.96	1780.54
590.31	1766.07
590.66	1751.77
591.01	1736.82
591.36	1719.36
591.71	1703.02
592.06	1690.50
592.41	1674.68
592.76	1659.98
593.10	1645.05
593.45	1634.82
593.80	1615.77
594.15	1597.81
594.50	1583.09
594.85	1569.19
595.20	1554.68
595.55	1544.54
595.90	1538.32
596.25	1528.60
596.60	1517.81
596.95	1509.55
597.30	1501.17
597.64	1538.13
597.99	1531.93
598.34	1524.39
598.69	1515.26
599.04	1502.02
599.39	1444.04
599.74	1432.95
600.09	1421.74
600.44	1414.03
600.78	1408.35
601.13	1404.06
601.48	1396.34
601.83	1393.81
602.18	1385.76
602.53	1377.57
602.88	1366.94
603.22	1359.01
603.57	1351.82
603.92	1344.15
604.27	1336.21
604.62	1331.18
604.97	1326.24
605.31	1323.10
605.66	1317.42
606.01	1313.67
606.36	1307.05
606.71	1303.42
607.05	1298.15
607.40	1293.38
607.75	1287.22
608.10	1282.57
608.44	1273.93
608.79	1267.19
609.14	1264.45
609.49	1265.20
609.84	1266.72
610.18	1269.20
610.53	1268.06
610.88	1267.47
611.23	1261.38
611.57	1254.11
611.92	1248.18
612.27	1239.69
612.62	1233.88
612.96	1233.70
613.31	1234.19
613.66	1228.99
614.00	1227.59
614.35	1224.36
614.70	1220.75
615.05	1214.76
615.39	1214.20
615.74	1210.36
616.09	1208.30
616.43	1200.48
616.78	1199.17
617.13	1196.41
617.47	1194.66
617.82	1192.67
618.17	1194.09
618.51	1189.98
618.86	1186.75
619.21	1186.18
619.55	1181.95
619.90	1179.44
620.25	1176.75
620.59	1170.76
620.94	1165.21
621.29	1163.50
621.63	1162.01
621.98	1161.35
622.32	1161.33
622.67	1160.32
623.02	1159.36
623.36	1155.24
623.71	1151.68
624.05	1152.25
624.40	1151.52
624.75	1147.80
625.09	1146.35
625.44	1148.50
625.78	1147.71
626.13	1144.52
626.48	1143.89
626.82	1145.08
627.17	1141.64
627.51	1142.67
627.86	1144.45
628.20	1144.57
628.55	1140.80
628.89	1139.63
629.24	1133.57
629.58	1131.04
629.93	1131.39
630.28	1133.45
630.62	1131.77
630.97	1132.59
631.31	1133.01
631.66	1129.64
632.00	1127.53
632.35	1128.19
632.69	1127.65
633.04	1125.42
633.38	1125.26
633.73	1122.83
634.07	1117.98
634.42	1116.51
634.76	1117.37
635.11	1115.57
635.45	1115.99
635.79	1116.69
636.14	1113.53
636.48	1110.30
636.83	1110.96
637.17	1111.64
637.52	1114.00
637.86	1119.48
638.21	1120.41
638.55	1119.43
638.89	1119.48
639.24	1115.59
639.58	1108.08
639.93	1107.54
640.27	1109.69
640.61	1107.35
640.96	1107.31
641.30	1112.25
641.65	1110.87
641.99	1106.82
642.33	1107.54
642.68	1107.03
643.02	1100.82
643.37	1098.39
643.71	1099.93
644.05	1096.45
644.40	1098.76
644.74	1100.19
645.08	1105.93
645.43	1103.49
645.77	1106.32
646.11	1104.41
646.46	1106.84
646.80	1104.80
647.14	1107.54
647.49	1104.22
647.83	1105.13
648.17	1106.89
648.52	1106.11
648.86	1102.72
649.20	1104.83
649.55	1104.57
649.89	1101.03
650.23	1099.09
650.57	1101.36
650.92	1101.90
651.26	1101.57
651.60	1100.43
651.95	1099.84
652.29	1098.79
652.63	1095.98
652.97	1093.12
653.32	1093.73
653.66	1095.93
654.00	1096.52
654.34	1095.18
654.69	1098.04
655.03	1097.36
655.37	1096.26
655.71	1094.29
656.05	1097.78
656.40	1096.99
656.74	1097.73
657.08	1099.42
657.42	1098.32
657.76	1095.28
658.11	1094.60
658.45	1092.09
658.79	1087.13
659.13	1088.96
659.47	1089.87
659.82	1090.64
660.16	1093.87
660.50	1098.55
660.84	1098.37
661.18	1098.65
661.52	1098.02
661.87	1094.95
662.21	1091.84
662.55	1093.15
662.89	1092.23
663.23	1091.67
663.57	1094.29
663.91	1095.70
664.25	1095.25
664.60	1095.49
664.94	1095.98
665.28	1094.15
665.62	1093.40
665.96	1091.74
666.30	1091.67
666.64	1090.95
666.98	1092.16
667.32	1092.75
667.66	1093.45
668.01	1092.82
668.35	1092.70
668.69	1094.36
669.03	1092.28
669.37	1093.94
669.71	1094.55
670.05	1093.78
670.39	1091.77
670.73	1094.36
671.07	1090.88
671.41	1089.19
671.75	1093.17
672.09	1093.40
672.43	1093.94
672.77	1096.31
673.11	1097.34
673.45	1093.99
673.79	1092.63
674.13	1090.46
674.47	1089.61
674.81	1092.00
675.15	1090.36
675.49	1090.06
675.83	1089.64
676.17	1090.85
676.51	1088.42
676.85	1093.52
677.19	1093.76
677.53	1093.22
677.87	1091.23
678.21	1091.16
678.55	1087.32
678.89	1090.36
679.23	1091.86
679.57	1094.13
679.90	1092.21
680.24	1092.70
680.58	1088.75
680.92	1087.65
681.26	1085.68
681.60	1084.30
681.94	1084.60
682.28	1087.06
682.62	1086.59
682.96	1086.83
683.29	1090.24
683.63	1091.79
683.97	1091.16
684.31	1091.51
684.65	1090.36
684.99	1092.68
685.33	1088.47
685.67	1088.42
686.00	1087.18
686.34	1085.31
686.68	1081.26
687.02	1084.18
687.36	1084.89
687.70	1086.57
688.03	1090.27
688.37	1090.32
688.71	1088.93
689.05	1090.64
689.39	1091.77
689.72	1091.34
690.06	1093.90
690.40	1095.30
690.74	1092.98
691.08	1093.94
691.41	1093.45
691.75	1096.61
692.09	1097.99
692.43	1099.23
692.76	1099.72
693.10	1097.76
693.44	1092.61
693.78	1086.69
694.11	1085.17
694.45	1081.56
694.79	1081.56
695.13	1085.26
695.46	1088.93
695.80	1087.88
696.14	1088.26
696.48	1088.37
696.81	1085.91
697.15	1086.22
697.49	1088.28
697.82	1090.81
698.16	1093.50
698.50	1093.19
698.83	1093.26
699.17	1091.56
699.51	1093.05
699.84	1091.37
700.18	1091.56
700.52	1090.64
700.85	1090.81
701.19	1086.36
701.53	1088.42
701.86	1088.21
702.20	1087.06
702.54	1085.84
702.87	1090.74
703.21	1090.15
703.55	1090.76
703.88	1092.21
704.22	1094.08
704.55	1091.93
704.89	1093.85
705.23	1096.75
705.56	1095.07
705.90	1093.22
706.23	1089.85
706.57	1086.01
706.91	1082.50
707.24	1086.99
707.58	1090.32
707.91	1092.96
708.25	1094.41
708.58	1094.36
708.92	1093.66
709.26	1092.23
709.59	1092.91
709.93	1090.17
710.26	1086.55
710.60	1084.09
710.93	1085.03
711.27	1085.42
711.60	1091.44
711.94	1097.01
712.27	1095.89
712.61	1096.96
712.94	1092.94
713.28	1089.07
713.61	1087.62
713.95	1088.47
714.28	1085.14
714.62	1085.35
714.95	1084.39
715.29	1085.07
715.62	1086.78
715.96	1087.06
716.29	1090.71
716.63	1090.10
716.96	1089.17
717.29	1088.47
717.63	1090.57
717.96	1087.48
718.30	1091.23
718.63	1092.45
718.97	1091.98
719.30	1089.96
719.63	1088.84
719.97	1086.64
720.30	1086.66
720.64	1089.05
720.97	1090.22
721.30	1093.33
721.64	1093.80
721.97	1093.31
722.31	1089.14
722.64	1087.60
722.97	1087.74
723.31	1082.52
723.64	1081.98
723.97	1083.74
724.31	1084.07
724.64	1082.45
724.98	1087.74
725.31	1085.19
725.64	1084.14
725.98	1084.35
726.31	1086.80
726.64	1088.86
726.97	1094.57
727.31	1096.12
727.64	1095.96
727.97	1093.87
728.31	1091.70
728.64	1086.03
728.97	1086.13
729.31	1085.26
729.64	1084.04
729.97	1084.53
730.30	1087.51
730.64	1087.76
730.97	1088.49
731.30	1091.46
731.63	1089.33
731.97	1089.75
732.30	1086.97
732.63	1086.52
732.96	1088.42
733.30	1088.63
733.63	1089.33
733.96	1090.15
734.29	1091.63
734.63	1088.02
734.96	1089.64
735.29	1089.57
735.62	1091.23
735.95	1090.57
736.29	1092.42
736.62	1090.08
736.95	1088.65
737.28	1087.16
737.61	1086.52
737.94	1084.18
738.28	1086.15
738.61	1086.73
738.94	1087.13
739.27	1086.17
739.60	1086.73
739.93	1087.76
740.27	1083.79
740.60	1084.74
740.93	1087.18
741.26	1085.17
741.59	1084.65
741.92	1090.83
742.25	1088.84
742.58	1088.61
742.91	1092.37
743.25	1091.23
743.58	1087.93
743.91	1089.50
744.24	1087.97
744.57	1082.47
744.90	1080.41
745.23	1080.74
745.56	1078.75
745.89	1081.14
746.22	1088.35
746.55	1088.72
746.88	1088.12
747.21	1090.41
747.54	1088.86
747.87	1085.49
748.20	1089.00
748.53	1088.07
748.87	1088.09
749.20	1085.94
749.53	1085.38
749.86	1083.36
750.19	1084.67
750.52	1086.27
750.85	1088.84
751.18	1087.09
751.51	1089.45
751.84	1090.13
752.16	1088.63
752.49	1086.22
752.82	1088.54
753.15	1086.52
753.48	1084.72
753.81	1082.45
754.14	1084.32
754.47	1085.80
754.80	1086.27
755.13	1087.60
755.46	1090.17
755.79	1089.17
756.12	1090.46
756.45	1093.24
756.78	1092.70
757.11	1091.91
757.43	1090.50
757.76	1087.04
758.09	1082.08
758.42	1082.19
758.75	1082.15
759.08	1083.97
759.41	1084.70
759.74	1084.56
760.07	1085.24
760.39	1084.65
760.72	1084.49
761.05	1083.13
761.38	1083.64
761.71	1085.42
762.04	1086.01
762.36	1085.70
762.69	1087.23
763.02	1089.43
763.35	1088.79
