SpectraSuite Data File
++++++++++++++++++++++++++++++++++++
Date: Mon Aug 26 10:26:50 PDT 2019
User: corrico
Dark Spectrum Present: No
Reference Spectrum Present: No
Number of Sampled Component Spectra: 1
Spectrometers: USB2+H06089
Integration Time (usec): 10000 (USB2+H06089)
Spectra Averaged: 20 (USB2+H06089)
Boxcar Smoothing: 2 (USB2+H06089)
Correct for Electrical Dark: No (USB2+H06089)
Strobe/Lamp Enabled: No (USB2+H06089)
Correct for Detector Non-linearity: No (USB2+H06089)
Correct for Stray Light: No (USB2+H06089)
Number of Pixels in Processed Spectrum: 2048
>>>>>Begin Processed Spectral Data<<<<<
339.70	1032.18
340.07	1032.18
340.45	994.52
340.82	972.21
341.19	949.30
341.57	924.23
341.94	915.88
342.31	911.62
342.69	906.98
343.06	901.55
343.43	900.40
343.81	899.09
344.18	902.02
344.55	909.32
344.93	918.05
345.30	926.99
345.67	934.81
346.04	940.97
346.42	944.99
346.79	952.97
347.16	957.00
347.54	967.81
347.91	978.84
348.28	990.96
348.65	1002.33
349.03	1014.15
349.40	1023.42
349.77	1029.84
350.14	1036.60
350.52	1041.26
350.89	1047.25
351.26	1050.71
351.63	1057.83
352.01	1063.87
352.38	1068.43
352.75	1072.41
353.12	1078.05
353.50	1079.36
353.87	1080.37
354.24	1083.20
354.61	1086.87
354.98	1089.78
355.36	1093.22
355.73	1097.52
356.10	1098.79
356.47	1098.02
356.84	1094.46
357.22	1092.28
357.59	1090.06
357.96	1090.20
358.33	1090.43
358.70	1090.99
359.08	1089.59
359.45	1085.21
359.82	1081.73
360.19	1082.01
360.56	1081.30
360.94	1084.30
361.31	1089.89
361.68	1092.52
362.05	1091.53
362.42	1091.44
362.79	1087.60
363.16	1084.11
363.54	1079.53
363.91	1083.04
364.28	1080.56
364.65	1083.64
365.02	1080.56
365.39	1082.78
365.76	1078.64
366.14	1079.24
366.51	1079.95
366.88	1082.64
367.25	1081.61
367.62	1082.17
367.99	1082.36
368.36	1078.92
368.73	1080.74
369.10	1082.26
369.48	1080.09
369.85	1080.60
370.22	1080.44
370.59	1076.32
370.96	1075.13
371.33	1075.66
371.70	1077.70
372.07	1077.16
372.44	1078.80
372.81	1081.63
373.18	1081.23
373.55	1081.58
373.93	1085.99
374.30	1086.06
374.67	1084.42
375.04	1088.47
375.41	1086.52
375.78	1086.97
376.15	1088.04
376.52	1087.53
376.89	1085.07
377.26	1086.22
377.63	1082.40
378.00	1083.18
378.37	1082.78
378.74	1083.22
379.11	1082.40
379.48	1084.49
379.85	1084.77
380.22	1085.70
380.59	1084.63
380.96	1085.80
381.33	1083.86
381.70	1084.09
382.07	1084.67
382.44	1083.29
382.81	1082.15
383.18	1085.00
383.55	1084.02
383.92	1081.09
384.29	1081.33
384.66	1082.15
385.03	1081.09
385.40	1082.03
385.77	1082.92
386.14	1084.65
386.51	1082.73
386.88	1081.30
387.25	1081.63
387.62	1080.81
387.99	1080.32
388.36	1080.41
388.73	1084.86
389.10	1084.21
389.46	1086.85
389.83	1088.61
390.20	1090.97
390.57	1087.32
390.94	1087.69
391.31	1085.35
391.68	1082.87
392.05	1082.64
392.42	1085.12
392.79	1086.71
393.16	1088.12
393.53	1087.60
393.89	1086.27
394.26	1088.14
394.63	1087.11
395.00	1089.05
395.37	1092.00
395.74	1094.76
396.11	1091.91
396.48	1091.95
396.84	1089.24
397.21	1089.75
397.58	1089.68
397.95	1088.89
398.32	1087.23
398.69	1092.09
399.06	1095.30
399.42	1095.21
399.79	1095.56
400.16	1097.34
400.53	1095.82
400.90	1092.42
401.27	1091.91
401.64	1094.43
402.00	1094.57
402.37	1094.06
402.74	1095.77
403.11	1097.71
403.48	1096.78
403.84	1097.10
404.21	1096.40
404.58	1094.15
404.95	1093.80
405.32	1092.89
405.68	1093.01
406.05	1090.69
406.42	1093.92
406.79	1092.02
407.16	1094.18
407.52	1094.32
407.89	1100.17
408.26	1099.21
408.63	1101.90
408.99	1099.70
409.36	1098.48
409.73	1098.23
410.10	1097.95
410.47	1098.30
410.83	1100.26
411.20	1101.74
411.57	1101.48
411.94	1102.81
412.30	1100.80
412.67	1100.29
413.04	1101.25
413.40	1104.62
413.77	1103.19
414.14	1101.32
414.51	1101.67
414.87	1102.86
415.24	1099.56
415.61	1100.71
415.97	1103.40
416.34	1105.90
416.71	1105.08
417.08	1105.81
417.44	1103.52
417.81	1105.51
418.18	1104.26
418.54	1104.62
418.91	1105.97
419.28	1109.39
419.64	1107.87
420.01	1109.77
420.38	1111.40
420.74	1110.16
421.11	1109.72
421.48	1111.19
421.84	1110.00
422.21	1112.08
422.58	1112.27
422.94	1115.10
423.31	1111.78
423.68	1110.05
424.04	1106.86
424.41	1107.12
424.77	1101.64
425.14	1106.89
425.51	1110.33
425.87	1111.71
426.24	1111.92
426.61	1114.73
426.97	1115.92
427.34	1114.80
427.70	1115.94
428.07	1117.37
428.44	1119.34
428.80	1117.11
429.17	1115.24
429.53	1110.89
429.90	1110.49
430.27	1108.15
430.63	1108.08
431.00	1110.09
431.36	1110.63
431.73	1109.53
432.09	1108.15
432.46	1106.21
432.83	1106.44
433.19	1105.48
433.56	1105.74
433.92	1108.52
434.29	1112.39
434.65	1114.05
435.02	1119.64
435.38	1119.36
435.75	1121.30
436.11	1119.62
436.48	1117.98
436.84	1114.31
437.21	1116.25
437.57	1113.16
437.94	1113.16
438.30	1114.63
438.67	1114.12
439.03	1109.86
439.40	1113.58
439.76	1110.91
440.13	1109.67
440.49	1112.08
440.86	1115.57
441.22	1112.64
441.59	1115.10
441.95	1112.76
442.32	1109.02
442.68	1108.17
443.05	1109.18
443.41	1108.22
443.78	1113.56
444.14	1116.69
444.51	1117.79
444.87	1114.82
445.24	1113.88
445.60	1110.12
445.96	1109.60
446.33	1107.00
446.69	1109.09
447.06	1109.27
447.42	1109.13
447.79	1109.46
448.15	1110.68
448.51	1110.98
448.88	1113.60
449.24	1117.89
449.61	1117.68
449.97	1118.17
450.33	1120.72
450.70	1119.13
451.06	1114.12
451.43	1111.75
451.79	1113.07
452.15	1111.22
452.52	1111.19
452.88	1113.28
453.24	1116.34
453.61	1114.70
453.97	1112.97
454.34	1113.51
454.70	1113.77
455.06	1113.84
455.43	1113.18
455.79	1116.62
456.15	1115.90
456.52	1115.45
456.88	1115.62
457.24	1117.18
457.61	1116.58
457.97	1117.82
458.33	1120.32
458.70	1118.54
459.06	1117.89
459.42	1117.14
459.79	1118.12
460.15	1113.18
460.51	1115.99
460.88	1115.76
461.24	1115.43
461.60	1114.02
461.96	1116.06
462.33	1117.11
462.69	1117.61
463.05	1116.18
463.42	1115.34
463.78	1119.15
464.14	1121.16
464.50	1122.64
464.87	1125.19
465.23	1128.96
465.59	1129.68
465.95	1127.11
466.32	1128.23
466.68	1126.29
467.04	1124.46
467.40	1122.73
467.77	1124.84
468.13	1126.22
468.49	1129.89
468.85	1133.80
469.22	1136.80
469.58	1139.21
469.94	1139.86
470.30	1139.79
470.66	1140.40
471.03	1140.94
471.39	1139.77
471.75	1139.70
472.11	1143.84
472.47	1144.24
472.84	1147.05
473.20	1150.09
473.56	1155.05
473.92	1155.05
474.28	1157.16
474.65	1160.60
475.01	1164.56
475.37	1171.30
475.73	1177.92
476.09	1185.50
476.45	1190.58
476.81	1195.90
477.18	1194.31
477.54	1198.78
477.90	1202.92
478.26	1206.29
478.62	1214.74
478.98	1227.75
479.34	1237.23
479.71	1248.11
480.07	1256.42
480.43	1261.95
480.79	1268.57
481.15	1277.63
481.51	1286.03
481.87	1297.01
482.23	1305.78
482.59	1319.10
482.96	1329.49
483.32	1341.88
483.68	1355.76
484.04	1373.03
484.40	1387.59
484.76	1406.10
485.12	1423.82
485.48	1443.38
485.84	1465.46
486.20	1486.99
486.56	1509.65
486.92	1535.98
487.28	1563.31
487.64	1585.69
488.00	1612.35
488.37	1639.55
488.73	1671.05
489.09	1702.79
489.45	1739.06
489.81	1778.20
490.17	1820.75
490.53	1857.40
490.89	1896.21
491.25	1937.14
491.61	1980.87
491.97	2027.47
492.33	2076.85
492.69	2131.06
493.05	2184.33
493.41	2241.39
493.77	2302.08
494.13	2371.31
494.49	2437.55
494.85	2516.87
495.21	2589.40
495.57	2665.64
495.93	2743.65
496.29	2830.92
496.64	2924.34
497.00	3017.16
497.36	3115.44
497.72	3216.36
498.08	3328.29
498.44	3440.70
498.80	3565.71
499.16	3692.43
499.52	3837.12
499.88	3982.19
500.24	4140.29
500.60	4295.66
500.96	4459.26
501.32	4632.97
501.68	4797.19
502.03	4974.50
502.39	5178.88
502.75	5392.17
503.11	5612.35
503.47	5850.78
503.83	6100.75
504.19	6352.64
504.55	6628.58
504.91	6904.25
505.26	7191.41
505.62	7489.97
505.98	7802.43
506.34	8120.37
506.70	8480.07
507.06	8865.01
507.42	9258.20
507.78	9672.85
508.13	10106.50
508.49	10530.21
508.85	10997.55
509.21	11482.64
509.57	12011.65
509.93	12556.18
510.28	13161.46
510.64	13768.48
511.00	14368.27
511.36	14943.06
511.72	15532.82
512.07	16179.44
512.43	16796.48
512.79	17478.44
513.15	18222.55
513.51	18959.30
513.86	19674.12
514.22	20499.51
514.58	21279.19
514.94	22106.03
515.30	22985.23
515.65	23806.78
516.01	24637.04
516.37	25487.03
516.73	26234.32
517.08	27070.00
517.44	27915.64
517.80	28740.14
518.16	29600.22
518.51	30447.87
518.87	31196.30
519.23	32058.97
519.59	32909.78
519.94	33749.75
520.30	34612.03
520.66	35388.57
521.01	36172.30
521.37	36871.65
521.73	37513.90
522.09	38119.91
522.44	38733.34
522.80	39123.58
523.16	39434.52
523.51	39672.53
523.87	39963.10
524.23	40241.95
524.58	40527.78
524.94	40907.93
525.30	41233.99
525.65	41411.29
526.01	41460.13
526.37	41442.53
526.72	41373.84
527.08	41231.86
527.44	41047.71
527.79	40905.54
528.15	40802.00
528.51	40594.02
528.86	40387.42
529.22	40168.16
529.58	39901.05
529.93	39537.05
530.29	39090.76
530.65	38725.10
531.00	38391.78
531.36	37956.30
531.71	37490.21
532.07	37013.37
532.43	36413.87
532.78	35733.12
533.14	35161.12
533.49	34601.33
533.85	34005.36
534.21	33414.89
534.56	32846.05
534.92	32253.31
535.27	31648.21
535.63	31063.22
535.98	30441.83
536.34	29825.91
536.69	29160.52
537.05	28530.19
537.41	27972.35
537.76	27490.39
538.12	26950.96
538.47	26494.16
538.83	26052.20
539.18	25595.35
539.54	25118.93
539.89	24666.34
540.25	24127.48
540.60	23641.19
540.96	23141.37
541.31	22648.80
541.67	22228.93
542.02	21844.08
542.38	21394.77
542.73	20934.80
543.09	20526.38
543.44	20130.08
543.80	19772.10
544.15	19360.82
544.51	19035.27
544.86	18710.36
545.22	18368.88
545.57	18001.22
545.93	17670.13
546.28	17363.45
546.64	17060.77
546.99	16712.22
547.35	16391.64
547.70	16102.49
548.05	15779.80
548.41	15457.13
548.76	15168.92
549.12	14878.46
549.47	14592.56
549.83	14326.04
550.18	14020.32
550.53	13700.30
550.89	13427.42
551.24	13166.73
551.60	12868.59
551.95	12614.29
552.30	12376.85
552.66	12133.01
553.01	11868.20
553.37	11604.49
553.72	11332.20
554.07	11070.85
554.43	10791.67
554.78	10522.00
555.13	10276.31
555.49	10048.88
555.84	9854.52
556.19	9666.41
556.55	9470.91
556.90	9279.43
557.26	9079.62
557.61	8853.36
557.96	8612.07
558.32	8406.03
558.67	8202.78
559.02	7982.82
559.37	7801.82
559.73	7652.97
560.08	7501.42
560.43	7345.09
560.79	7227.93
561.14	7075.35
561.49	6904.23
561.85	6735.08
562.20	6581.24
562.55	6432.14
562.90	6301.35
563.26	6187.04
563.61	6087.38
563.96	5987.16
564.32	5870.84
564.67	5752.80
565.02	5634.40
565.37	5511.66
565.73	5393.06
566.08	5290.15
566.43	5190.96
566.78	5074.98
567.14	4966.69
567.49	4863.07
567.84	4756.11
568.19	4650.32
568.54	4568.73
568.90	4479.01
569.25	4393.75
569.60	4318.52
569.95	4245.73
570.31	4167.67
570.66	4094.63
571.01	4003.67
571.36	3912.51
571.71	3829.40
572.06	3760.84
572.42	3696.31
572.77	3649.55
573.12	3595.04
573.47	3542.71
573.82	3480.80
574.18	3409.60
574.53	3339.45
574.88	3284.52
575.23	3226.05
575.58	3175.59
575.93	3136.25
576.28	3090.91
576.64	3036.28
576.99	2986.10
577.34	2928.48
577.69	2868.79
578.04	2814.10
578.39	2768.41
578.74	2719.12
579.09	2678.74
579.44	2641.39
579.80	2608.50
580.15	2565.32
580.50	2530.61
580.85	2490.28
581.20	2455.88
581.55	2424.49
581.90	2397.25
582.25	2366.75
582.60	2334.01
582.95	2297.24
583.30	2256.39
583.65	2218.92
584.00	2182.20
584.35	2152.54
584.71	2122.19
585.06	2091.32
585.41	2062.74
585.76	2032.73
586.11	2010.78
586.46	1990.77
586.81	1972.09
587.16	1950.86
587.51	1934.34
587.86	1912.01
588.21	1890.36
588.56	1866.11
588.91	1845.23
589.26	1823.18
589.61	1803.97
589.96	1786.74
590.31	1772.53
590.66	1759.64
591.01	1746.58
591.36	1732.18
591.71	1711.68
592.06	1695.25
592.41	1681.96
592.76	1665.36
593.10	1647.18
593.45	1636.50
593.80	1624.38
594.15	1607.76
594.50	1593.93
594.85	1583.47
595.20	1568.77
595.55	1555.50
595.90	1545.10
596.25	1534.71
596.60	1522.82
596.95	1511.28
597.30	1499.07
597.64	1541.66
597.99	1535.06
598.34	1525.07
598.69	1517.95
599.04	1512.48
599.39	1449.87
599.74	1436.95
600.09	1431.33
600.44	1423.91
600.78	1412.84
601.13	1407.25
601.48	1404.51
601.83	1394.00
602.18	1383.47
602.53	1376.38
602.88	1365.80
603.22	1352.17
603.57	1346.70
603.92	1343.40
604.27	1338.53
604.62	1335.77
604.97	1337.43
605.31	1326.55
605.66	1318.85
606.01	1315.45
606.36	1308.92
606.71	1296.98
607.05	1298.41
607.40	1295.16
607.75	1288.23
608.10	1284.58
608.44	1283.32
608.79	1276.13
609.14	1271.38
609.49	1267.17
609.84	1265.95
610.18	1262.51
610.53	1262.27
610.88	1256.26
611.23	1252.44
611.57	1246.05
611.92	1242.73
612.27	1238.40
612.62	1239.81
612.96	1238.68
613.31	1234.47
613.66	1231.24
614.00	1232.08
614.35	1228.45
614.70	1222.09
615.05	1217.45
615.39	1213.08
615.74	1205.82
616.09	1199.74
616.43	1199.29
616.78	1195.33
617.13	1196.44
617.47	1192.71
617.82	1191.68
618.17	1189.65
618.51	1191.94
618.86	1187.38
619.21	1182.79
619.55	1179.49
619.90	1174.01
620.25	1170.36
620.59	1168.14
620.94	1169.38
621.29	1169.36
621.63	1170.95
621.98	1169.94
622.32	1170.24
622.67	1165.75
623.02	1162.75
623.36	1160.34
623.71	1156.62
624.05	1151.99
624.40	1150.21
624.75	1148.97
625.09	1148.76
625.44	1148.55
625.78	1147.31
626.13	1150.40
626.48	1151.22
626.82	1147.33
627.17	1148.36
627.51	1146.84
627.86	1146.44
628.20	1142.46
628.55	1143.66
628.89	1144.12
629.24	1143.66
629.58	1139.16
629.93	1137.78
630.28	1136.42
630.62	1132.33
630.97	1130.17
631.31	1129.75
631.66	1131.20
632.00	1131.67
632.35	1128.37
632.69	1130.20
633.04	1129.73
633.38	1129.12
633.73	1123.76
634.07	1122.87
634.42	1120.16
634.76	1116.55
635.11	1117.04
635.45	1121.35
635.79	1119.90
636.14	1119.10
636.48	1118.19
636.83	1116.95
637.17	1114.59
637.52	1115.24
637.86	1114.28
638.21	1113.88
638.55	1112.13
638.89	1111.08
639.24	1111.82
639.58	1113.86
639.93	1116.58
640.27	1116.32
640.61	1115.52
640.96	1114.61
641.30	1111.85
641.65	1111.15
641.99	1110.79
642.33	1108.97
642.68	1106.49
643.02	1106.09
643.37	1104.45
643.71	1106.23
644.05	1107.54
644.40	1108.03
644.74	1107.92
645.08	1108.64
645.43	1106.49
645.77	1106.04
646.11	1109.23
646.46	1109.41
646.80	1107.33
647.14	1102.67
647.49	1100.45
647.83	1096.87
648.17	1095.96
648.52	1097.17
648.86	1100.17
649.20	1101.71
649.55	1101.22
649.89	1104.10
650.23	1103.61
650.57	1100.96
650.92	1100.61
651.26	1104.55
651.60	1100.36
651.95	1100.03
652.29	1103.56
652.63	1104.78
652.97	1102.49
653.32	1103.56
653.66	1103.42
654.00	1103.49
654.34	1099.33
654.69	1099.75
655.03	1100.29
655.37	1100.87
655.71	1097.73
656.05	1099.70
656.40	1099.79
656.74	1101.36
657.08	1101.43
657.42	1102.60
657.76	1100.80
658.11	1096.99
658.45	1094.39
658.79	1090.74
659.13	1091.46
659.47	1094.69
659.82	1095.02
660.16	1096.40
660.50	1099.09
660.84	1096.07
661.18	1096.31
661.52	1099.65
661.87	1098.83
662.21	1100.08
662.55	1102.11
662.89	1098.69
663.23	1097.08
663.57	1094.18
663.91	1094.25
664.25	1094.04
664.60	1094.95
664.94	1094.76
665.28	1097.76
665.62	1095.60
665.96	1095.35
666.30	1096.40
666.64	1096.82
666.98	1098.83
667.32	1099.61
667.66	1098.39
668.01	1098.11
668.35	1098.55
668.69	1094.57
669.03	1093.38
669.37	1095.00
669.71	1093.97
670.05	1090.69
670.39	1094.13
670.73	1094.57
671.07	1092.49
671.41	1093.80
671.75	1094.97
672.09	1090.32
672.43	1090.13
672.77	1091.42
673.11	1088.89
673.45	1089.50
673.79	1090.43
674.13	1090.34
674.47	1092.23
674.81	1091.53
675.15	1091.04
675.49	1092.16
675.83	1089.10
676.17	1088.75
676.51	1091.51
676.85	1092.42
677.19	1090.32
677.53	1091.34
677.87	1088.04
678.21	1089.00
678.55	1088.40
678.89	1091.25
679.23	1092.21
679.57	1095.04
679.90	1092.47
680.24	1094.15
680.58	1094.48
680.92	1096.73
681.26	1095.09
681.60	1091.98
681.94	1089.07
682.28	1086.27
682.62	1083.06
682.96	1084.21
683.29	1084.28
683.63	1083.90
683.97	1084.00
684.31	1082.08
684.65	1082.87
684.99	1085.52
685.33	1086.76
685.67	1087.76
686.00	1090.43
686.34	1086.29
686.68	1086.01
687.02	1083.27
687.36	1084.89
687.70	1085.49
688.03	1084.79
688.37	1085.99
688.71	1088.51
689.05	1086.64
689.39	1086.15
689.72	1088.14
690.06	1090.88
690.40	1091.16
690.74	1088.86
691.08	1090.39
691.41	1091.95
691.75	1088.91
692.09	1089.17
692.43	1089.33
692.76	1088.37
693.10	1091.20
693.44	1095.00
693.78	1093.69
694.11	1095.28
694.45	1095.93
694.79	1093.69
695.13	1091.98
695.46	1092.91
695.80	1093.64
696.14	1092.28
696.48	1092.05
696.81	1091.11
697.15	1090.83
697.49	1090.17
697.82	1087.93
698.16	1090.29
698.50	1089.26
698.83	1088.77
699.17	1089.92
699.51	1092.47
699.84	1091.16
700.18	1093.50
700.52	1094.57
700.85	1094.69
701.19	1097.62
701.53	1096.38
701.86	1094.36
702.20	1094.46
702.54	1090.50
702.87	1089.59
703.21	1087.95
703.55	1084.39
703.88	1083.29
704.22	1085.42
704.55	1082.71
704.89	1081.89
705.23	1086.29
705.56	1087.13
705.90	1089.26
706.23	1093.69
706.57	1097.06
706.91	1095.67
707.24	1096.33
707.58	1095.51
707.91	1093.43
708.25	1091.27
708.58	1094.04
708.92	1091.18
709.26	1090.32
709.59	1086.38
709.93	1086.15
710.26	1082.76
710.60	1084.74
710.93	1085.07
711.27	1089.33
711.60	1089.45
711.94	1091.93
712.27	1091.37
712.61	1091.91
712.94	1090.08
713.28	1091.37
713.61	1093.57
713.95	1095.35
714.28	1096.45
714.62	1097.76
714.95	1101.76
715.29	1097.34
715.62	1095.09
715.96	1092.00
716.29	1089.64
716.63	1083.81
716.96	1083.83
717.29	1084.25
717.63	1087.09
717.96	1090.01
718.30	1091.13
718.63	1089.29
718.97	1089.96
719.30	1087.51
719.63	1086.06
719.97	1088.37
720.30	1088.33
720.64	1087.51
720.97	1085.75
721.30	1084.98
721.64	1083.55
721.97	1086.17
722.31	1087.48
722.64	1090.69
722.97	1089.87
723.31	1091.49
723.64	1089.36
723.97	1088.04
724.31	1085.94
724.64	1085.33
724.98	1082.94
725.31	1084.58
725.64	1084.81
725.98	1086.62
726.31	1088.47
726.64	1090.17
726.97	1090.34
727.31	1089.52
727.64	1091.72
727.97	1092.96
728.31	1092.07
728.64	1089.89
728.97	1091.23
729.31	1089.45
729.64	1089.80
729.97	1092.23
730.30	1095.25
730.64	1095.65
730.97	1095.23
731.30	1093.64
731.63	1091.51
731.97	1087.60
732.30	1087.67
732.63	1085.12
732.96	1087.83
733.30	1085.47
733.63	1087.34
733.96	1086.80
734.29	1089.87
734.63	1089.24
734.96	1089.17
735.29	1091.72
735.62	1091.13
735.95	1090.76
736.29	1087.86
736.62	1088.23
736.95	1086.15
737.28	1088.70
737.61	1088.07
737.94	1091.11
738.28	1089.96
738.61	1087.23
738.94	1083.71
739.27	1081.44
739.60	1079.13
739.93	1081.12
740.27	1082.36
740.60	1080.84
740.93	1081.91
741.26	1082.71
741.59	1083.41
741.92	1084.91
742.25	1086.92
742.58	1089.12
742.91	1084.67
743.25	1085.38
743.58	1089.87
743.91	1091.09
744.24	1090.10
744.57	1094.69
744.90	1093.05
745.23	1087.88
745.56	1090.76
745.89	1089.26
746.22	1086.69
746.55	1089.00
746.88	1088.51
747.21	1083.81
747.54	1082.12
747.87	1085.42
748.20	1083.43
748.53	1087.72
748.87	1091.70
749.20	1096.66
749.53	1092.40
749.86	1092.28
750.19	1089.78
750.52	1086.80
750.85	1082.83
751.18	1086.48
751.51	1089.17
751.84	1088.49
752.16	1088.51
752.49	1088.12
752.82	1086.69
753.15	1085.33
753.48	1085.75
753.81	1087.74
754.14	1092.96
754.47	1092.87
754.80	1095.02
755.13	1096.03
755.46	1091.81
755.79	1088.91
756.12	1091.79
756.45	1089.85
756.78	1089.38
757.11	1093.66
757.43	1090.36
757.76	1088.00
758.09	1084.00
758.42	1085.94
758.75	1086.78
759.08	1089.03
759.41	1088.23
759.74	1090.62
760.07	1088.89
760.39	1085.56
760.72	1086.31
761.05	1086.83
761.38	1087.62
761.71	1086.38
762.04	1087.25
762.36	1088.23
762.69	1090.60
763.02	1090.36
763.35	1091.13
