SpectraSuite Data File
++++++++++++++++++++++++++++++++++++
Date: Mon Aug 26 10:26:45 PDT 2019
User: corrico
Dark Spectrum Present: No
Reference Spectrum Present: No
Number of Sampled Component Spectra: 1
Spectrometers: USB2+H06089
Integration Time (usec): 10000 (USB2+H06089)
Spectra Averaged: 20 (USB2+H06089)
Boxcar Smoothing: 2 (USB2+H06089)
Correct for Electrical Dark: No (USB2+H06089)
Strobe/Lamp Enabled: No (USB2+H06089)
Correct for Detector Non-linearity: No (USB2+H06089)
Correct for Stray Light: No (USB2+H06089)
Number of Pixels in Processed Spectrum: 2048
>>>>>Begin Processed Spectral Data<<<<<
339.70	1038.96
340.07	1038.96
340.45	1002.52
340.82	979.91
341.19	954.73
341.57	927.13
341.94	913.44
342.31	907.07
342.69	898.98
343.06	896.68
343.43	895.61
343.81	899.02
344.18	903.40
344.55	909.65
344.93	914.03
345.30	923.90
345.67	929.22
346.04	933.76
346.42	942.09
346.79	950.75
347.16	957.33
347.54	965.47
347.91	975.58
348.28	985.27
348.65	995.73
349.03	1004.30
349.40	1014.69
349.77	1020.61
350.14	1027.24
350.52	1034.61
350.89	1040.81
351.26	1047.34
351.63	1056.85
352.01	1063.09
352.38	1067.87
352.75	1074.19
353.12	1079.41
353.50	1080.09
353.87	1084.28
354.24	1083.06
354.61	1083.15
354.98	1081.44
355.36	1088.40
355.73	1087.30
356.10	1089.14
356.47	1091.56
356.84	1090.90
357.22	1088.82
357.59	1088.79
357.96	1089.29
358.33	1088.56
358.70	1092.40
359.08	1091.09
359.45	1090.62
359.82	1092.30
360.19	1089.38
360.56	1087.04
360.94	1084.65
361.31	1086.24
361.68	1085.10
362.05	1087.41
362.42	1086.97
362.79	1089.50
363.16	1087.06
363.54	1086.34
363.91	1086.48
364.28	1090.76
364.65	1089.14
365.02	1092.70
365.39	1089.68
365.76	1087.39
366.14	1082.31
366.51	1080.63
366.88	1075.87
367.25	1080.93
367.62	1079.13
367.99	1078.14
368.36	1074.05
368.73	1075.99
369.10	1071.33
369.48	1073.32
369.85	1069.79
370.22	1072.48
370.59	1073.02
370.96	1075.43
371.33	1072.67
371.70	1074.63
372.07	1075.71
372.44	1074.38
372.81	1070.40
373.18	1071.78
373.55	1074.91
373.93	1074.38
374.30	1074.63
374.67	1077.77
375.04	1079.97
375.41	1077.23
375.78	1078.33
376.15	1078.33
376.52	1079.27
376.89	1079.83
377.26	1083.90
377.63	1083.64
378.00	1086.43
378.37	1085.82
378.74	1086.01
379.11	1084.98
379.48	1084.74
379.85	1082.33
380.22	1083.46
380.59	1082.90
380.96	1081.98
381.33	1083.81
381.70	1083.57
382.07	1084.65
382.44	1086.69
382.81	1086.48
383.18	1084.81
383.55	1084.91
383.92	1082.38
384.29	1081.63
384.66	1081.12
385.03	1084.16
385.40	1085.87
385.77	1087.06
386.14	1088.35
386.51	1087.39
386.88	1083.79
387.25	1084.18
387.62	1084.42
387.99	1082.61
388.36	1088.37
388.73	1091.56
389.10	1089.87
389.46	1089.47
389.83	1088.84
390.20	1084.70
390.57	1081.87
390.94	1083.71
391.31	1081.82
391.68	1082.38
392.05	1083.69
392.42	1083.79
392.79	1078.89
393.16	1079.08
393.53	1079.20
393.89	1078.87
394.26	1082.36
394.63	1084.98
395.00	1087.09
395.37	1085.38
395.74	1087.02
396.11	1086.62
396.48	1087.95
396.84	1089.52
397.21	1091.91
397.58	1093.87
397.95	1092.05
398.32	1092.94
398.69	1091.58
399.06	1093.12
399.42	1093.26
399.79	1098.02
400.16	1094.90
400.53	1096.85
400.90	1091.18
401.27	1089.26
401.64	1083.90
402.00	1084.89
402.37	1083.41
402.74	1085.14
403.11	1081.66
403.48	1086.52
403.84	1087.83
404.21	1089.61
404.58	1094.50
404.95	1094.50
405.32	1088.96
405.68	1088.96
406.05	1086.87
406.42	1085.68
406.79	1089.66
407.16	1091.88
407.52	1093.57
407.89	1095.32
408.26	1097.62
408.63	1097.85
408.99	1098.69
409.36	1097.13
409.73	1097.24
410.10	1091.56
410.47	1091.93
410.83	1093.78
411.20	1096.31
411.57	1100.24
411.94	1101.95
412.30	1103.54
412.67	1103.63
413.04	1102.23
413.40	1097.59
413.77	1103.28
414.14	1103.87
414.51	1105.55
414.87	1105.83
415.24	1108.69
415.61	1103.45
415.97	1103.49
416.34	1104.17
416.71	1104.15
417.08	1104.15
417.44	1111.22
417.81	1110.87
418.18	1110.98
418.54	1115.01
418.91	1111.87
419.28	1104.99
419.64	1104.59
420.01	1103.12
420.38	1100.89
420.74	1102.98
421.11	1108.43
421.48	1110.91
421.84	1110.56
422.21	1113.07
422.58	1113.16
422.94	1108.31
423.31	1105.27
423.68	1108.24
424.04	1103.87
424.41	1104.80
424.77	1105.51
425.14	1106.46
425.51	1102.77
425.87	1103.40
426.24	1102.23
426.61	1107.61
426.97	1108.97
427.34	1111.92
427.70	1115.94
428.07	1118.47
428.44	1117.68
428.80	1112.53
429.17	1111.68
429.53	1110.89
429.90	1110.82
430.27	1108.88
430.63	1114.07
431.00	1115.15
431.36	1115.27
431.73	1115.85
432.09	1114.26
432.46	1114.70
432.83	1111.15
433.19	1111.66
433.56	1111.97
433.92	1112.06
434.29	1112.60
434.65	1118.38
435.02	1116.32
435.38	1114.28
435.75	1115.92
436.11	1114.89
436.48	1114.17
436.84	1114.00
437.21	1113.77
437.57	1115.31
437.94	1115.90
438.30	1118.57
438.67	1117.96
439.03	1120.25
439.40	1119.50
439.76	1118.57
440.13	1114.19
440.49	1117.58
440.86	1115.64
441.22	1111.15
441.59	1111.85
441.95	1109.86
442.32	1107.68
442.68	1108.06
443.05	1110.51
443.41	1109.48
443.78	1109.30
444.14	1109.77
444.51	1110.89
444.87	1110.82
445.24	1111.92
445.60	1114.89
445.96	1115.50
446.33	1113.23
446.69	1112.83
447.06	1112.25
447.42	1109.02
447.79	1106.96
448.15	1104.78
448.51	1105.60
448.88	1106.82
449.24	1106.65
449.61	1107.82
449.97	1111.80
450.33	1109.11
450.70	1107.12
451.06	1106.96
451.43	1106.79
451.79	1105.97
452.15	1107.45
452.52	1110.02
452.88	1112.48
453.24	1113.91
453.61	1116.01
453.97	1117.18
454.34	1115.71
454.70	1117.04
455.06	1116.32
455.43	1114.42
455.79	1117.09
456.15	1115.38
456.52	1110.96
456.88	1112.08
457.24	1109.02
457.61	1104.55
457.97	1104.90
458.33	1107.45
458.70	1106.72
459.06	1112.04
459.42	1113.74
459.79	1113.93
460.15	1113.18
460.51	1111.03
460.88	1106.58
461.24	1107.68
461.60	1107.52
461.96	1107.75
462.33	1110.05
462.69	1112.15
463.05	1114.68
463.42	1117.89
463.78	1119.78
464.14	1120.67
464.50	1124.00
464.87	1123.41
465.23	1124.56
465.59	1126.20
465.95	1123.53
466.32	1121.49
466.68	1123.22
467.04	1121.40
467.40	1120.67
467.77	1127.72
468.13	1132.82
468.49	1134.43
468.85	1136.54
469.22	1138.67
469.58	1135.60
469.94	1136.33
470.30	1139.14
470.66	1142.88
471.03	1144.36
471.39	1149.62
471.75	1152.55
472.11	1153.28
472.47	1153.44
472.84	1155.69
473.20	1156.95
473.56	1158.38
473.92	1160.91
474.28	1164.11
474.65	1168.07
475.01	1172.63
475.37	1173.57
475.73	1174.15
476.09	1178.20
476.45	1181.83
476.81	1185.36
477.18	1191.24
477.54	1199.38
477.90	1205.94
478.26	1212.47
478.62	1219.09
478.98	1224.52
479.34	1231.17
479.71	1234.89
480.07	1243.04
480.43	1250.71
480.79	1260.68
481.15	1267.82
481.51	1282.40
481.87	1293.99
482.23	1305.06
482.59	1319.13
482.96	1333.31
483.32	1344.97
483.68	1358.63
484.04	1376.70
484.40	1386.58
484.76	1405.68
485.12	1424.19
485.48	1440.08
485.84	1456.42
486.20	1483.74
486.56	1508.03
486.92	1530.57
487.28	1556.69
487.64	1580.00
488.00	1609.21
488.37	1636.57
488.73	1670.89
489.09	1704.78
489.45	1743.54
489.81	1771.65
490.17	1811.25
490.53	1846.38
490.89	1888.51
491.25	1931.64
491.61	1981.59
491.97	2020.98
492.33	2073.43
492.69	2123.73
493.05	2174.26
493.41	2232.82
493.77	2297.05
494.13	2359.85
494.49	2428.52
494.85	2499.15
495.21	2572.69
495.57	2653.14
495.93	2734.49
496.29	2817.75
496.64	2909.61
497.00	2999.07
497.36	3099.62
497.72	3198.39
498.08	3305.84
498.44	3419.38
498.80	3542.26
499.16	3668.27
499.52	3809.20
499.88	3957.99
500.24	4113.44
500.60	4266.77
500.96	4422.91
501.32	4591.29
501.68	4758.75
502.03	4941.20
502.39	5146.98
502.75	5364.44
503.11	5587.75
503.47	5817.87
503.83	6051.31
504.19	6297.21
504.55	6559.28
504.91	6833.40
505.26	7118.22
505.62	7417.04
505.98	7731.26
506.34	8057.58
506.70	8411.09
507.06	8782.09
507.42	9183.79
507.78	9583.86
508.13	9988.73
508.49	10414.94
508.85	10868.04
509.21	11333.37
509.57	11844.28
509.93	12390.16
510.28	12951.17
510.64	13549.34
511.00	14147.27
511.36	14719.28
511.72	15299.64
512.07	15937.64
512.43	16533.17
512.79	17192.87
513.15	17919.84
513.51	18664.46
513.86	19408.26
514.22	20260.43
514.58	21063.30
514.94	21885.32
515.30	22725.97
515.65	23523.74
516.01	24335.23
516.37	25181.14
516.73	25943.20
517.08	26790.40
517.44	27613.62
517.80	28400.20
518.16	29224.91
518.51	30029.26
518.87	30755.81
519.23	31609.87
519.59	32465.38
519.94	33279.94
520.30	34171.75
520.66	34941.32
521.01	35718.07
521.37	36394.23
521.73	37000.29
522.09	37577.16
522.44	38220.48
522.80	38642.64
523.16	38998.03
523.51	39253.50
523.87	39553.65
524.23	39814.64
524.58	40077.02
524.94	40456.82
525.30	40809.07
525.65	40985.00
526.01	41033.76
526.37	41035.84
526.72	40966.93
527.08	40836.73
527.44	40650.96
527.79	40468.54
528.15	40325.21
528.51	40063.37
528.86	39836.22
529.22	39600.20
529.58	39366.48
529.93	39010.34
530.29	38595.22
530.65	38234.52
531.00	37890.42
531.36	37429.92
531.71	36970.26
532.07	36528.69
532.43	35955.54
532.78	35314.63
533.14	34762.88
533.49	34198.53
533.85	33590.50
534.21	32972.65
534.56	32411.43
534.92	31834.49
535.27	31221.90
535.63	30595.08
535.98	29989.40
536.34	29353.62
536.69	28706.23
537.05	28108.31
537.41	27605.59
537.76	27122.55
538.12	26605.38
538.47	26118.58
538.83	25672.21
539.18	25187.68
539.54	24704.38
539.89	24236.93
540.25	23724.16
540.60	23243.02
540.96	22754.71
541.31	22279.89
541.67	21871.60
542.02	21502.29
542.38	21085.07
542.73	20651.76
543.09	20277.25
543.44	19918.29
543.80	19569.55
544.15	19178.72
544.51	18873.26
544.86	18557.12
545.22	18198.95
545.57	17829.62
545.93	17483.64
546.28	17164.53
546.64	16833.69
546.99	16505.79
547.35	16187.45
547.70	15891.30
548.05	15579.12
548.41	15283.77
548.76	14989.35
549.12	14699.36
549.47	14423.69
549.83	14156.00
550.18	13831.21
550.53	13495.76
550.89	13211.62
551.24	12946.67
551.60	12650.55
551.95	12407.32
552.30	12196.81
552.66	11965.90
553.01	11714.69
553.37	11445.13
553.72	11175.66
554.07	10907.46
554.43	10621.61
554.78	10348.63
555.13	10104.42
555.49	9892.74
555.84	9711.66
556.19	9531.20
556.55	9333.35
556.90	9146.42
557.26	8936.02
557.61	8700.52
557.96	8464.69
558.32	8269.39
558.67	8073.26
559.02	7863.80
559.37	7691.56
559.73	7542.84
560.08	7385.16
560.43	7236.87
560.79	7109.92
561.14	6960.14
561.49	6800.85
561.85	6652.57
562.20	6503.60
562.55	6374.24
562.90	6255.39
563.26	6141.10
563.61	6019.60
563.96	5913.06
564.32	5789.85
564.67	5658.97
565.02	5542.01
565.37	5434.07
565.73	5319.27
566.08	5221.34
566.43	5115.17
566.78	5006.29
567.14	4901.55
567.49	4794.17
567.84	4688.47
568.19	4588.71
568.54	4509.00
568.90	4426.68
569.25	4352.48
569.60	4280.11
569.95	4210.76
570.31	4126.95
570.66	4052.17
571.01	3965.55
571.36	3874.17
571.71	3801.05
572.06	3731.80
572.42	3671.76
572.77	3624.86
573.12	3574.44
573.47	3509.89
573.82	3452.83
574.18	3382.07
574.53	3316.87
574.88	3261.47
575.23	3210.93
575.58	3157.66
575.93	3108.89
576.28	3051.73
576.64	2997.45
576.99	2943.13
577.34	2894.14
577.69	2841.46
578.04	2788.89
578.39	2740.88
578.74	2700.84
579.09	2656.04
579.44	2616.70
579.80	2584.16
580.15	2541.40
580.50	2506.41
580.85	2472.80
581.20	2440.24
581.55	2410.40
581.90	2384.26
582.25	2351.54
582.60	2316.71
582.95	2281.58
583.30	2242.40
583.65	2207.66
584.00	2173.14
584.35	2144.52
584.71	2109.57
585.06	2085.00
585.41	2058.88
585.76	2034.86
586.11	2008.25
586.46	1991.77
586.81	1968.74
587.16	1946.27
587.51	1923.52
587.86	1902.48
588.21	1881.42
588.56	1863.30
588.91	1841.44
589.26	1821.83
589.61	1804.53
589.96	1785.71
590.31	1764.44
590.66	1751.07
591.01	1732.82
591.36	1717.79
591.71	1702.55
592.06	1689.73
592.41	1674.63
592.76	1661.83
593.10	1645.35
593.45	1628.26
593.80	1610.50
594.15	1590.93
594.50	1576.37
594.85	1561.11
595.20	1553.86
595.55	1544.92
595.90	1542.72
596.25	1534.13
596.60	1526.66
596.95	1511.21
597.30	1499.51
597.64	1535.25
597.99	1527.27
598.34	1517.72
598.69	1510.42
599.04	1504.12
599.39	1444.88
599.74	1434.42
600.09	1424.85
600.44	1416.19
600.78	1404.91
601.13	1399.97
601.48	1393.70
601.83	1387.17
602.18	1383.44
602.53	1381.41
602.88	1371.37
603.22	1363.39
603.57	1359.64
603.92	1350.89
604.27	1344.47
604.62	1340.82
604.97	1333.68
605.31	1324.49
605.66	1321.16
606.01	1311.92
606.36	1305.83
606.71	1301.74
607.05	1295.14
607.40	1286.87
607.75	1284.67
608.10	1281.96
608.44	1275.76
608.79	1274.40
609.14	1271.73
609.49	1263.98
609.84	1260.05
610.18	1260.47
610.53	1257.50
610.88	1255.49
611.23	1255.07
611.57	1252.23
611.92	1246.69
612.27	1243.92
612.62	1239.03
612.96	1236.79
613.31	1232.95
613.66	1231.17
614.00	1228.73
614.35	1223.98
614.70	1219.54
615.05	1215.79
615.39	1211.65
615.74	1205.52
616.09	1202.45
616.43	1200.37
616.78	1195.03
617.13	1191.85
617.47	1187.12
617.82	1186.89
618.17	1184.43
618.51	1182.46
618.86	1181.78
619.21	1183.05
619.55	1180.71
619.90	1178.18
620.25	1177.94
620.59	1176.40
620.94	1173.43
621.29	1170.60
621.63	1168.93
621.98	1166.50
622.32	1164.16
622.67	1160.60
623.02	1162.61
623.36	1161.37
623.71	1163.06
624.05	1157.63
624.40	1158.07
624.75	1152.43
625.09	1149.86
625.44	1145.36
625.78	1145.95
626.13	1145.43
626.48	1146.04
626.82	1141.43
627.17	1141.97
627.51	1140.26
627.86	1137.36
628.20	1133.69
628.55	1135.93
628.89	1132.30
629.24	1133.03
629.58	1134.08
629.93	1132.35
630.28	1131.20
630.62	1131.20
630.97	1130.67
631.31	1126.99
631.66	1127.88
632.00	1126.85
632.35	1124.44
632.69	1122.85
633.04	1122.10
633.38	1122.50
633.73	1122.80
634.07	1123.97
634.42	1125.14
634.76	1126.92
635.11	1123.64
635.45	1121.96
635.79	1120.77
636.14	1119.24
636.48	1115.41
636.83	1114.73
637.17	1113.67
637.52	1114.00
637.86	1111.68
638.21	1112.22
638.55	1114.24
638.89	1115.50
639.24	1112.01
639.58	1113.25
639.93	1114.87
640.27	1113.11
640.61	1110.09
640.96	1113.02
641.30	1109.67
641.65	1107.52
641.99	1108.08
642.33	1107.42
642.68	1106.04
643.02	1106.09
643.37	1104.31
643.71	1101.27
644.05	1102.67
644.40	1103.47
644.74	1102.42
645.08	1102.49
645.43	1103.87
645.77	1103.91
646.11	1098.90
646.46	1101.53
646.80	1103.23
647.14	1105.25
647.49	1102.65
647.83	1104.05
648.17	1104.24
648.52	1102.28
648.86	1100.40
649.20	1101.69
649.55	1105.81
649.89	1103.40
650.23	1100.17
650.57	1095.67
650.92	1094.18
651.26	1090.15
651.60	1092.75
651.95	1097.99
652.29	1102.60
652.63	1102.56
652.97	1102.09
653.32	1097.88
653.66	1095.14
654.00	1095.02
654.34	1094.06
654.69	1092.26
655.03	1090.71
655.37	1091.88
655.71	1092.16
656.05	1093.83
656.40	1096.89
656.74	1097.34
657.08	1097.13
657.42	1092.84
657.76	1092.98
658.11	1090.15
658.45	1093.90
658.79	1094.25
659.13	1097.36
659.47	1096.49
659.82	1097.13
660.16	1094.76
660.50	1094.57
660.84	1094.67
661.18	1093.17
661.52	1094.08
661.87	1095.16
662.21	1092.56
662.55	1091.67
662.89	1092.00
663.23	1092.66
663.57	1093.38
663.91	1095.89
664.25	1094.48
664.60	1096.42
664.94	1097.17
665.28	1095.07
665.62	1094.95
665.96	1097.03
666.30	1095.49
666.64	1091.44
666.98	1090.24
667.32	1088.86
667.66	1086.66
668.01	1086.83
668.35	1089.33
668.69	1091.98
669.03	1092.14
669.37	1090.27
669.71	1091.84
670.05	1090.76
670.39	1086.97
670.73	1089.59
671.07	1092.77
671.41	1091.04
671.75	1090.99
672.09	1095.16
672.43	1093.29
672.77	1095.28
673.11	1097.85
673.45	1098.86
673.79	1094.67
674.13	1092.94
674.47	1091.65
674.81	1088.70
675.15	1089.50
675.49	1095.21
675.83	1095.14
676.17	1091.65
676.51	1092.82
676.85	1088.54
677.19	1086.03
677.53	1087.51
677.87	1089.40
678.21	1089.40
678.55	1090.83
678.89	1090.34
679.23	1089.33
679.57	1087.95
679.90	1085.99
680.24	1088.98
680.58	1088.61
680.92	1090.24
681.26	1092.12
681.60	1094.95
681.94	1092.56
682.28	1092.02
682.62	1089.99
682.96	1091.11
683.29	1089.75
683.63	1091.18
683.97	1091.39
684.31	1092.75
684.65	1088.91
684.99	1086.10
685.33	1085.10
685.67	1087.44
686.00	1088.86
686.34	1091.32
686.68	1092.91
687.02	1093.43
687.36	1092.98
687.70	1093.71
688.03	1093.31
688.37	1093.40
688.71	1093.78
689.05	1093.03
689.39	1091.04
689.72	1091.39
690.06	1094.32
690.40	1095.21
690.74	1093.17
691.08	1089.64
691.41	1088.84
691.75	1084.37
692.09	1083.04
692.43	1084.14
692.76	1087.83
693.10	1088.96
693.44	1088.86
693.78	1086.03
694.11	1085.49
694.45	1084.30
694.79	1084.91
695.13	1088.75
695.46	1089.71
695.80	1087.34
696.14	1086.78
696.48	1087.06
696.81	1084.14
697.15	1084.28
697.49	1090.08
697.82	1087.11
698.16	1086.80
698.50	1088.00
698.83	1087.76
699.17	1085.05
699.51	1088.79
699.84	1089.82
700.18	1088.98
700.52	1090.01
700.85	1091.13
701.19	1089.07
701.53	1084.18
701.86	1083.64
702.20	1082.40
702.54	1079.62
702.87	1082.45
703.21	1081.02
703.55	1079.62
703.88	1081.96
704.22	1084.91
704.55	1082.45
704.89	1085.17
705.23	1086.24
705.56	1085.19
705.90	1084.67
706.23	1084.86
706.57	1086.29
706.91	1085.03
707.24	1081.49
707.58	1078.26
707.91	1080.04
708.25	1080.91
708.58	1082.97
708.92	1088.07
709.26	1092.12
709.59	1095.25
709.93	1095.25
710.26	1097.29
710.60	1094.69
710.93	1092.96
711.27	1086.66
711.60	1085.68
711.94	1081.61
712.27	1080.18
712.61	1077.44
712.94	1079.62
713.28	1077.11
713.61	1079.62
713.95	1082.33
714.28	1082.76
714.62	1081.89
714.95	1083.97
715.29	1085.45
715.62	1087.16
715.96	1091.18
716.29	1094.36
716.63	1095.63
716.96	1094.13
717.29	1091.93
717.63	1086.83
717.96	1086.10
718.30	1085.73
718.63	1087.39
718.97	1091.11
719.30	1094.95
719.63	1095.72
719.97	1093.76
720.30	1093.29
720.64	1090.92
720.97	1086.52
721.30	1086.48
721.64	1088.63
721.97	1086.27
722.31	1085.17
722.64	1086.87
722.97	1088.61
723.31	1087.11
723.64	1088.21
723.97	1089.61
724.31	1092.19
724.64	1090.34
724.98	1090.62
725.31	1091.91
725.64	1088.30
725.98	1084.63
726.31	1082.24
726.64	1081.58
726.97	1076.95
727.31	1080.27
727.64	1083.93
727.97	1082.76
728.31	1085.05
728.64	1085.75
728.97	1081.02
729.31	1079.15
729.64	1080.77
729.97	1079.83
730.30	1084.74
730.64	1086.24
730.97	1087.53
731.30	1089.24
731.63	1086.99
731.97	1085.00
732.30	1085.00
732.63	1087.09
732.96	1085.05
733.30	1088.33
733.63	1089.45
733.96	1092.70
734.29	1091.49
734.63	1091.27
734.96	1090.50
735.29	1090.46
735.62	1090.22
735.95	1091.63
736.29	1093.22
736.62	1094.93
736.95	1092.42
737.28	1091.86
737.61	1090.10
737.94	1089.87
738.28	1086.90
738.61	1087.60
738.94	1088.58
739.27	1088.63
739.60	1089.80
739.93	1089.45
740.27	1089.10
740.60	1087.60
740.93	1087.23
741.26	1087.06
741.59	1087.04
741.92	1089.40
742.25	1087.30
742.58	1087.27
742.91	1087.13
743.25	1087.34
743.58	1086.29
743.91	1089.19
744.24	1088.09
744.57	1085.54
744.90	1088.21
745.23	1088.98
745.56	1090.32
745.89	1093.40
746.22	1098.02
746.55	1098.34
746.88	1097.52
747.21	1094.27
747.54	1091.27
747.87	1086.06
748.20	1085.40
748.53	1086.31
748.87	1085.05
749.20	1085.40
749.53	1084.35
749.86	1082.40
750.19	1080.13
750.52	1083.27
750.85	1081.02
751.18	1085.14
751.51	1087.51
751.84	1088.70
752.16	1089.26
752.49	1093.90
752.82	1091.51
753.15	1088.37
753.48	1085.12
753.81	1086.10
754.14	1084.46
754.47	1085.77
754.80	1086.90
755.13	1089.52
755.46	1090.50
755.79	1091.25
756.12	1091.95
756.45	1089.38
756.78	1088.82
757.11	1086.15
757.43	1086.87
757.76	1084.77
758.09	1088.63
758.42	1088.47
758.75	1091.98
759.08	1090.15
759.41	1092.56
759.74	1090.60
760.07	1092.07
760.39	1087.81
760.72	1086.71
761.05	1084.44
761.38	1083.43
761.71	1083.53
762.04	1083.53
762.36	1082.05
762.69	1083.50
763.02	1086.36
763.35	1085.05
