SpectraSuite Data File
++++++++++++++++++++++++++++++++++++
Date: Mon Aug 26 10:26:58 PDT 2019
User: corrico
Dark Spectrum Present: No
Reference Spectrum Present: No
Number of Sampled Component Spectra: 1
Spectrometers: USB2+H06089
Integration Time (usec): 10000 (USB2+H06089)
Spectra Averaged: 20 (USB2+H06089)
Boxcar Smoothing: 2 (USB2+H06089)
Correct for Electrical Dark: No (USB2+H06089)
Strobe/Lamp Enabled: No (USB2+H06089)
Correct for Detector Non-linearity: No (USB2+H06089)
Correct for Stray Light: No (USB2+H06089)
Number of Pixels in Processed Spectrum: 2048
>>>>>Begin Processed Spectral Data<<<<<
339.70	1033.00
340.07	1033.00
340.45	996.39
340.82	977.57
341.19	949.93
341.57	925.64
341.94	918.68
342.31	909.63
342.69	904.17
343.06	903.68
343.43	901.06
343.81	899.02
344.18	901.41
344.55	902.81
344.93	909.04
345.30	914.73
345.67	923.32
346.04	931.91
346.42	941.41
346.79	951.90
347.16	960.35
347.54	968.58
347.91	976.17
348.28	984.29
348.65	989.88
349.03	1002.05
349.40	1008.40
349.77	1020.01
350.14	1025.88
350.52	1035.22
350.89	1038.00
351.26	1045.21
351.63	1050.55
352.01	1056.82
352.38	1060.05
352.75	1067.45
353.12	1074.00
353.50	1078.14
353.87	1078.31
354.24	1080.72
354.61	1081.54
354.98	1080.91
355.36	1080.02
355.73	1085.07
356.10	1084.81
356.47	1081.40
356.84	1080.48
357.22	1076.76
357.59	1072.18
357.96	1071.12
358.33	1070.68
358.70	1069.95
359.08	1070.42
359.45	1070.35
359.82	1072.32
360.19	1077.00
360.56	1078.94
360.94	1079.41
361.31	1082.12
361.68	1080.81
362.05	1077.11
362.42	1074.07
362.79	1072.41
363.16	1071.10
363.54	1070.75
363.91	1071.80
364.28	1072.78
364.65	1076.18
365.02	1074.35
365.39	1072.11
365.76	1069.39
366.14	1066.49
366.51	1063.96
366.88	1062.30
367.25	1063.70
367.62	1066.00
367.99	1068.78
368.36	1067.45
368.73	1068.83
369.10	1068.64
369.48	1068.31
369.85	1069.37
370.22	1069.60
370.59	1068.59
370.96	1069.06
371.33	1068.57
371.70	1066.56
372.07	1069.30
372.44	1070.80
372.81	1071.15
373.18	1071.36
373.55	1073.18
373.93	1072.95
374.30	1070.98
374.67	1070.49
375.04	1069.23
375.41	1068.31
375.78	1067.05
376.15	1068.31
376.52	1067.94
376.89	1067.80
377.26	1064.90
377.63	1063.80
378.00	1063.09
378.37	1062.04
378.74	1060.45
379.11	1064.34
379.48	1064.78
379.85	1069.95
380.22	1069.58
380.59	1071.17
380.96	1070.68
381.33	1072.29
381.70	1071.31
382.07	1073.25
382.44	1072.67
382.81	1068.92
383.18	1070.94
383.55	1070.63
383.92	1071.31
384.29	1076.60
384.66	1080.88
385.03	1079.13
385.40	1077.14
385.77	1077.63
386.14	1075.76
386.51	1074.70
386.88	1074.17
387.25	1071.85
387.62	1070.02
387.99	1070.82
388.36	1070.47
388.73	1073.18
389.10	1077.30
389.46	1076.06
389.83	1073.35
390.20	1076.72
390.57	1073.44
390.94	1073.18
391.31	1074.59
391.68	1076.60
392.05	1075.69
392.42	1072.27
392.79	1070.65
393.16	1069.98
393.53	1067.47
393.89	1064.05
394.26	1070.28
394.63	1070.19
395.00	1072.64
395.37	1072.92
395.74	1073.02
396.11	1070.82
396.48	1070.54
396.84	1069.93
397.21	1072.83
397.58	1076.18
397.95	1076.11
398.32	1077.82
398.69	1079.43
399.06	1079.34
399.42	1074.52
399.79	1073.81
400.16	1073.09
400.53	1069.25
400.90	1069.84
401.27	1075.94
401.64	1077.98
402.00	1079.99
402.37	1081.00
402.74	1081.02
403.11	1078.94
403.48	1077.70
403.84	1075.83
404.21	1080.18
404.58	1077.49
404.95	1077.77
405.32	1075.73
405.68	1076.67
406.05	1074.45
406.42	1076.58
406.79	1076.97
407.16	1078.19
407.52	1079.01
407.89	1079.24
408.26	1079.10
408.63	1076.81
408.99	1079.62
409.36	1076.18
409.73	1071.87
410.10	1072.53
410.47	1073.25
410.83	1074.42
411.20	1075.78
411.57	1077.54
411.94	1075.97
412.30	1076.25
412.67	1074.28
413.04	1074.80
413.40	1073.86
413.77	1073.16
414.14	1075.01
414.51	1075.71
414.87	1075.85
415.24	1077.63
415.61	1078.66
415.97	1079.69
416.34	1077.44
416.71	1078.57
417.08	1078.89
417.44	1076.97
417.81	1074.75
418.18	1074.68
418.54	1073.67
418.91	1074.45
419.28	1077.47
419.64	1078.45
420.01	1082.47
420.38	1082.26
420.74	1082.76
421.11	1082.66
421.48	1081.87
421.84	1079.60
422.21	1079.55
422.58	1080.32
422.94	1078.36
423.31	1078.52
423.68	1077.14
424.04	1076.32
424.41	1074.10
424.77	1075.90
425.14	1074.49
425.51	1076.95
425.87	1079.34
426.24	1080.88
426.61	1080.74
426.97	1084.58
427.34	1083.08
427.70	1082.08
428.07	1079.76
428.44	1080.02
428.80	1080.18
429.17	1078.24
429.53	1078.54
429.90	1080.72
430.27	1078.75
430.63	1077.51
431.00	1078.47
431.36	1081.28
431.73	1081.91
432.09	1084.37
432.46	1085.94
432.83	1087.83
433.19	1085.07
433.56	1083.67
433.92	1081.14
434.29	1077.93
434.65	1075.24
435.02	1074.94
435.38	1077.93
435.75	1080.41
436.11	1081.16
436.48	1084.14
436.84	1086.10
437.21	1085.03
437.57	1083.55
437.94	1082.36
438.30	1078.75
438.67	1078.00
439.03	1076.69
439.40	1076.79
439.76	1078.14
440.13	1080.25
440.49	1079.08
440.86	1079.88
441.22	1080.11
441.59	1081.75
441.95	1078.64
442.32	1080.91
442.68	1077.14
443.05	1075.48
443.41	1073.18
443.78	1080.70
444.14	1080.53
444.51	1081.77
444.87	1083.62
445.24	1080.39
445.60	1077.54
445.96	1077.82
446.33	1079.76
446.69	1080.56
447.06	1084.39
447.42	1081.16
447.79	1080.06
448.15	1080.37
448.51	1079.48
448.88	1077.96
449.24	1076.41
449.61	1076.65
449.97	1073.88
450.33	1073.07
450.70	1072.08
451.06	1074.00
451.43	1073.32
451.79	1077.61
452.15	1078.45
452.52	1080.20
452.88	1083.08
453.24	1081.82
453.61	1080.11
453.97	1080.32
454.34	1082.45
454.70	1080.51
455.06	1081.89
455.43	1081.37
455.79	1081.75
456.15	1080.30
456.52	1080.91
456.88	1082.78
457.24	1081.12
457.61	1079.24
457.97	1078.66
458.33	1079.50
458.70	1076.93
459.06	1081.77
459.42	1083.90
459.79	1084.11
460.15	1081.89
460.51	1081.40
460.88	1076.37
461.24	1076.48
461.60	1077.23
461.96	1077.93
462.33	1079.53
462.69	1082.36
463.05	1079.67
463.42	1082.64
463.78	1082.08
464.14	1080.23
464.50	1078.92
464.87	1078.78
465.23	1073.58
465.59	1074.82
465.95	1076.13
466.32	1075.59
466.68	1077.16
467.04	1075.66
467.40	1077.07
467.77	1075.27
468.13	1077.00
468.49	1075.48
468.85	1077.70
469.22	1077.75
469.58	1079.24
469.94	1077.33
470.30	1078.19
470.66	1080.88
471.03	1080.65
471.39	1078.50
471.75	1079.64
472.11	1081.63
472.47	1081.61
472.84	1079.48
473.20	1079.38
473.56	1077.63
473.92	1076.60
474.28	1072.36
474.65	1073.18
475.01	1073.28
475.37	1077.68
475.73	1076.95
476.09	1080.06
476.45	1082.83
476.81	1085.56
477.18	1082.66
477.54	1084.32
477.90	1084.60
478.26	1082.94
478.62	1080.77
478.98	1082.97
479.34	1080.32
479.71	1077.82
480.07	1078.17
480.43	1079.08
480.79	1079.43
481.15	1081.89
481.51	1082.38
481.87	1078.26
482.23	1081.49
482.59	1079.06
482.96	1081.75
483.32	1082.12
483.68	1082.43
484.04	1079.85
484.40	1080.91
484.76	1078.03
485.12	1081.14
485.48	1081.98
485.84	1082.12
486.20	1080.41
486.56	1077.23
486.92	1073.91
487.28	1076.74
487.64	1077.84
488.00	1077.49
488.37	1078.33
488.73	1080.34
489.09	1082.10
489.45	1079.17
489.81	1080.34
490.17	1082.94
490.53	1083.25
490.89	1077.25
491.25	1077.28
491.61	1078.61
491.97	1077.65
492.33	1075.41
492.69	1075.55
493.05	1076.62
493.41	1077.21
493.77	1077.33
494.13	1079.88
494.49	1081.00
494.85	1082.36
495.21	1079.15
495.57	1078.10
495.93	1076.88
496.29	1076.27
496.64	1074.10
497.00	1076.41
497.36	1078.21
497.72	1077.65
498.08	1081.98
498.44	1082.66
498.80	1082.92
499.16	1084.16
499.52	1084.93
499.88	1085.33
500.24	1085.99
500.60	1088.12
500.96	1089.89
501.32	1087.95
501.68	1086.62
502.03	1087.16
502.39	1085.14
502.75	1080.67
503.11	1084.23
503.47	1083.46
503.83	1082.76
504.19	1081.96
504.55	1082.69
504.91	1082.64
505.26	1080.84
505.62	1079.46
505.98	1080.48
506.34	1080.41
506.70	1075.85
507.06	1079.90
507.42	1079.48
507.78	1075.45
508.13	1075.64
508.49	1080.04
508.85	1077.02
509.21	1080.18
509.57	1081.87
509.93	1081.77
510.28	1077.37
510.64	1076.83
511.00	1074.49
511.36	1075.94
511.72	1075.83
512.07	1078.92
512.43	1080.48
512.79	1083.32
513.15	1081.58
513.51	1083.93
513.86	1084.18
514.22	1084.18
514.58	1084.60
514.94	1084.60
515.30	1080.95
515.65	1081.58
516.01	1079.74
516.37	1079.67
516.73	1080.20
517.08	1082.83
517.44	1082.90
517.80	1083.81
518.16	1082.47
518.51	1084.30
518.87	1085.38
519.23	1086.20
519.59	1087.37
519.94	1089.17
520.30	1087.16
520.66	1086.20
521.01	1084.89
521.37	1087.27
521.73	1084.77
522.09	1086.92
522.44	1084.16
522.80	1087.16
523.16	1086.52
523.51	1085.45
523.87	1082.71
524.23	1086.22
524.58	1081.70
524.94	1079.67
525.30	1081.28
525.65	1083.81
526.01	1080.32
526.37	1081.51
526.72	1082.47
527.08	1083.08
527.44	1082.03
527.79	1085.87
528.15	1081.33
528.51	1082.54
528.86	1081.96
529.22	1081.61
529.58	1077.79
529.93	1082.80
530.29	1080.06
530.65	1078.75
531.00	1078.47
531.36	1079.34
531.71	1080.67
532.07	1082.10
532.43	1081.23
532.78	1080.88
533.14	1086.76
533.49	1083.39
533.85	1083.88
534.21	1086.01
534.56	1087.09
534.92	1084.56
535.27	1085.54
535.63	1083.86
535.98	1081.26
536.34	1079.24
536.69	1075.10
537.05	1073.49
537.41	1075.03
537.76	1076.30
538.12	1077.42
538.47	1078.19
538.83	1082.64
539.18	1082.40
539.54	1083.69
539.89	1086.80
540.25	1085.87
540.60	1082.22
540.96	1080.98
541.31	1080.95
541.67	1079.31
542.02	1083.93
542.38	1084.72
542.73	1087.20
543.09	1089.89
543.44	1090.67
543.80	1089.00
544.15	1088.82
544.51	1085.03
544.86	1081.51
545.22	1082.12
545.57	1080.65
545.93	1082.94
546.28	1086.08
546.64	1087.81
546.99	1089.64
547.35	1091.53
547.70	1090.90
548.05	1088.14
548.41	1085.59
548.76	1082.76
549.12	1079.62
549.47	1078.07
549.83	1078.50
550.18	1081.40
550.53	1081.33
550.89	1080.91
551.24	1082.38
551.60	1086.48
551.95	1084.79
552.30	1081.47
552.66	1083.48
553.01	1085.70
553.37	1083.29
553.72	1081.73
554.07	1084.16
554.43	1085.42
554.78	1081.40
555.13	1082.47
555.49	1084.37
555.84	1084.32
556.19	1083.71
556.55	1083.60
556.90	1082.92
557.26	1085.84
557.61	1085.31
557.96	1082.90
558.32	1083.64
558.67	1084.30
559.02	1080.09
559.37	1081.28
559.73	1082.43
560.08	1082.24
560.43	1078.59
560.79	1079.17
561.14	1083.93
561.49	1086.59
561.85	1086.69
562.20	1088.91
562.55	1089.94
562.90	1080.34
563.26	1076.44
563.61	1078.71
563.96	1078.92
564.32	1077.47
564.67	1083.29
565.02	1085.03
565.37	1082.36
565.73	1081.51
566.08	1082.64
566.43	1079.85
566.78	1080.06
567.14	1083.34
567.49	1083.15
567.84	1083.95
568.19	1084.37
568.54	1083.55
568.90	1080.25
569.25	1082.05
569.60	1079.22
569.95	1078.45
570.31	1077.98
570.66	1079.62
571.01	1079.20
571.36	1082.64
571.71	1086.29
572.06	1085.73
572.42	1084.63
572.77	1080.18
573.12	1080.27
573.47	1079.76
573.82	1083.15
574.18	1082.10
574.53	1086.64
574.88	1081.73
575.23	1080.18
575.58	1075.76
575.93	1074.12
576.28	1070.96
576.64	1074.28
576.99	1075.97
577.34	1080.06
577.69	1081.96
578.04	1084.53
578.39	1086.15
578.74	1086.45
579.09	1086.99
579.44	1086.99
579.80	1087.86
580.15	1085.47
580.50	1085.91
580.85	1084.37
581.20	1086.73
581.55	1084.89
581.90	1088.35
582.25	1087.18
582.60	1085.84
582.95	1083.67
583.30	1085.07
583.65	1081.19
584.00	1082.03
584.35	1081.44
584.71	1081.07
585.06	1078.68
585.41	1078.17
585.76	1080.44
586.11	1085.33
586.46	1083.71
586.81	1086.15
587.16	1087.90
587.51	1086.43
587.86	1082.19
588.21	1085.77
588.56	1086.29
588.91	1084.14
589.26	1085.89
589.61	1087.44
589.96	1088.47
590.31	1087.09
590.66	1090.95
591.01	1087.02
591.36	1086.92
591.71	1084.18
592.06	1086.76
592.41	1086.06
592.76	1086.52
593.10	1086.50
593.45	1085.52
593.80	1082.29
594.15	1082.33
594.50	1087.79
594.85	1088.21
595.20	1088.56
595.55	1089.94
595.90	1090.92
596.25	1088.44
596.60	1086.55
596.95	1088.82
597.30	1086.45
597.64	1134.48
597.99	1136.05
598.34	1134.69
598.69	1134.88
599.04	1136.54
599.39	1082.24
599.74	1077.54
600.09	1081.33
600.44	1081.42
600.78	1082.15
601.13	1085.63
601.48	1084.07
601.83	1082.10
602.18	1078.59
602.53	1075.80
602.88	1077.07
603.22	1080.41
603.57	1082.52
603.92	1087.20
604.27	1089.52
604.62	1085.56
604.97	1082.50
605.31	1079.53
605.66	1079.60
606.01	1078.85
606.36	1083.11
606.71	1084.37
607.05	1085.26
607.40	1081.98
607.75	1084.16
608.10	1082.22
608.44	1082.61
608.79	1087.20
609.14	1088.19
609.49	1091.42
609.84	1095.93
610.18	1097.34
610.53	1098.76
610.88	1100.59
611.23	1097.99
611.57	1097.59
611.92	1096.56
612.27	1096.19
612.62	1097.13
612.96	1096.68
613.31	1094.36
613.66	1090.95
614.00	1084.42
614.35	1083.48
614.70	1084.18
615.05	1085.96
615.39	1088.68
615.74	1091.46
616.09	1090.13
616.43	1089.54
616.78	1088.16
617.13	1087.81
617.47	1086.85
617.82	1085.94
618.17	1083.08
618.51	1081.66
618.86	1085.89
619.21	1087.97
619.55	1089.94
619.90	1091.30
620.25	1094.11
620.59	1090.39
620.94	1089.03
621.29	1088.26
621.63	1089.71
621.98	1089.10
622.32	1088.86
622.67	1087.58
623.02	1085.42
623.36	1085.77
623.71	1086.57
624.05	1088.98
624.40	1091.72
624.75	1093.90
625.09	1092.47
625.44	1093.64
625.78	1092.33
626.13	1088.42
626.48	1086.76
626.82	1086.87
627.17	1084.98
627.51	1082.71
627.86	1086.13
628.20	1090.01
628.55	1089.92
628.89	1086.97
629.24	1086.92
629.58	1084.09
629.93	1079.34
630.28	1078.36
630.62	1080.18
630.97	1079.10
631.31	1078.40
631.66	1080.11
632.00	1079.03
632.35	1078.10
632.69	1081.66
633.04	1084.77
633.38	1083.39
633.73	1083.29
634.07	1085.68
634.42	1085.91
634.76	1083.97
635.11	1086.85
635.45	1091.04
635.79	1089.80
636.14	1088.23
636.48	1088.56
636.83	1086.15
637.17	1080.77
637.52	1079.76
637.86	1080.51
638.21	1082.15
638.55	1083.88
638.89	1086.27
639.24	1086.29
639.58	1086.57
639.93	1086.73
640.27	1083.88
640.61	1083.86
640.96	1083.27
641.30	1080.60
641.65	1078.71
641.99	1082.05
642.33	1081.68
642.68	1080.95
643.02	1081.26
643.37	1080.77
643.71	1079.03
644.05	1079.50
644.40	1083.08
644.74	1085.40
645.08	1083.71
645.43	1083.34
645.77	1080.93
646.11	1076.65
646.46	1073.35
646.80	1075.17
647.14	1076.55
647.49	1080.02
647.83	1083.71
648.17	1086.03
648.52	1085.75
648.86	1085.52
649.20	1085.99
649.55	1085.96
649.89	1085.84
650.23	1085.38
650.57	1082.59
650.92	1079.27
651.26	1079.34
651.60	1079.55
651.95	1078.33
652.29	1080.77
652.63	1080.67
652.97	1079.29
653.32	1080.63
653.66	1083.15
654.00	1082.38
654.34	1088.49
654.69	1085.87
655.03	1083.86
655.37	1083.81
655.71	1083.01
656.05	1078.43
656.40	1078.78
656.74	1078.45
657.08	1077.25
657.42	1075.80
657.76	1074.19
658.11	1076.18
658.45	1074.94
658.79	1075.36
659.13	1076.51
659.47	1079.95
659.82	1078.59
660.16	1078.00
660.50	1077.28
660.84	1075.62
661.18	1075.80
661.52	1076.18
661.87	1078.75
662.21	1077.82
662.55	1081.73
662.89	1080.60
663.23	1083.41
663.57	1083.20
663.91	1088.58
664.25	1088.77
664.60	1087.53
664.94	1085.99
665.28	1088.33
665.62	1085.40
665.96	1086.78
666.30	1087.39
666.64	1086.48
666.98	1083.04
667.32	1082.40
667.66	1082.76
668.01	1080.70
668.35	1078.59
668.69	1079.24
669.03	1078.64
669.37	1078.07
669.71	1078.80
670.05	1081.56
670.39	1084.63
670.73	1084.79
671.07	1082.85
671.41	1083.81
671.75	1084.49
672.09	1082.50
672.43	1084.39
672.77	1083.79
673.11	1084.79
673.45	1084.39
673.79	1082.26
674.13	1078.85
674.47	1078.00
674.81	1075.85
675.15	1076.32
675.49	1077.25
675.83	1082.17
676.17	1084.07
676.51	1088.61
676.85	1085.96
677.19	1085.42
677.53	1081.80
677.87	1080.60
678.21	1078.80
678.55	1080.37
678.89	1079.57
679.23	1079.92
679.57	1079.67
679.90	1077.84
680.24	1077.84
680.58	1077.98
680.92	1077.00
681.26	1078.43
681.60	1078.47
681.94	1080.18
682.28	1081.51
682.62	1084.35
682.96	1084.11
683.29	1086.41
683.63	1081.26
683.97	1082.38
684.31	1080.67
684.65	1084.02
684.99	1084.81
685.33	1090.34
685.67	1088.63
686.00	1090.64
686.34	1083.50
686.68	1080.06
687.02	1077.61
687.36	1080.53
687.70	1082.64
688.03	1083.50
688.37	1083.97
688.71	1085.40
689.05	1083.06
689.39	1076.95
689.72	1077.11
690.06	1076.37
690.40	1073.23
690.74	1075.36
691.08	1078.96
691.41	1082.40
691.75	1083.71
692.09	1085.56
692.43	1083.25
692.76	1083.95
693.10	1081.96
693.44	1082.17
693.78	1082.83
694.11	1083.57
694.45	1080.34
694.79	1081.87
695.13	1079.71
695.46	1078.07
695.80	1079.48
696.14	1079.29
696.48	1078.57
696.81	1077.77
697.15	1077.09
697.49	1077.51
697.82	1079.06
698.16	1079.31
698.50	1083.46
698.83	1085.52
699.17	1082.87
699.51	1084.72
699.84	1083.36
700.18	1082.66
700.52	1080.32
700.85	1079.83
701.19	1078.05
701.53	1077.63
701.86	1077.82
702.20	1081.94
702.54	1083.57
702.87	1084.49
703.21	1086.03
703.55	1087.51
703.88	1084.93
704.22	1084.14
704.55	1083.86
704.89	1082.29
705.23	1077.93
705.56	1078.64
705.90	1082.26
706.23	1082.57
706.57	1084.18
706.91	1085.59
707.24	1086.59
707.58	1085.96
707.91	1086.99
708.25	1088.82
708.58	1087.51
708.92	1085.59
709.26	1081.91
709.59	1080.13
709.93	1079.20
710.26	1079.48
710.60	1076.58
710.93	1075.92
711.27	1076.20
711.60	1072.88
711.94	1072.62
712.27	1076.55
712.61	1074.52
712.94	1074.52
713.28	1075.34
713.61	1077.37
713.95	1077.72
714.28	1081.73
714.62	1081.23
714.95	1083.22
715.29	1085.00
715.62	1084.46
715.96	1082.26
716.29	1082.92
716.63	1083.90
716.96	1083.93
717.29	1084.11
717.63	1086.38
717.96	1083.88
718.30	1084.09
718.63	1083.48
718.97	1078.57
719.30	1077.54
719.63	1079.43
719.97	1076.23
720.30	1076.83
720.64	1081.23
720.97	1084.28
721.30	1088.26
721.64	1092.30
721.97	1091.65
722.31	1091.60
722.64	1087.76
722.97	1083.67
723.31	1081.21
723.64	1080.13
723.97	1079.67
724.31	1078.59
724.64	1077.47
724.98	1078.50
725.31	1075.24
725.64	1075.97
725.98	1077.37
726.31	1077.70
726.64	1076.95
726.97	1077.68
727.31	1077.61
727.64	1078.05
727.97	1077.21
728.31	1076.18
728.64	1077.75
728.97	1077.23
729.31	1079.27
729.64	1080.79
729.97	1080.51
730.30	1080.04
730.64	1081.51
730.97	1078.00
731.30	1077.40
731.63	1080.91
731.97	1082.76
732.30	1079.57
732.63	1082.45
732.96	1083.13
733.30	1080.98
733.63	1079.03
733.96	1079.78
734.29	1077.07
734.63	1076.44
734.96	1075.45
735.29	1077.14
735.62	1078.45
735.95	1079.85
736.29	1080.88
736.62	1082.01
736.95	1081.63
737.28	1078.87
737.61	1077.84
737.94	1076.60
738.28	1074.45
738.61	1076.88
738.94	1078.99
739.27	1080.70
739.60	1082.66
739.93	1083.55
740.27	1080.91
740.60	1080.91
740.93	1079.97
741.26	1079.43
741.59	1077.79
741.92	1076.20
742.25	1076.30
742.58	1074.38
742.91	1076.90
743.25	1080.09
743.58	1080.30
743.91	1079.99
744.24	1081.05
744.57	1079.01
744.90	1077.23
745.23	1080.37
745.56	1082.33
745.89	1085.10
746.22	1083.81
746.55	1085.28
746.88	1081.54
747.21	1081.35
747.54	1078.05
747.87	1077.89
748.20	1078.78
748.53	1082.05
748.87	1080.79
749.20	1083.25
749.53	1080.06
749.86	1078.38
750.19	1077.49
750.52	1078.17
750.85	1075.92
751.18	1079.10
751.51	1080.11
751.84	1079.22
752.16	1080.63
752.49	1081.05
752.82	1079.83
753.15	1078.38
753.48	1078.50
753.81	1079.20
754.14	1078.36
754.47	1079.99
754.80	1081.09
755.13	1079.53
755.46	1075.87
755.79	1081.21
756.12	1083.25
756.45	1082.87
756.78	1084.56
757.11	1086.03
757.43	1083.06
757.76	1083.53
758.09	1085.68
758.42	1087.81
758.75	1088.07
759.08	1086.66
759.41	1085.56
759.74	1086.55
760.07	1084.46
760.39	1084.56
760.72	1086.06
761.05	1084.81
761.38	1082.22
761.71	1083.64
762.04	1085.66
762.36	1085.19
762.69	1086.43
763.02	1086.38
763.35	1082.33
763.68	1077.44
764.01	1078.54
764.33	1078.45
764.66	1077.65
764.99	1078.96
765.32	1080.72
765.65	1079.31
765.97	1074.40
766.30	1075.20
