SpectraSuite Data File
++++++++++++++++++++++++++++++++++++
Date: Mon Aug 26 10:27:01 PDT 2019
User: corrico
Dark Spectrum Present: No
Reference Spectrum Present: No
Number of Sampled Component Spectra: 1
Spectrometers: USB2+H06089
Integration Time (usec): 10000 (USB2+H06089)
Spectra Averaged: 20 (USB2+H06089)
Boxcar Smoothing: 2 (USB2+H06089)
Correct for Electrical Dark: No (USB2+H06089)
Strobe/Lamp Enabled: No (USB2+H06089)
Correct for Detector Non-linearity: No (USB2+H06089)
Correct for Stray Light: No (USB2+H06089)
Number of Pixels in Processed Spectrum: 2048
>>>>>Begin Processed Spectral Data<<<<<
339.70	1044.58
340.07	1044.58
340.45	1005.82
340.82	981.32
341.19	957.33
341.57	931.81
341.94	923.43
342.31	912.01
342.69	907.85
343.06	904.80
343.43	901.29
343.81	899.58
344.18	903.94
344.55	909.34
344.93	912.41
345.30	920.35
345.67	927.65
346.04	938.41
346.42	945.48
346.79	955.27
347.16	964.58
347.54	974.86
347.91	982.09
348.28	990.30
348.65	997.51
349.03	1004.67
349.40	1011.91
349.77	1020.40
350.14	1027.00
350.52	1033.18
350.89	1036.41
351.26	1040.63
351.63	1045.59
352.01	1050.15
352.38	1054.86
352.75	1059.72
353.12	1064.41
353.50	1068.43
353.87	1069.06
354.24	1072.13
354.61	1074.68
354.98	1075.80
355.36	1074.52
355.73	1075.76
356.10	1075.36
356.47	1076.53
356.84	1077.02
357.22	1078.10
357.59	1078.99
357.96	1078.99
358.33	1076.25
358.70	1076.11
359.08	1077.82
359.45	1076.25
359.82	1077.35
360.19	1078.21
360.56	1077.47
360.94	1078.17
361.31	1077.07
361.68	1079.67
362.05	1081.02
362.42	1078.40
362.79	1075.50
363.16	1076.37
363.54	1070.14
363.91	1068.03
364.28	1072.11
364.65	1073.09
365.02	1076.37
365.39	1075.20
365.76	1076.11
366.14	1074.82
366.51	1074.66
366.88	1072.60
367.25	1074.96
367.62	1074.77
367.99	1072.39
368.36	1070.82
368.73	1070.63
369.10	1070.98
369.48	1070.82
369.85	1072.62
370.22	1071.33
370.59	1070.80
370.96	1070.80
371.33	1072.55
371.70	1073.72
372.07	1072.04
372.44	1074.31
372.81	1073.11
373.18	1070.84
373.55	1068.85
373.93	1071.17
374.30	1070.96
374.67	1069.53
375.04	1069.18
375.41	1071.31
375.78	1071.54
376.15	1071.94
376.52	1073.39
376.89	1078.64
377.26	1077.98
377.63	1081.00
378.00	1078.45
378.37	1078.05
378.74	1075.69
379.11	1073.86
379.48	1071.59
379.85	1071.94
380.22	1071.59
380.59	1069.72
380.96	1069.91
381.33	1068.43
381.70	1067.38
382.07	1068.62
382.44	1066.65
382.81	1066.04
383.18	1067.64
383.55	1067.47
383.92	1067.82
384.29	1071.78
384.66	1075.57
385.03	1076.90
385.40	1082.24
385.77	1082.57
386.14	1081.73
386.51	1075.64
386.88	1073.35
387.25	1068.22
387.62	1066.61
387.99	1063.80
388.36	1069.41
388.73	1070.37
389.10	1074.40
389.46	1075.36
389.83	1080.06
390.20	1078.82
390.57	1076.62
390.94	1073.18
391.31	1073.23
391.68	1071.26
392.05	1071.12
392.42	1073.07
392.79	1072.67
393.16	1075.05
393.53	1074.12
393.89	1074.28
394.26	1073.37
394.63	1072.64
395.00	1070.42
395.37	1070.47
395.74	1069.98
396.11	1070.82
396.48	1074.07
396.84	1078.19
397.21	1078.68
397.58	1076.86
397.95	1074.73
398.32	1071.33
398.69	1068.62
399.06	1066.63
399.42	1066.16
399.79	1068.13
400.16	1068.10
400.53	1067.57
400.90	1068.81
401.27	1068.22
401.64	1069.67
402.00	1072.90
402.37	1074.03
402.74	1075.05
403.11	1078.85
403.48	1076.86
403.84	1076.69
404.21	1075.03
404.58	1073.77
404.95	1075.94
405.32	1075.24
405.68	1076.41
406.05	1076.15
406.42	1078.45
406.79	1078.57
407.16	1080.11
407.52	1081.19
407.89	1081.84
408.26	1083.08
408.63	1080.13
408.99	1078.12
409.36	1073.88
409.73	1074.17
410.10	1070.68
410.47	1073.04
410.83	1074.12
411.20	1077.98
411.57	1078.40
411.94	1078.94
412.30	1076.08
412.67	1075.64
413.04	1076.23
413.40	1078.17
413.77	1079.15
414.14	1080.72
414.51	1079.20
414.87	1077.07
415.24	1075.27
415.61	1074.70
415.97	1072.81
416.34	1075.05
416.71	1074.21
417.08	1073.93
417.44	1074.59
417.81	1075.64
418.18	1078.68
418.54	1078.38
418.91	1079.43
419.28	1077.70
419.64	1078.43
420.01	1078.59
420.38	1081.70
420.74	1079.88
421.11	1078.24
421.48	1078.66
421.84	1073.93
422.21	1075.45
422.58	1076.48
422.94	1082.08
423.31	1078.33
423.68	1080.72
424.04	1077.77
424.41	1079.15
424.77	1077.30
425.14	1081.44
425.51	1084.42
425.87	1083.95
426.24	1082.57
426.61	1083.39
426.97	1084.65
427.34	1083.60
427.70	1084.37
428.07	1084.30
428.44	1085.68
428.80	1083.11
429.17	1082.38
429.53	1082.43
429.90	1082.59
430.27	1080.11
430.63	1083.69
431.00	1082.85
431.36	1082.85
431.73	1082.90
432.09	1079.81
432.46	1075.55
432.83	1074.47
433.19	1072.25
433.56	1074.14
433.92	1078.24
434.29	1080.39
434.65	1082.87
435.02	1083.81
435.38	1081.80
435.75	1080.34
436.11	1077.89
436.48	1077.77
436.84	1079.24
437.21	1077.56
437.57	1080.67
437.94	1084.86
438.30	1084.02
438.67	1085.14
439.03	1089.29
439.40	1085.91
439.76	1082.71
440.13	1085.61
440.49	1086.01
440.86	1084.84
441.22	1084.49
441.59	1084.91
441.95	1078.54
442.32	1075.50
442.68	1073.65
443.05	1075.94
443.41	1077.84
443.78	1080.04
444.14	1080.84
444.51	1080.56
444.87	1080.25
445.24	1079.78
445.60	1079.06
445.96	1079.67
446.33	1084.18
446.69	1085.21
447.06	1083.74
447.42	1087.46
447.79	1086.52
448.15	1081.75
448.51	1079.83
448.88	1079.74
449.24	1077.44
449.61	1077.54
449.97	1077.40
450.33	1077.65
450.70	1075.45
451.06	1078.36
451.43	1081.19
451.79	1081.02
452.15	1083.13
452.52	1083.60
452.88	1080.88
453.24	1078.78
453.61	1081.00
453.97	1080.98
454.34	1084.16
454.70	1083.57
455.06	1083.86
455.43	1084.23
455.79	1081.89
456.15	1079.31
456.52	1082.85
456.88	1080.41
457.24	1081.28
457.61	1078.54
457.97	1082.92
458.33	1080.77
458.70	1081.98
459.06	1077.86
459.42	1078.43
459.79	1073.00
460.15	1071.94
460.51	1072.62
460.88	1076.23
461.24	1078.43
461.60	1080.53
461.96	1080.86
462.33	1078.96
462.69	1077.16
463.05	1078.59
463.42	1077.65
463.78	1074.84
464.14	1076.15
464.50	1077.65
464.87	1076.48
465.23	1080.81
465.59	1081.14
465.95	1084.04
466.32	1086.31
466.68	1088.70
467.04	1084.93
467.40	1087.69
467.77	1082.59
468.13	1080.84
468.49	1079.41
468.85	1081.63
469.22	1082.22
469.58	1086.90
469.94	1083.62
470.30	1080.25
470.66	1079.64
471.03	1082.12
471.39	1081.26
471.75	1081.82
472.11	1082.45
472.47	1080.72
472.84	1077.86
473.20	1075.71
473.56	1078.71
473.92	1081.80
474.28	1084.65
474.65	1085.49
475.01	1085.26
475.37	1081.09
475.73	1081.77
476.09	1081.42
476.45	1078.26
476.81	1080.56
477.18	1080.04
477.54	1079.48
477.90	1078.54
478.26	1080.39
478.62	1078.28
478.98	1080.37
479.34	1082.29
479.71	1083.13
480.07	1083.34
480.43	1086.17
480.79	1084.25
481.15	1080.25
481.51	1077.07
481.87	1075.69
482.23	1074.94
482.59	1080.23
482.96	1080.16
483.32	1080.16
483.68	1079.53
484.04	1078.61
484.40	1077.86
484.76	1079.01
485.12	1082.15
485.48	1083.97
485.84	1084.23
486.20	1082.10
486.56	1083.15
486.92	1082.31
487.28	1083.50
487.64	1086.36
488.00	1084.91
488.37	1084.65
488.73	1083.74
489.09	1081.49
489.45	1077.93
489.81	1081.37
490.17	1082.45
490.53	1083.18
490.89	1082.76
491.25	1083.22
491.61	1083.67
491.97	1083.79
492.33	1081.09
492.69	1085.05
493.05	1084.02
493.41	1082.29
493.77	1080.63
494.13	1083.62
494.49	1082.38
494.85	1084.16
495.21	1084.32
495.57	1084.14
495.93	1084.84
496.29	1086.38
496.64	1087.88
497.00	1087.20
497.36	1090.03
497.72	1090.43
498.08	1089.33
498.44	1087.06
498.80	1091.49
499.16	1088.21
499.52	1086.94
499.88	1086.52
500.24	1085.73
500.60	1082.03
500.96	1082.80
501.32	1082.43
501.68	1084.04
502.03	1088.84
502.39	1087.69
502.75	1087.37
503.11	1090.22
503.47	1086.66
503.83	1079.78
504.19	1077.70
504.55	1074.49
504.91	1071.64
505.26	1073.18
505.62	1074.61
505.98	1079.41
506.34	1084.30
506.70	1085.91
507.06	1085.14
507.42	1085.38
507.78	1084.21
508.13	1082.78
508.49	1081.09
508.85	1082.26
509.21	1081.87
509.57	1079.62
509.93	1078.85
510.28	1076.18
510.64	1074.94
511.00	1073.79
511.36	1071.47
511.72	1070.30
512.07	1071.50
512.43	1069.67
512.79	1071.36
513.15	1074.87
513.51	1078.07
513.86	1082.05
514.22	1086.17
514.58	1088.82
514.94	1090.15
515.30	1090.22
515.65	1088.82
516.01	1084.70
516.37	1083.62
516.73	1083.22
517.08	1078.28
517.44	1077.65
517.80	1079.46
518.16	1077.75
518.51	1078.96
518.87	1080.13
519.23	1077.65
519.59	1077.40
519.94	1077.61
520.30	1077.18
520.66	1076.86
521.01	1079.76
521.37	1082.08
521.73	1083.46
522.09	1080.77
522.44	1085.49
522.80	1086.01
523.16	1082.22
523.51	1083.74
523.87	1085.77
524.23	1087.06
524.58	1088.44
524.94	1091.11
525.30	1090.34
525.65	1090.57
526.01	1084.72
526.37	1077.16
526.72	1076.95
527.08	1075.83
527.44	1072.95
527.79	1074.73
528.15	1079.27
528.51	1078.40
528.86	1079.71
529.22	1080.27
529.58	1082.43
529.93	1084.16
530.29	1082.38
530.65	1079.95
531.00	1080.16
531.36	1078.31
531.71	1076.62
532.07	1078.07
532.43	1079.36
532.78	1082.57
533.14	1083.22
533.49	1083.18
533.85	1088.68
534.21	1086.87
534.56	1087.20
534.92	1088.02
535.27	1088.26
535.63	1086.17
535.98	1088.86
536.34	1086.34
536.69	1085.77
537.05	1087.86
537.41	1085.21
537.76	1084.79
538.12	1084.53
538.47	1086.41
538.83	1083.27
539.18	1085.82
539.54	1087.34
539.89	1089.57
540.25	1087.02
540.60	1089.47
540.96	1088.47
541.31	1087.58
541.67	1087.90
542.02	1088.37
542.38	1085.87
542.73	1086.03
543.09	1087.30
543.44	1087.58
543.80	1088.72
544.15	1094.81
544.51	1097.71
544.86	1096.35
545.22	1096.31
545.57	1093.31
545.93	1087.88
546.28	1082.76
546.64	1083.27
546.99	1082.17
547.35	1084.18
547.70	1082.76
548.05	1088.26
548.41	1088.14
548.76	1088.40
549.12	1088.49
549.47	1090.62
549.83	1084.51
550.18	1083.25
550.53	1081.70
550.89	1080.27
551.24	1078.59
551.60	1081.14
551.95	1080.18
552.30	1078.92
552.66	1079.97
553.01	1080.91
553.37	1079.13
553.72	1079.41
554.07	1083.34
554.43	1085.05
554.78	1086.10
555.13	1088.04
555.49	1085.28
555.84	1080.58
556.19	1075.87
556.55	1075.66
556.90	1074.61
557.26	1080.44
557.61	1083.93
557.96	1083.83
558.32	1084.28
558.67	1084.28
559.02	1083.15
559.37	1083.64
559.73	1086.22
560.08	1084.11
560.43	1084.72
560.79	1082.71
561.14	1082.97
561.49	1085.42
561.85	1088.16
562.20	1089.59
562.55	1094.27
562.90	1092.05
563.26	1088.89
563.61	1086.80
563.96	1085.82
564.32	1077.84
564.67	1077.77
565.02	1077.42
565.37	1078.43
565.73	1075.43
566.08	1079.78
566.43	1079.22
566.78	1083.20
567.14	1081.16
567.49	1083.53
567.84	1082.19
568.19	1084.16
568.54	1082.47
568.90	1083.55
569.25	1082.24
569.60	1082.90
569.95	1082.92
570.31	1082.80
570.66	1083.25
571.01	1084.89
571.36	1084.98
571.71	1084.96
572.06	1080.98
572.42	1079.06
572.77	1079.41
573.12	1080.27
573.47	1078.26
573.82	1081.00
574.18	1081.66
574.53	1081.89
574.88	1080.86
575.23	1083.36
575.58	1084.02
575.93	1085.59
576.28	1082.40
576.64	1081.54
576.99	1078.47
577.34	1079.78
577.69	1079.43
578.04	1081.58
578.39	1083.11
578.74	1084.53
579.09	1082.94
579.44	1085.00
579.80	1084.42
580.15	1082.17
580.50	1082.47
580.85	1084.02
581.20	1080.32
581.55	1080.13
581.90	1081.16
582.25	1082.50
582.60	1080.88
582.95	1083.43
583.30	1087.16
583.65	1090.32
584.00	1092.40
584.35	1091.65
584.71	1090.10
585.06	1086.01
585.41	1085.31
585.76	1085.14
586.11	1088.09
586.46	1089.59
586.81	1091.63
587.16	1091.86
587.51	1090.10
587.86	1090.41
588.21	1091.74
588.56	1089.31
588.91	1087.62
589.26	1087.20
589.61	1083.53
589.96	1083.79
590.31	1081.89
590.66	1083.83
591.01	1083.22
591.36	1083.53
591.71	1079.22
592.06	1084.51
592.41	1083.18
592.76	1083.29
593.10	1083.15
593.45	1087.58
593.80	1085.68
594.15	1086.50
594.50	1087.67
594.85	1088.42
595.20	1084.98
595.55	1084.00
595.90	1083.13
596.25	1083.11
596.60	1083.01
596.95	1084.84
597.30	1087.62
597.64	1139.70
597.99	1142.49
598.34	1144.92
598.69	1144.78
599.04	1146.30
599.39	1094.32
599.74	1091.81
600.09	1090.78
600.44	1091.77
600.78	1090.46
601.13	1092.42
601.48	1090.13
601.83	1089.43
602.18	1090.92
602.53	1087.93
602.88	1088.12
603.22	1089.29
603.57	1090.67
603.92	1087.16
604.27	1086.94
604.62	1084.93
604.97	1083.13
605.31	1079.38
605.66	1081.70
606.01	1082.73
606.36	1081.49
606.71	1081.51
607.05	1084.39
607.40	1087.02
607.75	1089.50
608.10	1093.26
608.44	1097.36
608.79	1096.85
609.14	1094.46
609.49	1093.43
609.84	1095.04
610.18	1099.07
610.53	1106.91
610.88	1110.12
611.23	1112.62
611.57	1111.75
611.92	1108.24
612.27	1103.56
612.62	1099.42
612.96	1097.59
613.31	1096.42
613.66	1096.68
614.00	1092.94
614.35	1096.52
614.70	1095.65
615.05	1094.57
615.39	1093.26
615.74	1093.55
616.09	1091.63
616.43	1090.62
616.78	1088.65
617.13	1083.93
617.47	1085.28
617.82	1083.32
618.17	1082.24
618.51	1083.29
618.86	1084.86
619.21	1083.55
619.55	1083.06
619.90	1085.21
620.25	1087.62
620.59	1090.17
620.94	1092.45
621.29	1094.27
621.63	1093.47
621.98	1090.20
622.32	1087.25
622.67	1087.09
623.02	1087.83
623.36	1088.23
623.71	1090.20
624.05	1092.30
624.40	1091.39
624.75	1089.31
625.09	1089.99
625.44	1090.32
625.78	1089.19
626.13	1092.80
626.48	1093.92
626.82	1093.40
627.17	1092.26
627.51	1094.93
627.86	1091.46
628.20	1087.67
628.55	1085.73
628.89	1086.15
629.24	1082.50
629.58	1083.55
629.93	1087.76
630.28	1087.86
630.62	1088.21
630.97	1090.03
631.31	1091.58
631.66	1092.33
632.00	1097.08
632.35	1096.56
632.69	1095.04
633.04	1092.63
633.38	1091.18
633.73	1087.23
634.07	1087.88
634.42	1089.87
634.76	1088.23
635.11	1087.69
635.45	1087.86
635.79	1087.32
636.14	1086.57
636.48	1086.76
636.83	1085.82
637.17	1086.80
637.52	1084.56
637.86	1087.09
638.21	1084.46
638.55	1082.45
638.89	1083.43
639.24	1082.47
639.58	1080.44
639.93	1083.15
640.27	1086.20
640.61	1081.70
640.96	1084.72
641.30	1083.32
641.65	1084.65
641.99	1083.88
642.33	1086.66
642.68	1086.55
643.02	1086.36
643.37	1082.71
643.71	1082.90
644.05	1082.01
644.40	1078.99
644.74	1080.84
645.08	1082.69
645.43	1083.81
645.77	1082.78
646.11	1085.19
646.46	1083.69
646.80	1081.12
647.14	1079.95
647.49	1079.71
647.83	1079.29
648.17	1079.85
648.52	1084.79
648.86	1080.93
649.20	1084.21
649.55	1084.00
649.89	1084.21
650.23	1083.88
650.57	1090.22
650.92	1089.64
651.26	1090.97
651.60	1089.78
651.95	1087.44
652.29	1084.28
652.63	1084.11
652.97	1084.14
653.32	1086.71
653.66	1084.81
654.00	1084.74
654.34	1085.61
654.69	1085.42
655.03	1082.57
655.37	1083.41
655.71	1085.33
656.05	1083.83
656.40	1082.26
656.74	1081.09
657.08	1084.89
657.42	1084.53
657.76	1084.89
658.11	1085.38
658.45	1088.09
658.79	1085.59
659.13	1086.59
659.47	1085.66
659.82	1086.94
660.16	1087.32
660.50	1089.45
660.84	1086.71
661.18	1088.33
661.52	1089.52
661.87	1087.32
662.21	1088.40
662.55	1089.43
662.89	1088.79
663.23	1087.30
663.57	1084.86
663.91	1080.04
664.25	1079.50
664.60	1076.39
664.94	1074.77
665.28	1078.80
665.62	1082.80
665.96	1083.11
666.30	1084.53
666.64	1085.73
666.98	1085.49
667.32	1082.54
667.66	1082.57
668.01	1082.47
668.35	1082.01
668.69	1081.30
669.03	1080.81
669.37	1081.98
669.71	1082.92
670.05	1082.73
670.39	1079.92
670.73	1082.47
671.07	1081.49
671.41	1083.32
671.75	1087.16
672.09	1089.43
672.43	1089.54
672.77	1085.49
673.11	1081.89
673.45	1076.55
673.79	1077.91
674.13	1076.11
674.47	1079.90
674.81	1079.69
675.15	1080.18
675.49	1081.47
675.83	1082.78
676.17	1084.56
676.51	1084.72
676.85	1088.51
677.19	1084.14
677.53	1082.61
677.87	1079.46
678.21	1082.59
678.55	1078.71
678.89	1081.77
679.23	1082.54
679.57	1082.59
679.90	1080.09
680.24	1081.42
680.58	1081.28
680.92	1079.20
681.26	1078.50
681.60	1079.92
681.94	1078.36
682.28	1072.88
682.62	1073.46
682.96	1076.86
683.29	1076.90
683.63	1080.95
683.97	1083.60
684.31	1082.12
684.65	1078.28
684.99	1075.99
685.33	1073.91
685.67	1076.46
686.00	1078.82
686.34	1081.44
686.68	1082.38
687.02	1080.39
687.36	1077.77
687.70	1077.72
688.03	1078.68
688.37	1079.36
688.71	1081.37
689.05	1082.45
689.39	1081.58
689.72	1082.40
690.06	1080.70
690.40	1079.36
690.74	1081.28
691.08	1082.59
691.41	1078.00
691.75	1080.56
692.09	1081.73
692.43	1077.68
692.76	1078.61
693.10	1079.95
693.44	1080.32
693.78	1083.06
694.11	1085.94
694.45	1084.02
694.79	1084.18
695.13	1082.99
695.46	1078.17
695.80	1080.86
696.14	1083.46
696.48	1082.19
696.81	1077.91
697.15	1080.13
697.49	1079.50
697.82	1077.96
698.16	1079.81
698.50	1082.99
698.83	1082.92
699.17	1079.78
699.51	1081.09
699.84	1080.67
700.18	1082.43
700.52	1082.45
700.85	1083.83
701.19	1084.35
701.53	1084.25
701.86	1084.02
702.20	1082.50
702.54	1082.29
702.87	1079.53
703.21	1079.48
703.55	1081.70
703.88	1081.80
704.22	1083.18
704.55	1082.92
704.89	1083.01
705.23	1079.17
705.56	1079.17
705.90	1077.70
706.23	1079.46
706.57	1082.10
706.91	1081.91
707.24	1080.84
707.58	1080.70
707.91	1079.36
708.25	1076.60
708.58	1079.29
708.92	1082.80
709.26	1085.73
709.59	1087.72
709.93	1087.02
710.26	1085.42
710.60	1085.05
710.93	1083.34
711.27	1081.82
711.60	1086.15
711.94	1087.25
712.27	1085.61
712.61	1084.72
712.94	1084.04
713.28	1080.98
713.61	1080.77
713.95	1080.48
714.28	1080.95
714.62	1079.48
714.95	1078.12
715.29	1077.44
715.62	1075.78
715.96	1075.36
716.29	1077.79
716.63	1079.46
716.96	1080.44
717.29	1082.97
717.63	1082.61
717.96	1082.08
718.30	1080.72
718.63	1078.47
718.97	1077.14
719.30	1076.93
719.63	1077.07
719.97	1078.38
720.30	1078.50
720.64	1082.80
720.97	1084.23
721.30	1082.47
721.64	1083.67
721.97	1081.98
722.31	1079.83
722.64	1079.53
722.97	1084.58
723.31	1083.34
723.64	1086.08
723.97	1082.78
724.31	1082.83
724.64	1082.31
724.98	1080.41
725.31	1080.84
725.64	1085.89
725.98	1085.31
726.31	1083.29
726.64	1083.06
726.97	1083.69
727.31	1080.09
727.64	1078.99
727.97	1078.31
728.31	1079.22
728.64	1076.23
728.97	1076.37
729.31	1074.52
729.64	1075.10
729.97	1076.81
730.30	1080.63
730.64	1079.53
730.97	1082.64
731.30	1083.67
731.63	1082.71
731.97	1079.71
732.30	1079.53
732.63	1079.27
732.96	1076.97
733.30	1076.81
733.63	1077.02
733.96	1080.70
734.29	1080.11
734.63	1077.79
734.96	1077.14
735.29	1078.40
735.62	1075.27
735.95	1078.96
736.29	1081.14
736.62	1079.69
736.95	1078.36
737.28	1078.87
737.61	1077.25
737.94	1076.83
738.28	1079.48
738.61	1080.95
738.94	1081.33
739.27	1079.13
739.60	1079.99
739.93	1080.46
740.27	1079.43
740.60	1078.92
740.93	1080.74
741.26	1083.18
741.59	1083.41
741.92	1083.97
742.25	1085.52
742.58	1085.80
742.91	1085.70
743.25	1084.53
743.58	1085.89
743.91	1086.45
744.24	1085.56
744.57	1082.87
744.90	1083.55
745.23	1082.73
745.56	1082.05
745.89	1082.01
746.22	1082.08
746.55	1078.89
746.88	1081.09
747.21	1082.15
747.54	1081.54
747.87	1082.47
748.20	1084.63
748.53	1083.53
748.87	1084.67
749.20	1084.49
749.53	1084.23
749.86	1083.74
750.19	1081.77
750.52	1079.41
750.85	1077.91
751.18	1077.30
751.51	1080.18
751.84	1080.13
752.16	1080.34
752.49	1081.14
752.82	1080.77
753.15	1079.27
753.48	1078.50
753.81	1076.37
754.14	1076.86
754.47	1079.48
754.80	1078.43
755.13	1081.70
755.46	1081.16
755.79	1081.56
756.12	1082.15
756.45	1082.97
756.78	1082.97
757.11	1085.59
757.43	1086.92
757.76	1083.32
758.09	1082.08
758.42	1079.46
758.75	1078.52
759.08	1078.87
759.41	1078.89
759.74	1078.52
760.07	1080.13
760.39	1081.84
760.72	1081.42
761.05	1083.27
761.38	1086.94
761.71	1089.43
762.04	1089.24
762.36	1088.79
762.69	1088.96
763.02	1085.52
763.35	1083.34
763.68	1082.33
764.01	1081.28
764.33	1082.05
764.66	1081.28
764.99	1081.23
765.32	1081.28
765.65	1082.01
765.97	1081.12
766.30	1081.98
