SpectraSuite Data File
++++++++++++++++++++++++++++++++++++
Date: Mon Aug 26 10:26:43 PDT 2019
User: corrico
Dark Spectrum Present: No
Reference Spectrum Present: No
Number of Sampled Component Spectra: 1
Spectrometers: USB2+H06089
Integration Time (usec): 10000 (USB2+H06089)
Spectra Averaged: 20 (USB2+H06089)
Boxcar Smoothing: 2 (USB2+H06089)
Correct for Electrical Dark: No (USB2+H06089)
Strobe/Lamp Enabled: No (USB2+H06089)
Correct for Detector Non-linearity: No (USB2+H06089)
Correct for Stray Light: No (USB2+H06089)
Number of Pixels in Processed Spectrum: 2048
>>>>>Begin Processed Spectral Data<<<<<
339.70	1030.77
340.07	1030.77
340.45	993.53
340.82	972.14
341.19	949.39
341.57	923.25
341.94	913.98
342.31	906.35
342.69	901.43
343.06	898.18
343.43	900.76
343.81	901.25
344.18	907.36
344.55	911.90
344.93	918.08
345.30	923.22
345.67	929.17
346.04	934.41
346.42	942.02
346.79	946.11
347.16	953.63
347.54	965.35
347.91	972.73
348.28	980.66
348.65	992.34
349.03	1002.31
349.40	1011.88
349.77	1022.93
350.14	1032.50
350.52	1041.35
350.89	1045.75
351.26	1050.43
351.63	1055.89
352.01	1064.45
352.38	1069.46
352.75	1074.54
353.12	1078.10
353.50	1080.04
353.87	1079.95
354.24	1081.37
354.61	1081.44
354.98	1082.05
355.36	1085.28
355.73	1088.68
356.10	1089.19
356.47	1095.00
356.84	1096.89
357.22	1095.93
357.59	1095.00
357.96	1097.41
358.33	1097.80
358.70	1097.76
359.08	1097.76
359.45	1093.47
359.82	1091.32
360.19	1089.59
360.56	1083.64
360.94	1083.71
361.31	1085.10
361.68	1083.88
362.05	1082.26
362.42	1087.23
362.79	1086.55
363.16	1086.36
363.54	1085.03
363.91	1083.71
364.28	1080.95
364.65	1080.32
365.02	1077.82
365.39	1080.23
365.76	1082.26
366.14	1085.12
366.51	1084.63
366.88	1087.23
367.25	1084.63
367.62	1082.59
367.99	1082.47
368.36	1082.80
368.73	1083.50
369.10	1082.12
369.48	1082.97
369.85	1083.69
370.22	1084.11
370.59	1080.88
370.96	1081.91
371.33	1081.61
371.70	1078.21
372.07	1075.05
372.44	1074.56
372.81	1075.38
373.18	1072.69
373.55	1073.84
373.93	1076.48
374.30	1078.71
374.67	1079.92
375.04	1081.14
375.41	1080.09
375.78	1079.53
376.15	1078.59
376.52	1076.48
376.89	1077.89
377.26	1080.93
377.63	1080.51
378.00	1080.37
378.37	1078.99
378.74	1077.56
379.11	1076.46
379.48	1077.33
379.85	1078.82
380.22	1082.03
380.59	1084.32
380.96	1086.34
381.33	1088.49
381.70	1087.39
382.07	1087.41
382.44	1086.66
382.81	1085.59
383.18	1085.84
383.55	1089.03
383.92	1091.16
384.29	1091.81
384.66	1090.90
385.03	1089.38
385.40	1088.47
385.77	1086.50
386.14	1086.97
386.51	1086.94
386.88	1088.72
387.25	1088.30
387.62	1086.94
387.99	1086.57
388.36	1087.95
388.73	1084.72
389.10	1082.03
389.46	1083.08
389.83	1083.39
390.20	1081.87
390.57	1084.49
390.94	1084.39
391.31	1086.08
391.68	1082.97
392.05	1084.98
392.42	1083.20
392.79	1083.64
393.16	1083.39
393.53	1085.61
393.89	1082.01
394.26	1084.21
394.63	1085.56
395.00	1087.67
395.37	1085.52
395.74	1087.76
396.11	1086.08
396.48	1090.32
396.84	1090.22
397.21	1096.31
397.58	1096.40
397.95	1097.41
398.32	1095.37
398.69	1093.15
399.06	1090.48
399.42	1092.66
399.79	1091.67
400.16	1091.98
400.53	1092.42
400.90	1091.98
401.27	1091.93
401.64	1094.86
402.00	1091.91
402.37	1093.01
402.74	1090.88
403.11	1091.56
403.48	1090.50
403.84	1092.28
404.21	1090.62
404.58	1093.57
404.95	1096.03
405.32	1097.64
405.68	1098.72
406.05	1103.84
406.42	1103.09
406.79	1101.41
407.16	1102.84
407.52	1102.32
407.89	1099.37
408.26	1098.53
408.63	1097.13
408.99	1094.18
409.36	1095.04
409.73	1094.97
410.10	1096.03
410.47	1097.34
410.83	1099.51
411.20	1100.22
411.57	1100.15
411.94	1102.42
412.30	1100.45
412.67	1099.70
413.04	1100.29
413.40	1099.49
413.77	1095.96
414.14	1095.21
414.51	1093.83
414.87	1093.10
415.24	1099.21
415.61	1103.77
415.97	1109.02
416.34	1110.26
416.71	1111.33
417.08	1107.85
417.44	1106.23
417.81	1102.91
418.18	1104.48
418.54	1104.19
418.91	1107.35
419.28	1108.59
419.64	1108.59
420.01	1108.34
420.38	1111.80
420.74	1109.95
421.11	1110.68
421.48	1111.19
421.84	1111.43
422.21	1108.34
422.58	1105.74
422.94	1104.87
423.31	1107.71
423.68	1107.96
424.04	1108.06
424.41	1108.06
424.77	1108.43
425.14	1109.34
425.51	1107.38
425.87	1108.17
426.24	1111.89
426.61	1113.93
426.97	1112.74
427.34	1113.53
427.70	1113.58
428.07	1111.26
428.44	1108.41
428.80	1107.82
429.17	1109.48
429.53	1111.85
429.90	1109.02
430.27	1111.43
430.63	1114.07
431.00	1113.49
431.36	1114.35
431.73	1115.71
432.09	1114.33
432.46	1113.42
432.83	1112.55
433.19	1112.62
433.56	1114.00
433.92	1116.67
434.29	1116.93
434.65	1117.86
435.02	1116.90
435.38	1118.45
435.75	1115.78
436.11	1115.41
436.48	1119.85
436.84	1119.50
437.21	1121.23
437.57	1120.23
437.94	1119.41
438.30	1116.37
438.67	1112.27
439.03	1108.38
439.40	1109.62
439.76	1109.16
440.13	1109.51
440.49	1112.43
440.86	1114.89
441.22	1116.32
441.59	1118.68
441.95	1118.33
442.32	1117.40
442.68	1116.74
443.05	1114.61
443.41	1113.07
443.78	1113.86
444.14	1114.21
444.51	1111.80
444.87	1113.91
445.24	1114.80
445.60	1114.21
445.96	1111.57
446.33	1114.42
446.69	1114.52
447.06	1112.83
447.42	1112.34
447.79	1114.10
448.15	1112.27
448.51	1113.46
448.88	1115.29
449.24	1113.23
449.61	1113.23
449.97	1114.05
450.33	1111.40
450.70	1108.99
451.06	1109.37
451.43	1108.20
451.79	1107.10
452.15	1106.07
452.52	1106.28
452.88	1106.37
453.24	1109.11
453.61	1111.31
453.97	1110.07
454.34	1109.44
454.70	1108.22
455.06	1106.68
455.43	1105.69
455.79	1109.32
456.15	1108.27
456.52	1105.53
456.88	1104.73
457.24	1100.87
457.61	1099.68
457.97	1099.79
458.33	1104.19
458.70	1102.81
459.06	1104.43
459.42	1103.59
459.79	1107.73
460.15	1108.31
460.51	1113.11
460.88	1113.32
461.24	1114.52
461.60	1114.33
461.96	1116.53
462.33	1114.21
462.69	1118.24
463.05	1120.30
463.42	1121.14
463.78	1121.16
464.14	1126.83
464.50	1127.13
464.87	1128.04
465.23	1129.71
465.59	1129.66
465.95	1128.07
466.32	1127.74
466.68	1128.79
467.04	1128.30
467.40	1128.84
467.77	1127.97
468.13	1133.47
468.49	1134.81
468.85	1134.43
469.22	1137.13
469.58	1141.71
469.94	1139.82
470.30	1141.43
470.66	1142.77
471.03	1143.33
471.39	1143.63
471.75	1142.23
472.11	1143.73
472.47	1148.64
472.84	1153.63
473.20	1155.52
473.56	1160.88
473.92	1162.71
474.28	1163.04
474.65	1164.07
475.01	1166.36
475.37	1171.44
475.73	1176.19
476.09	1181.71
476.45	1184.08
476.81	1189.48
477.18	1194.31
477.54	1200.02
477.90	1206.20
478.26	1217.66
478.62	1220.96
478.98	1229.34
479.34	1236.34
479.71	1240.98
480.07	1246.15
480.43	1259.79
480.79	1265.22
481.15	1272.43
481.51	1288.46
481.87	1296.75
482.23	1307.68
482.59	1322.45
482.96	1340.28
483.32	1348.29
483.68	1365.49
484.04	1377.34
484.40	1390.44
484.76	1406.05
485.12	1422.53
485.48	1439.17
485.84	1458.62
486.20	1483.24
486.56	1504.47
486.92	1534.60
487.28	1563.15
487.64	1592.10
488.00	1617.68
488.37	1646.80
488.73	1675.00
489.09	1706.20
489.45	1739.74
489.81	1775.65
490.17	1814.17
490.53	1853.03
490.89	1894.57
491.25	1933.80
491.61	1979.91
491.97	2026.51
492.33	2077.27
492.69	2131.06
493.05	2186.15
493.41	2241.30
493.77	2300.89
494.13	2361.67
494.49	2427.53
494.85	2501.87
495.21	2579.86
495.57	2658.83
495.93	2738.61
496.29	2819.46
496.64	2913.99
497.00	3007.03
497.36	3108.33
497.72	3215.76
498.08	3322.55
498.44	3434.46
498.80	3555.98
499.16	3685.90
499.52	3824.69
499.88	3982.61
500.24	4142.35
500.60	4291.51
500.96	4449.08
501.32	4616.47
501.68	4783.14
502.03	4964.11
502.39	5175.91
502.75	5386.70
503.11	5615.95
503.47	5845.89
503.83	6083.24
504.19	6328.32
504.55	6597.24
504.91	6859.10
505.26	7139.01
505.62	7434.41
505.98	7747.92
506.34	8081.12
506.70	8439.90
507.06	8826.51
507.42	9236.29
507.78	9642.49
508.13	10038.77
508.49	10473.62
508.85	10930.35
509.21	11398.57
509.57	11923.30
509.93	12492.07
510.28	13070.00
510.64	13683.57
511.00	14277.95
511.36	14837.48
511.72	15407.04
512.07	16045.64
512.43	16643.50
512.79	17316.99
513.15	18056.55
513.51	18807.87
513.86	19528.66
514.22	20364.44
514.58	21158.09
514.94	21992.70
515.30	22838.34
515.65	23654.18
516.01	24469.48
516.37	25312.36
516.73	26062.97
517.08	26918.97
517.44	27751.24
517.80	28536.79
518.16	29362.63
518.51	30181.07
518.87	30910.24
519.23	31782.06
519.59	32675.45
519.94	33499.99
520.30	34381.02
520.66	35137.43
521.01	35903.19
521.37	36570.12
521.73	37180.37
522.09	37762.18
522.44	38423.97
522.80	38834.47
523.16	39168.77
523.51	39439.92
523.87	39738.34
524.23	39990.79
524.58	40274.65
524.94	40643.99
525.30	40980.04
525.65	41147.62
526.01	41216.32
526.37	41198.74
526.72	41149.59
527.08	41039.96
527.44	40861.40
527.79	40678.37
528.15	40587.53
528.51	40332.58
528.86	40102.39
529.22	39869.83
529.58	39625.29
529.93	39243.34
530.29	38820.57
530.65	38461.88
531.00	38129.67
531.36	37684.50
531.71	37206.96
532.07	36760.20
532.43	36160.34
532.78	35493.22
533.14	34912.09
533.49	34355.41
533.85	33747.39
534.21	33153.62
534.56	32612.95
534.92	32039.17
535.27	31431.19
535.63	30817.86
535.98	30194.76
536.34	29569.63
536.69	28920.53
537.05	28320.58
537.41	27806.36
537.76	27341.16
538.12	26792.00
538.47	26306.03
538.83	25853.65
539.18	25394.16
539.54	24902.34
539.89	24448.30
540.25	23939.75
540.60	23464.22
540.96	22954.55
541.31	22486.14
541.67	22074.29
542.02	21703.48
542.38	21272.54
542.73	20830.91
543.09	20423.42
543.44	20060.59
543.80	19695.94
544.15	19288.92
544.51	18974.72
544.86	18662.36
545.22	18299.48
545.57	17930.70
545.93	17596.76
546.28	17272.15
546.64	16960.69
546.99	16627.89
547.35	16311.12
547.70	16003.37
548.05	15691.58
548.41	15373.90
548.76	15085.53
549.12	14799.42
549.47	14530.82
549.83	14265.78
550.18	13959.45
550.53	13627.96
550.89	13342.86
551.24	13069.83
551.60	12770.06
551.95	12525.05
552.30	12315.64
552.66	12081.73
553.01	11829.84
553.37	11571.14
553.72	11289.13
554.07	11018.82
554.43	10731.61
554.78	10453.93
555.13	10202.11
555.49	9976.98
555.84	9779.79
556.19	9598.07
556.55	9402.00
556.90	9206.47
557.26	9007.58
557.61	8776.42
557.96	8539.70
558.32	8343.57
558.67	8143.99
559.02	7922.22
559.37	7748.27
559.73	7587.69
560.08	7428.11
560.43	7277.80
560.79	7167.49
561.14	7013.58
561.49	6858.78
561.85	6707.65
562.20	6547.60
562.55	6408.53
562.90	6277.25
563.26	6164.99
563.61	6048.13
563.96	5947.23
564.32	5818.71
564.67	5703.16
565.02	5574.10
565.37	5463.75
565.73	5358.70
566.08	5255.25
566.43	5140.00
566.78	5042.17
567.14	4929.40
567.49	4825.58
567.84	4725.49
568.19	4631.10
568.54	4542.51
568.90	4462.68
569.25	4378.04
569.60	4307.73
569.95	4239.81
570.31	4156.65
570.66	4080.35
571.01	3990.45
571.36	3896.15
571.71	3817.32
572.06	3749.44
572.42	3683.58
572.77	3630.31
573.12	3575.75
573.47	3514.24
573.82	3459.03
574.18	3387.69
574.53	3327.33
574.88	3277.08
575.23	3228.44
575.58	3174.07
575.93	3136.20
576.28	3087.54
576.64	3030.76
576.99	2974.24
577.34	2919.47
577.69	2861.21
578.04	2809.72
578.39	2760.99
578.74	2721.29
579.09	2681.72
579.44	2644.13
579.80	2603.94
580.15	2557.13
580.50	2515.09
580.85	2482.23
581.20	2449.09
581.55	2419.74
581.90	2396.50
582.25	2363.03
582.60	2320.57
582.95	2283.12
583.30	2238.96
583.65	2207.78
584.00	2177.28
584.35	2150.58
584.71	2123.80
585.06	2100.09
585.41	2068.35
585.76	2042.70
586.11	2020.61
586.46	1998.68
586.81	1976.96
587.16	1959.96
587.51	1941.12
587.86	1918.26
588.21	1895.04
588.56	1879.87
588.91	1856.93
589.26	1833.25
589.61	1813.35
589.96	1794.11
590.31	1770.99
590.66	1754.65
591.01	1740.24
591.36	1726.94
591.71	1707.80
592.06	1690.57
592.41	1671.12
592.76	1655.93
593.10	1636.64
593.45	1626.72
593.80	1613.61
594.15	1603.20
594.50	1593.16
594.85	1583.61
595.20	1571.01
595.55	1556.46
595.90	1546.37
596.25	1535.51
596.60	1520.90
596.95	1508.78
597.30	1502.95
597.64	1542.83
597.99	1532.63
598.34	1527.97
598.69	1520.37
599.04	1514.84
599.39	1454.67
599.74	1443.48
600.09	1432.50
600.44	1423.14
600.78	1413.73
601.13	1405.23
601.48	1398.66
601.83	1391.12
602.18	1385.53
602.53	1374.90
602.88	1371.58
603.22	1362.07
603.57	1355.36
603.92	1346.39
604.27	1342.30
604.62	1332.00
604.97	1327.48
605.31	1323.18
605.66	1319.97
606.01	1314.05
606.36	1309.44
606.71	1306.23
607.05	1298.22
607.40	1291.25
607.75	1286.19
608.10	1282.43
608.44	1276.81
608.79	1277.14
609.14	1275.29
609.49	1272.78
609.84	1271.29
610.18	1266.89
610.53	1262.74
610.88	1256.19
611.23	1253.50
611.57	1248.86
611.92	1244.25
612.27	1237.37
612.62	1237.14
612.96	1231.29
613.31	1227.92
613.66	1222.53
614.00	1221.31
614.35	1216.70
614.70	1213.59
615.05	1210.69
615.39	1211.13
615.74	1208.28
616.09	1205.70
616.43	1201.51
616.78	1198.03
617.13	1196.44
617.47	1193.79
617.82	1190.86
618.17	1190.86
618.51	1189.69
618.86	1188.48
619.21	1184.43
619.55	1182.98
619.90	1178.34
620.25	1174.48
620.59	1167.48
620.94	1167.11
621.29	1165.70
621.63	1167.60
621.98	1165.49
622.32	1167.34
622.67	1168.79
623.02	1166.29
623.36	1161.63
623.71	1158.42
624.05	1155.22
624.40	1152.81
624.75	1151.80
625.09	1152.64
625.44	1155.92
625.78	1156.79
626.13	1153.88
626.48	1150.63
626.82	1148.08
627.17	1145.27
627.51	1142.95
627.86	1140.43
628.20	1141.48
628.55	1139.65
628.89	1137.66
629.24	1136.12
629.58	1137.64
629.93	1137.03
630.28	1135.89
630.62	1133.22
630.97	1130.53
631.31	1128.75
631.66	1125.28
632.00	1123.46
632.35	1123.97
632.69	1125.47
633.04	1123.83
633.38	1124.70
633.73	1125.49
634.07	1125.98
634.42	1123.95
634.76	1121.54
635.11	1118.31
635.45	1117.47
635.79	1115.94
636.14	1115.78
636.48	1114.94
636.83	1116.01
637.17	1117.40
637.52	1115.08
637.86	1114.02
638.21	1113.63
638.55	1112.11
638.89	1111.26
639.24	1114.56
639.58	1117.44
639.93	1119.88
640.27	1117.96
640.61	1118.94
640.96	1116.20
641.30	1115.71
641.65	1114.10
641.99	1117.04
642.33	1114.12
642.68	1113.72
643.02	1111.01
643.37	1109.34
643.71	1110.61
644.05	1108.95
644.40	1110.35
644.74	1107.80
645.08	1108.17
645.43	1102.16
645.77	1104.66
646.11	1100.43
646.46	1100.00
646.80	1101.34
647.14	1105.25
647.49	1103.94
647.83	1105.58
648.17	1108.76
648.52	1106.86
648.86	1103.56
649.20	1103.70
649.55	1102.49
649.89	1100.19
650.23	1097.88
650.57	1098.67
650.92	1097.01
651.26	1095.82
651.60	1098.18
651.95	1099.70
652.29	1098.51
652.63	1098.20
652.97	1097.92
653.32	1095.56
653.66	1094.22
654.00	1096.85
654.34	1099.70
654.69	1103.35
655.03	1102.39
655.37	1105.55
655.71	1104.24
656.05	1102.06
656.40	1101.20
656.74	1103.12
657.08	1097.73
657.42	1099.54
657.76	1097.64
658.11	1095.07
658.45	1092.45
658.79	1094.39
659.13	1092.98
659.47	1092.05
659.82	1093.01
660.16	1091.27
660.50	1092.12
660.84	1090.27
661.18	1091.09
661.52	1089.19
661.87	1095.60
662.21	1095.44
662.55	1094.76
662.89	1094.69
663.23	1100.36
663.57	1096.35
663.91	1095.98
664.25	1096.78
664.60	1096.31
664.94	1093.62
665.28	1094.04
665.62	1093.15
665.96	1092.66
666.30	1091.77
666.64	1088.04
666.98	1088.68
667.32	1090.13
667.66	1092.63
668.01	1094.67
668.35	1096.47
668.69	1095.49
669.03	1093.59
669.37	1094.41
669.71	1096.73
670.05	1098.79
670.39	1096.75
670.73	1098.83
671.07	1094.95
671.41	1092.82
671.75	1090.41
672.09	1092.73
672.43	1091.95
672.77	1092.84
673.11	1092.02
673.45	1091.77
673.79	1093.12
674.13	1093.36
674.47	1089.85
674.81	1089.36
675.15	1090.69
675.49	1089.22
675.83	1089.52
676.17	1092.75
676.51	1093.87
676.85	1095.42
677.19	1097.48
677.53	1096.03
677.87	1095.96
678.21	1097.99
678.55	1096.14
678.89	1091.44
679.23	1090.97
679.57	1090.36
679.90	1085.91
680.24	1083.41
680.58	1084.02
680.92	1081.56
681.26	1082.33
681.60	1083.27
681.94	1084.86
682.28	1085.80
682.62	1090.20
682.96	1090.41
683.29	1089.66
683.63	1087.60
683.97	1087.62
684.31	1086.41
684.65	1088.21
684.99	1089.38
685.33	1091.79
685.67	1090.27
686.00	1089.10
686.34	1085.59
686.68	1085.40
687.02	1086.45
687.36	1087.27
687.70	1087.16
688.03	1087.88
688.37	1088.58
688.71	1090.06
689.05	1088.89
689.39	1090.97
689.72	1089.24
690.06	1089.64
690.40	1086.45
690.74	1087.76
691.08	1083.74
691.41	1087.97
691.75	1089.54
692.09	1090.10
692.43	1090.57
692.76	1092.30
693.10	1090.06
693.44	1088.42
693.78	1089.78
694.11	1091.56
694.45	1093.83
694.79	1094.04
695.13	1093.71
695.46	1094.11
695.80	1090.48
696.14	1089.85
696.48	1092.61
696.81	1091.84
697.15	1089.54
697.49	1090.62
697.82	1088.84
698.16	1085.52
698.50	1087.46
698.83	1086.90
699.17	1089.78
699.51	1090.36
699.84	1092.12
700.18	1093.59
700.52	1094.74
700.85	1093.99
701.19	1094.60
701.53	1091.11
701.86	1087.83
702.20	1084.79
702.54	1088.37
702.87	1089.38
703.21	1092.37
703.55	1092.40
703.88	1094.25
704.22	1089.40
704.55	1088.70
704.89	1090.41
705.23	1088.37
705.56	1090.46
705.90	1090.48
706.23	1089.26
706.57	1085.28
706.91	1087.32
707.24	1087.02
707.58	1084.65
707.91	1082.73
708.25	1082.69
708.58	1080.79
708.92	1075.92
709.26	1077.79
709.59	1079.92
709.93	1080.48
710.26	1085.31
710.60	1087.60
710.93	1090.43
711.27	1092.28
711.60	1093.64
711.94	1090.17
712.27	1092.49
712.61	1091.32
712.94	1089.57
713.28	1089.59
713.61	1091.30
713.95	1090.39
714.28	1089.61
714.62	1088.98
714.95	1087.69
715.29	1084.04
715.62	1086.59
715.96	1085.99
716.29	1086.69
716.63	1089.68
716.96	1094.43
717.29	1094.08
717.63	1093.45
717.96	1097.59
718.30	1097.78
718.63	1095.82
718.97	1092.82
719.30	1095.86
719.63	1092.45
719.97	1090.74
720.30	1090.81
720.64	1093.01
720.97	1089.92
721.30	1091.32
721.64	1090.27
721.97	1089.07
722.31	1088.07
722.64	1087.13
722.97	1085.75
723.31	1088.86
723.64	1089.17
723.97	1087.58
724.31	1088.91
724.64	1088.70
724.98	1088.79
725.31	1088.16
725.64	1090.99
725.98	1090.36
726.31	1093.90
726.64	1090.97
726.97	1092.49
727.31	1090.22
727.64	1093.08
727.97	1086.52
728.31	1088.19
728.64	1089.52
728.97	1091.25
729.31	1089.92
729.64	1093.99
729.97	1093.73
730.30	1090.53
730.64	1092.05
730.97	1091.46
731.30	1088.54
731.63	1090.83
731.97	1090.64
732.30	1087.37
732.63	1088.21
732.96	1093.29
733.30	1088.72
733.63	1089.89
733.96	1090.20
734.29	1088.37
734.63	1083.39
734.96	1083.74
735.29	1081.80
735.62	1082.76
735.95	1084.28
736.29	1084.37
736.62	1087.72
736.95	1089.26
737.28	1088.54
737.61	1086.03
737.94	1087.95
738.28	1086.20
738.61	1087.32
738.94	1087.69
739.27	1090.90
739.60	1092.63
739.93	1089.07
740.27	1087.72
740.60	1086.45
740.93	1083.08
741.26	1081.19
741.59	1086.03
741.92	1086.27
742.25	1088.75
742.58	1090.74
742.91	1093.22
743.25	1089.66
743.58	1090.97
743.91	1089.80
744.24	1088.16
744.57	1085.66
744.90	1085.91
745.23	1086.57
745.56	1086.48
745.89	1089.47
746.22	1087.60
746.55	1085.77
746.88	1085.42
747.21	1085.12
747.54	1084.09
747.87	1083.86
748.20	1088.16
748.53	1086.41
748.87	1083.27
749.20	1085.68
749.53	1085.84
749.86	1083.69
750.19	1085.14
750.52	1089.89
750.85	1088.35
751.18	1091.39
751.51	1089.57
751.84	1090.50
752.16	1087.93
752.49	1085.82
752.82	1084.72
753.15	1086.22
753.48	1084.56
753.81	1085.63
754.14	1088.89
754.47	1089.00
754.80	1091.49
755.13	1090.43
755.46	1088.09
755.79	1089.14
756.12	1091.11
756.45	1090.50
756.78	1092.49
757.11	1093.83
757.43	1091.34
757.76	1086.03
758.09	1084.44
758.42	1082.31
758.75	1083.04
759.08	1082.45
759.41	1086.01
759.74	1086.36
760.07	1088.37
760.39	1088.37
760.72	1086.17
761.05	1085.54
761.38	1085.82
761.71	1086.01
762.04	1084.32
762.36	1085.12
762.69	1085.49
763.02	1084.49
763.35	1083.55
