SpectraSuite Data File
++++++++++++++++++++++++++++++++++++
Date: Mon Aug 26 10:26:58 PDT 2019
User: corrico
Dark Spectrum Present: No
Reference Spectrum Present: No
Number of Sampled Component Spectra: 1
Spectrometers: USB2+H06089
Integration Time (usec): 10000 (USB2+H06089)
Spectra Averaged: 20 (USB2+H06089)
Boxcar Smoothing: 2 (USB2+H06089)
Correct for Electrical Dark: No (USB2+H06089)
Strobe/Lamp Enabled: No (USB2+H06089)
Correct for Detector Non-linearity: No (USB2+H06089)
Correct for Stray Light: No (USB2+H06089)
Number of Pixels in Processed Spectrum: 2048
>>>>>Begin Processed Spectral Data<<<<<
339.70	1027.26
340.07	1027.26
340.45	990.84
340.82	970.20
341.19	946.70
341.57	925.59
341.94	918.92
342.31	914.52
342.69	911.59
343.06	910.75
343.43	911.15
343.81	910.23
344.18	911.47
344.55	915.36
344.93	919.18
345.30	918.92
345.67	928.47
346.04	934.25
346.42	941.93
346.79	952.39
347.16	962.55
347.54	969.22
347.91	980.52
348.28	987.10
348.65	994.96
349.03	1003.46
349.40	1007.88
349.77	1013.94
350.14	1023.17
350.52	1028.50
350.89	1036.06
351.26	1044.72
351.63	1049.36
352.01	1050.64
352.38	1054.46
352.75	1057.29
353.12	1060.82
353.50	1063.87
353.87	1069.81
354.24	1075.64
354.61	1079.15
354.98	1083.22
355.36	1084.91
355.73	1086.94
356.10	1087.13
356.47	1087.93
356.84	1086.99
357.22	1087.41
357.59	1087.37
357.96	1084.30
358.33	1083.55
358.70	1083.11
359.08	1080.39
359.45	1077.07
359.82	1077.93
360.19	1075.52
360.56	1072.92
360.94	1073.70
361.31	1074.19
361.68	1070.44
362.05	1067.00
362.42	1068.38
362.79	1070.44
363.16	1070.33
363.54	1069.95
363.91	1073.30
364.28	1074.05
364.65	1070.33
365.02	1068.62
365.39	1072.32
365.76	1069.44
366.14	1069.27
366.51	1070.51
366.88	1070.26
367.25	1069.81
367.62	1070.14
367.99	1069.65
368.36	1066.09
368.73	1064.01
369.10	1062.21
369.48	1064.41
369.85	1064.90
370.22	1066.02
370.59	1068.92
370.96	1071.50
371.33	1073.02
371.70	1071.19
372.07	1070.89
372.44	1069.91
372.81	1066.84
373.18	1065.37
373.55	1062.72
373.93	1065.93
374.30	1066.42
374.67	1065.76
375.04	1068.01
375.41	1071.15
375.78	1072.81
376.15	1074.91
376.52	1077.84
376.89	1076.74
377.26	1074.56
377.63	1070.09
378.00	1067.35
378.37	1066.16
378.74	1067.00
379.11	1068.57
379.48	1069.58
379.85	1071.85
380.22	1073.95
380.59	1071.66
380.96	1070.91
381.33	1073.09
381.70	1072.43
382.07	1069.06
382.44	1069.91
382.81	1070.75
383.18	1073.51
383.55	1075.55
383.92	1078.33
384.29	1075.90
384.66	1075.92
385.03	1071.47
385.40	1070.94
385.77	1071.36
386.14	1076.23
386.51	1076.23
386.88	1078.96
387.25	1079.34
387.62	1078.21
387.99	1072.25
388.36	1072.13
388.73	1072.32
389.10	1068.08
389.46	1067.17
389.83	1069.53
390.20	1071.80
390.57	1071.40
390.94	1070.26
391.31	1069.37
391.68	1071.01
392.05	1071.03
392.42	1069.37
392.79	1074.89
393.16	1075.97
393.53	1073.79
393.89	1073.09
394.26	1076.60
394.63	1076.41
395.00	1078.21
395.37	1079.55
395.74	1083.08
396.11	1083.71
396.48	1082.87
396.84	1080.02
397.21	1083.43
397.58	1078.33
397.95	1073.81
398.32	1075.90
398.69	1077.89
399.06	1077.07
399.42	1081.09
399.79	1084.79
400.16	1084.67
400.53	1083.08
400.90	1078.96
401.27	1075.55
401.64	1074.87
402.00	1071.08
402.37	1070.98
402.74	1074.82
403.11	1073.00
403.48	1071.87
403.84	1071.99
404.21	1076.46
404.58	1076.48
404.95	1079.29
405.32	1077.98
405.68	1076.55
406.05	1074.84
406.42	1075.05
406.79	1074.52
407.16	1076.18
407.52	1077.23
407.89	1073.63
408.26	1070.80
408.63	1071.52
408.99	1070.40
409.36	1070.89
409.73	1071.94
410.10	1072.90
410.47	1071.17
410.83	1072.50
411.20	1072.34
411.57	1072.39
411.94	1072.04
412.30	1076.51
412.67	1075.92
413.04	1078.14
413.40	1082.66
413.77	1081.19
414.14	1079.15
414.51	1080.51
414.87	1077.56
415.24	1075.62
415.61	1077.98
415.97	1078.38
416.34	1075.57
416.71	1078.17
417.08	1076.86
417.44	1076.06
417.81	1074.94
418.18	1077.79
418.54	1078.28
418.91	1080.09
419.28	1079.22
419.64	1080.98
420.01	1080.98
420.38	1078.21
420.74	1078.10
421.11	1080.30
421.48	1079.48
421.84	1076.13
422.21	1078.99
422.58	1077.70
422.94	1076.51
423.31	1073.74
423.68	1076.51
424.04	1075.73
424.41	1074.33
424.77	1077.61
425.14	1079.03
425.51	1078.43
425.87	1081.96
426.24	1083.64
426.61	1083.90
426.97	1085.07
427.34	1086.87
427.70	1081.80
428.07	1080.63
428.44	1078.03
428.80	1079.17
429.17	1077.93
429.53	1080.88
429.90	1081.44
430.27	1081.00
430.63	1077.84
431.00	1076.81
431.36	1074.40
431.73	1073.93
432.09	1072.34
432.46	1075.27
432.83	1073.30
433.19	1075.80
433.56	1073.18
433.92	1074.70
434.29	1071.87
434.65	1074.84
435.02	1071.52
435.38	1076.67
435.75	1077.37
436.11	1079.01
436.48	1081.37
436.84	1083.34
437.21	1081.40
437.57	1080.79
437.94	1081.61
438.30	1076.72
438.67	1077.86
439.03	1076.58
439.40	1078.54
439.76	1077.28
440.13	1082.17
440.49	1080.13
440.86	1085.38
441.22	1084.16
441.59	1083.22
441.95	1077.93
442.32	1079.92
442.68	1075.94
443.05	1074.89
443.41	1077.58
443.78	1080.48
444.14	1078.96
444.51	1082.50
444.87	1084.79
445.24	1083.48
445.60	1084.14
445.96	1085.75
446.33	1083.20
446.69	1081.07
447.06	1078.75
447.42	1079.06
447.79	1078.80
448.15	1078.24
448.51	1078.54
448.88	1082.59
449.24	1082.24
449.61	1080.09
449.97	1078.82
450.33	1079.27
450.70	1073.93
451.06	1074.98
451.43	1076.46
451.79	1079.34
452.15	1077.93
452.52	1081.82
452.88	1079.99
453.24	1082.45
453.61	1082.52
453.97	1084.49
454.34	1084.58
454.70	1083.97
455.06	1077.33
455.43	1074.54
455.79	1075.01
456.15	1076.93
456.52	1080.58
456.88	1086.01
457.24	1085.84
457.61	1088.00
457.97	1084.72
458.33	1081.49
458.70	1080.60
459.06	1081.14
459.42	1080.72
459.79	1084.35
460.15	1087.39
460.51	1088.23
460.88	1089.47
461.24	1084.93
461.60	1083.79
461.96	1083.34
462.33	1079.46
462.69	1078.38
463.05	1077.23
463.42	1076.65
463.78	1075.01
464.14	1075.48
464.50	1075.34
464.87	1077.11
465.23	1073.77
465.59	1071.64
465.95	1073.67
466.32	1074.80
466.68	1077.93
467.04	1080.09
467.40	1084.25
467.77	1083.64
468.13	1081.40
468.49	1077.98
468.85	1079.31
469.22	1080.04
469.58	1082.66
469.94	1084.39
470.30	1087.06
470.66	1086.27
471.03	1082.71
471.39	1081.82
471.75	1081.05
472.11	1079.69
472.47	1076.34
472.84	1079.10
473.20	1076.67
473.56	1077.23
473.92	1077.04
474.28	1080.30
474.65	1077.63
475.01	1079.55
475.37	1079.97
475.73	1081.40
476.09	1081.89
476.45	1081.28
476.81	1079.92
477.18	1080.09
477.54	1077.72
477.90	1078.10
478.26	1079.74
478.62	1078.92
478.98	1079.27
479.34	1078.24
479.71	1076.76
480.07	1074.47
480.43	1076.04
480.79	1075.03
481.15	1077.77
481.51	1076.37
481.87	1076.97
482.23	1077.93
482.59	1079.55
482.96	1078.89
483.32	1080.79
483.68	1080.79
484.04	1080.98
484.40	1081.44
484.76	1083.06
485.12	1084.02
485.48	1085.77
485.84	1084.53
486.20	1083.01
486.56	1081.40
486.92	1079.08
487.28	1077.35
487.64	1078.33
488.00	1081.07
488.37	1083.08
488.73	1083.90
489.09	1087.27
489.45	1089.40
489.81	1087.25
490.17	1084.67
490.53	1088.21
490.89	1085.45
491.25	1084.23
491.61	1084.18
491.97	1086.78
492.33	1084.86
492.69	1084.44
493.05	1082.08
493.41	1084.21
493.77	1081.19
494.13	1080.13
494.49	1082.03
494.85	1082.92
495.21	1081.56
495.57	1084.04
495.93	1083.13
496.29	1081.05
496.64	1080.95
497.00	1081.42
497.36	1083.41
497.72	1084.42
498.08	1084.63
498.44	1085.70
498.80	1082.54
499.16	1079.08
499.52	1078.54
499.88	1077.58
500.24	1076.51
500.60	1076.53
500.96	1077.23
501.32	1077.91
501.68	1081.26
502.03	1080.79
502.39	1082.22
502.75	1080.67
503.11	1079.29
503.47	1077.82
503.83	1077.25
504.19	1079.67
504.55	1078.24
504.91	1080.34
505.26	1081.21
505.62	1082.03
505.98	1077.93
506.34	1082.36
506.70	1083.74
507.06	1082.45
507.42	1080.70
507.78	1083.20
508.13	1080.13
508.49	1081.14
508.85	1083.11
509.21	1084.98
509.57	1086.17
509.93	1088.82
510.28	1087.04
510.64	1085.17
511.00	1085.45
511.36	1084.81
511.72	1083.39
512.07	1082.05
512.43	1084.63
512.79	1084.81
513.15	1082.19
513.51	1084.35
513.86	1084.32
514.22	1081.19
514.58	1083.41
514.94	1082.12
515.30	1079.62
515.65	1081.26
516.01	1081.82
516.37	1080.70
516.73	1083.43
517.08	1084.65
517.44	1083.29
517.80	1082.17
518.16	1080.81
518.51	1083.08
518.87	1082.17
519.23	1083.69
519.59	1084.74
519.94	1083.74
520.30	1079.24
520.66	1079.43
521.01	1077.63
521.37	1079.50
521.73	1079.55
522.09	1083.18
522.44	1083.04
522.80	1082.24
523.16	1078.59
523.51	1078.28
523.87	1077.56
524.23	1077.77
524.58	1075.94
524.94	1081.05
525.30	1081.89
525.65	1081.54
526.01	1084.04
526.37	1090.24
526.72	1084.67
527.08	1084.44
527.44	1085.26
527.79	1081.28
528.15	1077.51
528.51	1079.08
528.86	1079.06
529.22	1077.23
529.58	1079.71
529.93	1079.43
530.29	1080.51
530.65	1081.21
531.00	1084.67
531.36	1083.97
531.71	1084.42
532.07	1083.74
532.43	1083.32
532.78	1081.14
533.14	1081.63
533.49	1083.34
533.85	1085.66
534.21	1085.33
534.56	1085.17
534.92	1082.19
535.27	1082.40
535.63	1080.02
535.98	1078.12
536.34	1077.84
536.69	1079.10
537.05	1077.98
537.41	1082.15
537.76	1084.32
538.12	1082.50
538.47	1081.07
538.83	1080.63
539.18	1078.36
539.54	1079.60
539.89	1077.65
540.25	1078.87
540.60	1077.98
540.96	1077.42
541.31	1078.05
541.67	1082.33
542.02	1083.86
542.38	1085.19
542.73	1085.77
543.09	1083.81
543.44	1082.76
543.80	1086.41
544.15	1086.64
544.51	1085.26
544.86	1086.03
545.22	1089.54
545.57	1087.39
545.93	1088.40
546.28	1092.09
546.64	1095.70
546.99	1092.47
547.35	1090.50
547.70	1090.78
548.05	1088.16
548.41	1084.44
548.76	1086.50
549.12	1083.95
549.47	1083.11
549.83	1081.58
550.18	1082.76
550.53	1082.10
550.89	1083.64
551.24	1081.94
551.60	1081.94
551.95	1081.02
552.30	1078.82
552.66	1082.61
553.01	1086.52
553.37	1088.26
553.72	1089.29
554.07	1089.43
554.43	1087.62
554.78	1082.87
555.13	1084.21
555.49	1083.04
555.84	1084.11
556.19	1084.16
556.55	1084.56
556.90	1083.46
557.26	1085.45
557.61	1085.52
557.96	1085.17
558.32	1086.71
558.67	1087.65
559.02	1085.59
559.37	1084.81
559.73	1086.27
560.08	1086.38
560.43	1086.71
560.79	1088.61
561.14	1089.59
561.49	1088.19
561.85	1090.20
562.20	1089.12
562.55	1087.86
562.90	1086.10
563.26	1084.74
563.61	1081.44
563.96	1079.64
564.32	1079.92
564.67	1082.05
565.02	1080.44
565.37	1081.54
565.73	1081.63
566.08	1081.14
566.43	1081.61
566.78	1084.23
567.14	1084.32
567.49	1085.99
567.84	1086.27
568.19	1087.02
568.54	1086.13
568.90	1086.80
569.25	1086.66
569.60	1085.73
569.95	1084.96
570.31	1086.06
570.66	1083.97
571.01	1083.34
571.36	1083.01
571.71	1081.84
572.06	1080.53
572.42	1085.00
572.77	1084.00
573.12	1085.47
573.47	1084.00
573.82	1085.63
574.18	1084.14
574.53	1083.57
574.88	1083.41
575.23	1086.62
575.58	1084.16
575.93	1082.64
576.28	1084.39
576.64	1082.92
576.99	1083.04
577.34	1083.97
577.69	1084.53
578.04	1082.94
578.39	1082.01
578.74	1083.20
579.09	1081.23
579.44	1083.83
579.80	1085.33
580.15	1088.58
580.50	1084.60
580.85	1086.83
581.20	1081.87
581.55	1081.28
581.90	1077.23
582.25	1078.21
582.60	1081.09
582.95	1082.29
583.30	1085.47
583.65	1088.37
584.00	1086.62
584.35	1081.75
584.71	1081.84
585.06	1081.35
585.41	1080.41
585.76	1084.16
586.11	1087.25
586.46	1084.23
586.81	1082.15
587.16	1082.76
587.51	1083.86
587.86	1080.93
588.21	1085.14
588.56	1082.71
588.91	1082.36
589.26	1082.38
589.61	1086.66
589.96	1087.62
590.31	1093.55
590.66	1093.97
591.01	1093.33
591.36	1090.20
591.71	1088.02
592.06	1086.52
592.41	1085.63
592.76	1083.95
593.10	1085.31
593.45	1085.84
593.80	1082.59
594.15	1081.80
594.50	1082.15
594.85	1079.53
595.20	1081.70
595.55	1083.06
595.90	1083.97
596.25	1083.55
596.60	1084.28
596.95	1080.65
597.30	1083.60
597.64	1134.79
597.99	1137.64
598.34	1139.75
598.69	1142.23
599.04	1138.16
599.39	1089.85
599.74	1088.19
600.09	1087.65
600.44	1090.08
600.78	1092.26
601.13	1089.66
601.48	1089.19
601.83	1091.34
602.18	1088.65
602.53	1087.37
602.88	1092.21
603.22	1089.38
603.57	1087.02
603.92	1085.82
604.27	1084.70
604.62	1081.61
604.97	1082.99
605.31	1085.24
605.66	1085.19
606.01	1085.61
606.36	1084.60
606.71	1087.97
607.05	1088.30
607.40	1088.23
607.75	1089.38
608.10	1089.82
608.44	1089.57
608.79	1089.96
609.14	1091.25
609.49	1094.15
609.84	1096.28
610.18	1097.76
610.53	1096.70
610.88	1099.09
611.23	1099.68
611.57	1102.06
611.92	1102.95
612.27	1105.93
612.62	1103.66
612.96	1102.23
613.31	1097.01
613.66	1095.63
614.00	1092.40
614.35	1091.91
614.70	1085.70
615.05	1085.31
615.39	1081.40
615.74	1079.74
616.09	1079.10
616.43	1084.21
616.78	1082.73
617.13	1084.65
617.47	1085.03
617.82	1085.42
618.17	1083.57
618.51	1084.30
618.86	1084.00
619.21	1084.11
619.55	1083.81
619.90	1085.77
620.25	1085.96
620.59	1083.90
620.94	1084.30
621.29	1082.87
621.63	1079.71
621.98	1081.84
622.32	1085.12
622.67	1083.90
623.02	1088.28
623.36	1092.75
623.71	1092.89
624.05	1090.78
624.40	1094.79
624.75	1092.98
625.09	1091.32
625.44	1090.06
625.78	1089.40
626.13	1085.45
626.48	1083.81
626.82	1082.31
627.17	1083.18
627.51	1085.52
627.86	1085.70
628.20	1088.54
628.55	1089.99
628.89	1089.57
629.24	1087.39
629.58	1088.79
629.93	1085.59
630.28	1084.30
630.62	1086.15
630.97	1085.61
631.31	1082.92
631.66	1084.00
632.00	1081.35
632.35	1082.10
632.69	1081.87
633.04	1084.58
633.38	1084.74
633.73	1089.59
634.07	1085.73
634.42	1086.45
634.76	1085.17
635.11	1087.46
635.45	1085.47
635.79	1085.40
636.14	1087.04
636.48	1090.39
636.83	1088.75
637.17	1088.28
637.52	1091.06
637.86	1091.53
638.21	1087.48
638.55	1084.91
638.89	1085.14
639.24	1082.61
639.58	1079.01
639.93	1079.53
640.27	1080.27
640.61	1082.19
640.96	1085.40
641.30	1085.19
641.65	1082.80
641.99	1082.90
642.33	1079.81
642.68	1076.67
643.02	1076.86
643.37	1076.72
643.71	1076.01
644.05	1078.57
644.40	1079.55
644.74	1081.73
645.08	1084.42
645.43	1085.26
645.77	1083.83
646.11	1081.96
646.46	1082.26
646.80	1083.27
647.14	1084.67
647.49	1085.52
647.83	1085.77
648.17	1083.36
648.52	1082.10
648.86	1080.60
649.20	1083.43
649.55	1086.27
649.89	1088.49
650.23	1087.37
650.57	1088.61
650.92	1086.22
651.26	1087.30
651.60	1085.89
651.95	1086.27
652.29	1084.86
652.63	1082.71
652.97	1078.43
653.32	1079.53
653.66	1079.60
654.00	1081.19
654.34	1082.78
654.69	1083.64
655.03	1084.44
655.37	1082.97
655.71	1080.84
656.05	1078.66
656.40	1080.23
656.74	1077.96
657.08	1080.04
657.42	1080.91
657.76	1081.49
658.11	1079.41
658.45	1078.00
658.79	1078.71
659.13	1078.94
659.47	1077.47
659.82	1076.04
660.16	1079.90
660.50	1079.55
660.84	1080.44
661.18	1082.03
661.52	1081.37
661.87	1077.21
662.21	1078.54
662.55	1075.64
662.89	1078.03
663.23	1082.47
663.57	1084.84
663.91	1084.63
664.25	1084.37
664.60	1079.57
664.94	1077.86
665.28	1076.20
665.62	1077.35
665.96	1080.18
666.30	1084.74
666.64	1086.06
666.98	1087.02
667.32	1083.11
667.66	1081.09
668.01	1081.82
668.35	1080.63
668.69	1080.67
669.03	1080.09
669.37	1080.65
669.71	1078.00
670.05	1077.37
670.39	1077.68
670.73	1081.12
671.07	1082.50
671.41	1082.73
671.75	1084.32
672.09	1083.25
672.43	1080.74
672.77	1077.33
673.11	1076.69
673.45	1077.70
673.79	1080.81
674.13	1080.53
674.47	1085.42
674.81	1086.99
675.15	1085.99
675.49	1085.40
675.83	1085.80
676.17	1081.98
676.51	1083.06
676.85	1082.66
677.19	1080.53
677.53	1080.39
677.87	1082.17
678.21	1080.13
678.55	1079.78
678.89	1082.22
679.23	1081.35
679.57	1080.25
679.90	1083.04
680.24	1084.46
680.58	1084.18
680.92	1086.87
681.26	1089.36
681.60	1085.35
681.94	1084.70
682.28	1084.02
682.62	1082.50
682.96	1080.34
683.29	1080.13
683.63	1079.22
683.97	1081.51
684.31	1086.27
684.65	1086.38
684.99	1085.94
685.33	1085.19
685.67	1080.56
686.00	1075.13
686.34	1076.93
686.68	1080.93
687.02	1081.19
687.36	1084.28
687.70	1086.64
688.03	1086.08
688.37	1082.03
688.71	1081.12
689.05	1079.88
689.39	1078.45
689.72	1076.15
690.06	1076.32
690.40	1079.74
690.74	1081.51
691.08	1080.93
691.41	1085.03
691.75	1088.47
692.09	1086.20
692.43	1084.79
692.76	1085.19
693.10	1081.68
693.44	1078.73
693.78	1076.25
694.11	1075.73
694.45	1078.38
694.79	1077.25
695.13	1074.80
695.46	1074.80
695.80	1075.78
696.14	1076.23
696.48	1078.78
696.81	1081.40
697.15	1086.38
697.49	1087.25
697.82	1088.28
698.16	1088.86
698.50	1089.03
698.83	1085.21
699.17	1081.66
699.51	1078.43
699.84	1079.31
700.18	1080.46
700.52	1081.63
700.85	1086.73
701.19	1087.53
701.53	1085.10
701.86	1083.97
702.20	1081.84
702.54	1078.66
702.87	1078.33
703.21	1077.89
703.55	1075.85
703.88	1078.59
704.22	1081.80
704.55	1080.51
704.89	1080.44
705.23	1081.96
705.56	1081.84
705.90	1077.65
706.23	1076.74
706.57	1077.65
706.91	1079.78
707.24	1077.72
707.58	1080.95
707.91	1083.15
708.25	1085.45
708.58	1086.52
708.92	1088.82
709.26	1085.94
709.59	1087.88
709.93	1086.17
710.26	1081.80
710.60	1082.80
710.93	1081.35
711.27	1078.14
711.60	1078.07
711.94	1080.18
712.27	1076.04
712.61	1077.18
712.94	1076.39
713.28	1075.15
713.61	1076.44
713.95	1077.77
714.28	1078.03
714.62	1078.03
714.95	1081.66
715.29	1082.08
715.62	1085.00
715.96	1083.27
716.29	1087.34
716.63	1084.56
716.96	1081.58
717.29	1080.79
717.63	1081.51
717.96	1081.12
718.30	1081.80
718.63	1082.10
718.97	1079.67
719.30	1080.74
719.63	1079.20
719.97	1080.32
720.30	1082.40
720.64	1084.98
720.97	1085.31
721.30	1087.83
721.64	1087.67
721.97	1087.97
722.31	1087.44
722.64	1083.79
722.97	1080.74
723.31	1078.10
723.64	1078.66
723.97	1080.88
724.31	1084.07
724.64	1086.03
724.98	1083.95
725.31	1083.95
725.64	1081.70
725.98	1081.02
726.31	1077.84
726.64	1080.72
726.97	1080.04
727.31	1080.70
727.64	1082.69
727.97	1081.14
728.31	1082.15
728.64	1084.02
728.97	1082.61
729.31	1084.23
729.64	1089.87
729.97	1089.10
730.30	1085.66
730.64	1084.21
730.97	1084.70
731.30	1080.04
731.63	1078.94
731.97	1079.83
732.30	1083.76
732.63	1079.81
732.96	1080.39
733.30	1081.30
733.63	1078.57
733.96	1077.42
734.29	1080.18
734.63	1082.31
734.96	1082.78
735.29	1086.24
735.62	1086.15
735.95	1083.62
736.29	1084.56
736.62	1083.18
736.95	1082.12
737.28	1081.54
737.61	1083.11
737.94	1080.25
738.28	1082.15
738.61	1082.05
738.94	1082.40
739.27	1080.30
739.60	1081.51
739.93	1076.83
740.27	1075.15
740.60	1079.60
740.93	1079.67
741.26	1077.42
741.59	1081.12
741.92	1085.80
742.25	1081.47
742.58	1082.97
742.91	1084.04
743.25	1082.29
743.58	1078.68
743.91	1076.32
744.24	1073.88
744.57	1074.00
744.90	1075.45
745.23	1076.32
745.56	1077.16
745.89	1079.17
746.22	1078.85
746.55	1079.27
746.88	1079.46
747.21	1079.46
747.54	1076.72
747.87	1077.35
748.20	1078.45
748.53	1080.25
748.87	1083.32
749.20	1086.55
749.53	1089.07
749.86	1089.10
750.19	1084.77
750.52	1081.87
750.85	1081.35
751.18	1082.38
751.51	1081.09
751.84	1082.33
752.16	1086.97
752.49	1089.24
752.82	1087.23
753.15	1089.36
753.48	1091.39
753.81	1088.65
754.14	1086.73
754.47	1084.98
754.80	1080.86
755.13	1078.71
755.46	1077.89
755.79	1077.58
756.12	1078.38
756.45	1081.40
756.78	1082.90
757.11	1082.76
757.43	1081.91
757.76	1080.86
758.09	1080.91
758.42	1081.70
758.75	1081.37
759.08	1085.10
759.41	1086.38
759.74	1084.02
760.07	1081.82
760.39	1082.78
760.72	1076.69
761.05	1075.80
761.38	1077.56
761.71	1078.96
762.04	1077.33
762.36	1081.21
762.69	1082.71
763.02	1083.15
763.35	1084.07
763.68	1085.77
764.01	1089.10
764.33	1086.83
764.66	1090.03
764.99	1087.30
765.32	1087.53
765.65	1082.50
765.97	1082.87
766.30	1081.02
