SpectraSuite Data File
++++++++++++++++++++++++++++++++++++
Date: Mon Aug 26 10:26:55 PDT 2019
User: corrico
Dark Spectrum Present: No
Reference Spectrum Present: No
Number of Sampled Component Spectra: 1
Spectrometers: USB2+H06089
Integration Time (usec): 10000 (USB2+H06089)
Spectra Averaged: 20 (USB2+H06089)
Boxcar Smoothing: 2 (USB2+H06089)
Correct for Electrical Dark: No (USB2+H06089)
Strobe/Lamp Enabled: No (USB2+H06089)
Correct for Detector Non-linearity: No (USB2+H06089)
Correct for Stray Light: No (USB2+H06089)
Number of Pixels in Processed Spectrum: 2048
>>>>>Begin Processed Spectral Data<<<<<
339.70	1043.06
340.07	1043.06
340.45	1005.05
340.82	979.65
341.19	952.88
341.57	925.73
341.94	919.34
342.31	908.15
342.69	905.34
343.06	903.38
343.43	903.03
343.81	900.78
344.18	903.68
344.55	907.85
344.93	911.80
345.30	916.51
345.67	925.14
346.04	929.78
346.42	937.29
346.79	946.68
347.16	956.46
347.54	963.67
347.91	977.95
348.28	987.52
348.65	997.84
349.03	1010.03
349.40	1018.13
349.77	1027.99
350.14	1035.99
350.52	1042.76
350.89	1047.69
351.26	1054.62
351.63	1057.24
352.01	1062.32
352.38	1070.28
352.75	1070.82
353.12	1076.58
353.50	1080.32
353.87	1083.18
354.24	1083.57
354.61	1088.54
354.98	1087.76
355.36	1093.73
355.73	1094.27
356.10	1092.52
356.47	1090.81
356.84	1092.26
357.22	1089.03
357.59	1088.26
357.96	1088.51
358.33	1089.31
358.70	1086.22
359.08	1086.78
359.45	1086.24
359.82	1086.01
360.19	1084.93
360.56	1090.64
360.94	1088.28
361.31	1088.37
361.68	1086.76
362.05	1086.03
362.42	1083.41
362.79	1082.12
363.16	1080.56
363.54	1082.12
363.91	1080.63
364.28	1080.20
364.65	1078.38
365.02	1080.44
365.39	1079.15
365.76	1080.84
366.14	1080.32
366.51	1081.47
366.88	1082.31
367.25	1086.59
367.62	1085.66
367.99	1081.84
368.36	1081.54
368.73	1079.46
369.10	1076.51
369.48	1077.75
369.85	1077.44
370.22	1076.67
370.59	1075.17
370.96	1074.77
371.33	1077.07
371.70	1080.79
372.07	1083.86
372.44	1085.42
372.81	1087.11
373.18	1087.60
373.55	1086.31
373.93	1082.92
374.30	1082.19
374.67	1080.65
375.04	1075.92
375.41	1077.98
375.78	1075.80
376.15	1075.05
376.52	1075.15
376.89	1078.43
377.26	1078.28
377.63	1082.85
378.00	1084.21
378.37	1086.31
378.74	1084.93
379.11	1083.27
379.48	1082.33
379.85	1083.22
380.22	1081.58
380.59	1079.10
380.96	1078.12
381.33	1077.82
381.70	1077.91
382.07	1078.85
382.44	1081.91
382.81	1084.04
383.18	1084.42
383.55	1084.30
383.92	1084.96
384.29	1085.45
384.66	1087.88
385.03	1090.08
385.40	1090.32
385.77	1089.00
386.14	1089.85
386.51	1088.42
386.88	1088.35
387.25	1087.72
387.62	1089.45
387.99	1088.07
388.36	1087.13
388.73	1085.77
389.10	1088.63
389.46	1085.80
389.83	1087.81
390.20	1089.03
390.57	1086.66
390.94	1084.23
391.31	1084.16
391.68	1083.76
392.05	1081.19
392.42	1085.38
392.79	1087.11
393.16	1089.31
393.53	1087.93
393.89	1090.27
394.26	1089.94
394.63	1090.55
395.00	1088.82
395.37	1090.95
395.74	1091.74
396.11	1089.26
396.48	1087.74
396.84	1090.81
397.21	1089.14
397.58	1088.75
397.95	1092.35
398.32	1092.66
398.69	1087.65
399.06	1089.05
399.42	1090.10
399.79	1092.37
400.16	1092.59
400.53	1096.99
400.90	1094.48
401.27	1093.71
401.64	1089.36
402.00	1089.14
402.37	1087.09
402.74	1089.89
403.11	1090.20
403.48	1088.63
403.84	1087.55
404.21	1089.17
404.58	1088.98
404.95	1090.55
405.32	1093.29
405.68	1091.72
406.05	1093.26
406.42	1092.59
406.79	1088.82
407.16	1089.31
407.52	1093.92
407.89	1091.58
408.26	1090.27
408.63	1092.77
408.99	1092.02
409.36	1090.62
409.73	1091.44
410.10	1094.95
410.47	1097.17
410.83	1099.86
411.20	1101.11
411.57	1100.82
411.94	1101.15
412.30	1101.18
412.67	1100.00
413.04	1100.36
413.40	1102.72
413.77	1103.87
414.14	1101.20
414.51	1101.53
414.87	1101.99
415.24	1103.16
415.61	1101.50
415.97	1104.48
416.34	1107.10
416.71	1104.83
417.08	1102.35
417.44	1102.13
417.81	1102.98
418.18	1101.92
418.54	1102.23
418.91	1103.59
419.28	1107.56
419.64	1105.34
420.01	1106.51
420.38	1108.97
420.74	1109.88
421.11	1108.59
421.48	1112.13
421.84	1113.09
422.21	1114.02
422.58	1115.50
422.94	1112.81
423.31	1113.16
423.68	1110.33
424.04	1109.69
424.41	1109.51
424.77	1112.69
425.14	1111.43
425.51	1112.92
425.87	1113.72
426.24	1113.09
426.61	1113.70
426.97	1112.50
427.34	1114.28
427.70	1114.96
428.07	1115.27
428.44	1113.23
428.80	1112.48
429.17	1112.64
429.53	1113.18
429.90	1110.54
430.27	1109.51
430.63	1111.64
431.00	1109.02
431.36	1110.63
431.73	1114.21
432.09	1117.89
432.46	1118.42
432.83	1120.02
433.19	1117.04
433.56	1112.88
433.92	1109.18
434.29	1108.08
434.65	1104.59
435.02	1105.95
435.38	1110.14
435.75	1112.43
436.11	1109.86
436.48	1115.10
436.84	1114.75
437.21	1114.40
437.57	1113.91
437.94	1117.37
438.30	1114.98
438.67	1113.11
439.03	1112.55
439.40	1112.64
439.76	1110.61
440.13	1111.71
440.49	1112.97
440.86	1113.81
441.22	1110.82
441.59	1112.62
441.95	1109.84
442.32	1110.51
442.68	1108.22
443.05	1110.40
443.41	1108.03
443.78	1106.70
444.14	1106.28
444.51	1109.27
444.87	1108.76
445.24	1110.21
445.60	1112.90
445.96	1113.79
446.33	1112.50
446.69	1115.31
447.06	1113.14
447.42	1113.88
447.79	1112.43
448.15	1109.04
448.51	1106.70
448.88	1108.01
449.24	1109.30
449.61	1107.85
449.97	1107.68
450.33	1106.25
450.70	1106.61
451.06	1107.07
451.43	1111.73
451.79	1113.18
452.15	1115.69
452.52	1116.48
452.88	1112.13
453.24	1110.40
453.61	1111.89
453.97	1112.08
454.34	1114.98
454.70	1114.75
455.06	1111.50
455.43	1111.15
455.79	1112.95
456.15	1108.66
456.52	1111.38
456.88	1111.57
457.24	1113.67
457.61	1109.65
457.97	1111.26
458.33	1109.32
458.70	1111.40
459.06	1109.18
459.42	1109.09
459.79	1109.48
460.15	1107.24
460.51	1107.66
460.88	1108.57
461.24	1110.65
461.60	1110.72
461.96	1114.59
462.33	1112.15
462.69	1113.18
463.05	1112.64
463.42	1116.18
463.78	1117.61
464.14	1121.91
464.50	1122.29
464.87	1122.03
465.23	1122.12
465.59	1124.23
465.95	1122.10
466.32	1124.63
466.68	1127.88
467.04	1125.63
467.40	1126.27
467.77	1131.27
468.13	1129.61
468.49	1131.16
468.85	1135.72
469.22	1135.58
469.58	1133.19
469.94	1133.15
470.30	1131.88
470.66	1130.15
471.03	1130.48
471.39	1133.52
471.75	1137.48
472.11	1141.88
472.47	1143.26
472.84	1148.59
473.20	1153.53
473.56	1157.93
473.92	1160.55
474.28	1165.31
474.65	1167.74
475.01	1170.08
475.37	1175.18
475.73	1179.63
476.09	1184.92
476.45	1189.20
476.81	1190.42
477.18	1192.50
477.54	1195.85
477.90	1198.00
478.26	1201.58
478.62	1209.14
478.98	1216.68
479.34	1223.94
479.71	1233.93
480.07	1243.01
480.43	1252.80
480.79	1260.73
481.15	1274.26
481.51	1285.94
481.87	1297.71
482.23	1310.33
482.59	1321.19
482.96	1330.41
483.32	1341.24
483.68	1353.11
484.04	1365.59
484.40	1378.88
484.76	1397.86
485.12	1417.01
485.48	1433.44
485.84	1450.48
486.20	1474.84
486.56	1496.44
486.92	1519.66
487.28	1548.33
487.64	1574.50
488.00	1604.16
488.37	1631.92
488.73	1659.60
489.09	1688.04
489.45	1721.58
489.81	1752.99
490.17	1790.53
490.53	1832.99
490.89	1874.49
491.25	1914.44
491.61	1958.68
491.97	1999.96
492.33	2044.18
492.69	2093.07
493.05	2147.98
493.41	2206.87
493.77	2273.13
494.13	2340.79
494.49	2407.83
494.85	2479.59
495.21	2548.38
495.57	2622.10
495.93	2701.24
496.29	2784.77
496.64	2880.36
497.00	2968.50
497.36	3060.20
497.72	3155.02
498.08	3262.50
498.44	3363.28
498.80	3490.28
499.16	3620.57
499.52	3760.16
499.88	3906.49
500.24	4065.11
500.60	4211.30
500.96	4366.46
501.32	4529.80
501.68	4692.49
502.03	4872.39
502.39	5073.04
502.75	5278.49
503.11	5500.14
503.47	5721.32
503.83	5941.08
504.19	6174.68
504.55	6434.69
504.91	6693.09
505.26	6965.22
505.62	7260.01
505.98	7582.17
506.34	7905.23
506.70	8251.65
507.06	8618.70
507.42	9009.40
507.78	9394.51
508.13	9795.66
508.49	10219.74
508.85	10663.69
509.21	11123.44
509.57	11627.01
509.93	12171.79
510.28	12720.53
510.64	13307.96
511.00	13896.09
511.36	14459.34
511.72	15005.69
512.07	15609.92
512.43	16206.74
512.79	16861.01
513.15	17573.37
513.51	18341.02
513.86	19113.28
514.22	19946.02
514.58	20739.44
514.94	21539.44
515.30	22315.00
515.65	23064.18
516.01	23842.38
516.37	24635.57
516.73	25395.56
517.08	26219.62
517.44	27041.87
517.80	27798.05
518.16	28641.09
518.51	29456.55
518.87	30236.07
519.23	31104.08
519.59	31975.35
519.94	32766.33
520.30	33591.86
520.66	34305.89
521.01	35031.41
521.37	35686.73
521.73	36253.00
522.09	36830.88
522.44	37480.96
522.80	37905.44
523.16	38275.93
523.51	38566.69
523.87	38834.38
524.23	39082.52
524.58	39346.51
524.94	39688.77
525.30	40025.34
525.65	40235.21
526.01	40305.34
526.37	40313.88
526.72	40281.02
527.08	40195.61
527.44	40029.67
527.79	39821.80
528.15	39629.97
528.51	39351.33
528.86	39087.23
529.22	38842.83
529.58	38614.13
529.93	38326.20
530.29	37972.55
530.65	37625.89
531.00	37288.62
531.36	36819.79
531.71	36311.84
532.07	35807.50
532.43	35265.23
532.78	34634.52
533.14	34109.82
533.49	33602.44
533.85	32976.86
534.21	32312.48
534.56	31768.58
534.92	31193.26
535.27	30564.96
535.63	30020.41
535.98	29475.44
536.34	28873.18
536.69	28256.40
537.05	27720.46
537.41	27206.18
537.76	26705.51
538.12	26172.83
538.47	25672.47
538.83	25153.53
539.18	24673.34
539.54	24204.60
539.89	23730.90
540.25	23260.48
540.60	22831.97
540.96	22362.04
541.31	21902.50
541.67	21524.03
542.02	21164.88
542.38	20791.82
542.73	20409.05
543.09	20059.65
543.44	19714.99
543.80	19347.20
544.15	18920.61
544.51	18590.15
544.86	18278.83
545.22	17921.29
545.57	17582.08
545.93	17270.02
546.28	16970.57
546.64	16638.33
546.99	16329.31
547.35	16015.09
547.70	15744.69
548.05	15445.57
548.41	15134.04
548.76	14813.32
549.12	14533.16
549.47	14243.31
549.83	13946.81
550.18	13645.14
550.53	13321.53
550.89	13024.52
551.24	12727.22
551.60	12435.69
551.95	12201.61
552.30	11992.04
552.66	11779.17
553.01	11548.41
553.37	11290.18
553.72	11015.66
554.07	10756.84
554.43	10468.23
554.78	10199.56
555.13	9958.39
555.49	9738.85
555.84	9543.44
556.19	9355.78
556.55	9168.35
556.90	8987.84
557.26	8794.75
557.61	8582.39
557.96	8356.88
558.32	8164.37
558.67	7955.48
559.02	7741.84
559.37	7566.16
559.73	7409.53
560.08	7253.86
560.43	7117.85
560.79	6996.52
561.14	6857.25
561.49	6717.36
561.85	6570.19
562.20	6429.03
562.55	6307.58
562.90	6170.87
563.26	6048.60
563.61	5919.64
563.96	5806.24
564.32	5685.47
564.67	5568.32
565.02	5456.49
565.37	5355.82
565.73	5246.57
566.08	5133.57
566.43	5031.26
566.78	4927.62
567.14	4828.13
567.49	4725.00
567.84	4627.68
568.19	4528.89
568.54	4436.46
568.90	4356.37
569.25	4284.37
569.60	4212.24
569.95	4146.52
570.31	4076.86
570.66	4000.05
571.01	3912.49
571.36	3829.23
571.71	3755.25
572.06	3687.89
572.42	3624.83
572.77	3573.95
573.12	3527.44
573.47	3470.29
573.82	3404.26
574.18	3349.14
574.53	3295.19
574.88	3234.92
575.23	3178.75
575.58	3135.80
575.93	3082.04
576.28	3019.03
576.64	2964.36
576.99	2911.37
577.34	2852.04
577.69	2799.73
578.04	2761.39
578.39	2716.07
578.74	2677.06
579.09	2643.73
579.44	2604.29
579.80	2561.34
580.15	2523.43
580.50	2482.75
580.85	2445.58
581.20	2410.68
581.55	2378.29
581.90	2349.69
582.25	2319.94
582.60	2284.53
582.95	2250.59
583.30	2213.35
583.65	2176.30
584.00	2144.31
584.35	2118.79
584.71	2088.74
585.06	2060.49
585.41	2036.17
585.76	2006.49
586.11	1976.86
586.46	1957.98
586.81	1940.07
587.16	1918.12
587.51	1903.86
587.86	1886.52
588.21	1863.02
588.56	1844.58
588.91	1826.69
589.26	1806.87
589.61	1788.97
589.96	1774.55
590.31	1759.22
590.66	1749.95
591.01	1733.68
591.36	1716.41
591.71	1696.89
592.06	1677.20
592.41	1655.20
592.76	1638.52
593.10	1627.28
593.45	1616.42
593.80	1602.64
594.15	1589.08
594.50	1577.29
594.85	1562.71
595.20	1548.22
595.55	1540.52
595.90	1529.91
596.25	1519.48
596.60	1507.21
596.95	1500.42
597.30	1490.38
597.64	1532.09
597.99	1526.78
598.34	1517.70
598.69	1511.42
599.04	1501.24
599.39	1442.80
599.74	1432.03
600.09	1425.41
600.44	1414.01
600.78	1408.79
601.13	1403.50
601.48	1397.07
601.83	1392.36
602.18	1385.50
602.53	1378.55
602.88	1368.86
603.22	1359.94
603.57	1351.78
603.92	1345.53
604.27	1338.37
604.62	1330.62
604.97	1329.26
605.31	1322.43
605.66	1318.21
606.01	1309.18
606.36	1302.84
606.71	1292.72
607.05	1290.13
607.40	1285.45
607.75	1281.05
608.10	1280.16
608.44	1277.98
608.79	1274.56
609.14	1268.97
609.49	1268.29
609.84	1264.03
610.18	1260.31
610.53	1256.52
610.88	1255.53
611.23	1253.01
611.57	1249.31
611.92	1245.61
612.27	1242.85
612.62	1236.18
612.96	1231.22
613.31	1228.31
613.66	1225.22
614.00	1219.77
614.35	1217.78
614.70	1210.41
615.05	1207.37
615.39	1202.61
615.74	1203.29
616.09	1198.94
616.43	1197.96
616.78	1190.44
617.13	1191.29
617.47	1185.86
617.82	1188.15
618.17	1188.13
618.51	1186.89
618.86	1182.58
619.21	1180.54
619.55	1176.96
619.90	1171.70
620.25	1173.59
620.59	1172.84
620.94	1167.72
621.29	1164.53
621.63	1169.28
621.98	1168.23
622.32	1165.96
622.67	1167.79
623.02	1166.83
623.36	1164.02
623.71	1160.39
624.05	1159.83
624.40	1156.67
624.75	1155.22
625.09	1150.91
625.44	1150.94
625.78	1145.74
626.13	1144.31
626.48	1140.59
626.82	1138.69
627.17	1137.24
627.51	1138.76
627.86	1138.32
628.20	1139.72
628.55	1137.69
628.89	1134.72
629.24	1134.55
629.58	1130.76
629.93	1130.78
630.28	1129.99
630.62	1130.67
630.97	1131.70
631.31	1133.99
631.66	1129.87
632.00	1127.88
632.35	1125.66
632.69	1121.75
633.04	1121.21
633.38	1122.68
633.73	1124.04
634.07	1123.53
634.42	1123.69
634.76	1125.10
635.11	1121.89
635.45	1121.21
635.79	1122.22
636.14	1122.75
636.48	1119.34
636.83	1117.49
637.17	1120.23
637.52	1119.78
637.86	1115.78
638.21	1114.77
638.55	1114.49
638.89	1109.77
639.24	1105.88
639.58	1106.63
639.93	1103.02
640.27	1104.24
640.61	1103.47
640.96	1106.58
641.30	1106.18
641.65	1110.84
641.99	1110.19
642.33	1112.36
642.68	1110.54
643.02	1109.88
643.37	1109.81
643.71	1111.57
644.05	1110.49
644.40	1108.83
644.74	1110.47
645.08	1107.61
645.43	1106.44
645.77	1105.72
646.11	1106.37
646.46	1106.28
646.80	1104.41
647.14	1101.60
647.49	1100.47
647.83	1100.57
648.17	1095.49
648.52	1099.12
648.86	1096.31
649.20	1099.16
649.55	1100.36
649.89	1102.21
650.23	1100.66
650.57	1103.02
650.92	1102.58
651.26	1098.23
651.60	1097.36
651.95	1096.59
652.29	1096.10
652.63	1092.89
652.97	1095.93
653.32	1095.86
653.66	1096.28
654.00	1102.58
654.34	1101.99
654.69	1102.04
655.03	1102.39
655.37	1102.67
655.71	1096.85
656.05	1099.72
656.40	1097.15
656.74	1096.63
657.08	1094.01
657.42	1095.77
657.76	1095.84
658.11	1093.87
658.45	1094.93
658.79	1096.14
659.13	1098.23
659.47	1097.01
659.82	1101.08
660.16	1101.48
660.50	1103.19
660.84	1100.26
661.18	1097.97
661.52	1096.59
661.87	1092.40
662.21	1091.67
662.55	1089.89
662.89	1090.39
663.23	1088.89
663.57	1092.30
663.91	1090.85
664.25	1090.06
664.60	1090.81
664.94	1093.50
665.28	1093.36
665.62	1092.33
665.96	1093.83
666.30	1093.71
666.64	1089.68
666.98	1086.31
667.32	1088.91
667.66	1089.68
668.01	1089.31
668.35	1091.42
668.69	1094.11
669.03	1090.64
669.37	1092.21
669.71	1091.30
670.05	1091.60
670.39	1089.64
670.73	1090.50
671.07	1089.38
671.41	1086.83
671.75	1083.79
672.09	1083.46
672.43	1085.05
672.77	1084.00
673.11	1087.69
673.45	1091.18
673.79	1092.00
674.13	1091.67
674.47	1091.79
674.81	1094.18
675.15	1092.87
675.49	1094.62
675.83	1094.20
676.17	1093.47
676.51	1092.54
676.85	1092.59
677.19	1088.00
677.53	1085.80
677.87	1087.37
678.21	1084.74
678.55	1085.14
678.89	1088.37
679.23	1092.54
679.57	1090.71
679.90	1088.89
680.24	1089.99
680.58	1091.25
680.92	1087.30
681.26	1089.07
681.60	1092.05
681.94	1089.12
682.28	1088.33
682.62	1089.99
682.96	1090.46
683.29	1088.58
683.63	1089.68
683.97	1090.88
684.31	1092.28
684.65	1089.26
684.99	1090.32
685.33	1092.23
685.67	1092.09
686.00	1089.54
686.34	1092.09
686.68	1090.81
687.02	1088.12
687.36	1087.30
687.70	1090.83
688.03	1089.29
688.37	1089.71
688.71	1091.25
689.05	1095.00
689.39	1094.69
689.72	1096.31
690.06	1096.47
690.40	1095.00
690.74	1091.30
691.08	1088.26
691.41	1086.20
691.75	1088.61
692.09	1086.57
692.43	1088.30
692.76	1087.11
693.10	1086.38
693.44	1086.64
693.78	1090.69
694.11	1090.41
694.45	1093.45
694.79	1093.17
695.13	1089.52
695.46	1090.81
695.80	1088.72
696.14	1088.51
696.48	1090.62
696.81	1091.11
697.15	1090.22
697.49	1090.06
697.82	1091.16
698.16	1089.19
698.50	1090.83
698.83	1089.64
699.17	1088.75
699.51	1086.27
699.84	1088.40
700.18	1086.66
700.52	1085.59
700.85	1091.20
701.19	1091.60
701.53	1091.30
701.86	1094.34
702.20	1092.47
702.54	1086.73
702.87	1088.63
703.21	1085.84
703.55	1082.36
703.88	1084.46
704.22	1085.00
704.55	1082.43
704.89	1085.42
705.23	1084.28
705.56	1085.80
705.90	1088.44
706.23	1091.20
706.57	1090.88
706.91	1093.94
707.24	1094.86
707.58	1092.37
707.91	1089.61
708.25	1088.82
708.58	1090.22
708.92	1091.37
709.26	1092.28
709.59	1095.11
709.93	1096.07
710.26	1093.73
710.60	1091.16
710.93	1095.30
711.27	1095.09
711.60	1093.43
711.94	1093.99
712.27	1089.82
712.61	1084.72
712.94	1082.69
713.28	1082.01
713.61	1084.21
713.95	1088.91
714.28	1089.92
714.62	1089.59
714.95	1089.31
715.29	1086.83
715.62	1084.11
715.96	1083.97
716.29	1085.38
716.63	1086.52
716.96	1087.51
717.29	1089.24
717.63	1090.81
717.96	1089.45
718.30	1089.78
718.63	1088.23
718.97	1089.33
719.30	1088.37
719.63	1089.57
719.97	1091.27
720.30	1090.62
720.64	1089.71
720.97	1092.09
721.30	1094.08
721.64	1093.64
721.97	1097.31
722.31	1099.68
722.64	1097.83
722.97	1097.13
723.31	1095.25
723.64	1093.92
723.97	1089.50
724.31	1088.82
724.64	1088.16
724.98	1088.72
725.31	1087.86
725.64	1091.60
725.98	1090.76
726.31	1088.02
726.64	1090.48
726.97	1088.09
727.31	1083.69
727.64	1084.04
727.97	1084.42
728.31	1083.43
728.64	1086.76
728.97	1089.50
729.31	1090.64
729.64	1092.70
729.97	1094.34
730.30	1095.04
730.64	1095.72
730.97	1097.66
731.30	1099.12
731.63	1097.62
731.97	1094.20
732.30	1092.66
732.63	1090.55
732.96	1088.49
733.30	1086.85
733.63	1088.26
733.96	1092.52
734.29	1089.26
734.63	1087.30
734.96	1087.79
735.29	1086.34
735.62	1080.48
735.95	1084.14
736.29	1085.61
736.62	1085.73
736.95	1087.60
737.28	1086.62
737.61	1086.31
737.94	1085.28
738.28	1084.51
738.61	1083.69
738.94	1084.32
739.27	1084.04
739.60	1085.05
739.93	1087.25
740.27	1087.11
740.60	1090.32
740.93	1089.50
741.26	1090.43
741.59	1089.71
741.92	1088.58
742.25	1087.95
742.58	1087.13
742.91	1085.84
743.25	1083.39
743.58	1085.75
743.91	1086.34
744.24	1085.47
744.57	1084.51
744.90	1084.74
745.23	1080.79
745.56	1080.72
745.89	1080.04
746.22	1082.87
746.55	1085.63
746.88	1088.12
747.21	1086.45
747.54	1086.15
747.87	1083.60
748.20	1082.99
748.53	1082.24
748.87	1082.59
749.20	1087.90
749.53	1088.49
749.86	1086.15
750.19	1088.93
750.52	1089.94
750.85	1089.64
751.18	1090.50
751.51	1093.83
751.84	1090.24
752.16	1089.36
752.49	1086.59
752.82	1083.39
753.15	1081.33
753.48	1080.51
753.81	1079.76
754.14	1080.46
754.47	1084.91
754.80	1082.33
755.13	1084.18
755.46	1084.86
755.79	1088.49
756.12	1086.27
756.45	1087.81
756.78	1091.20
757.11	1091.95
757.43	1088.98
757.76	1090.29
758.09	1089.40
758.42	1084.23
758.75	1081.61
759.08	1081.09
759.41	1078.78
759.74	1080.67
760.07	1083.71
760.39	1084.65
760.72	1082.03
761.05	1086.76
761.38	1086.15
761.71	1084.91
762.04	1085.87
762.36	1087.93
762.69	1081.63
763.02	1082.24
763.35	1084.28
763.68	1085.24
