SpectraSuite Data File
++++++++++++++++++++++++++++++++++++
Date: Mon Aug 26 10:26:43 PDT 2019
User: corrico
Dark Spectrum Present: No
Reference Spectrum Present: No
Number of Sampled Component Spectra: 1
Spectrometers: USB2+H06089
Integration Time (usec): 10000 (USB2+H06089)
Spectra Averaged: 20 (USB2+H06089)
Boxcar Smoothing: 2 (USB2+H06089)
Correct for Electrical Dark: No (USB2+H06089)
Strobe/Lamp Enabled: No (USB2+H06089)
Correct for Detector Non-linearity: No (USB2+H06089)
Correct for Stray Light: No (USB2+H06089)
Number of Pixels in Processed Spectrum: 2048
>>>>>Begin Processed Spectral Data<<<<<
339.70	1038.14
340.07	1038.14
340.45	998.36
340.82	975.30
341.19	950.37
341.57	924.35
341.94	913.60
342.31	910.00
342.69	909.93
343.06	906.37
343.43	903.84
343.81	904.50
344.18	905.65
344.55	907.57
344.93	913.82
345.30	922.43
345.67	929.82
346.04	935.61
346.42	937.99
346.79	945.41
347.16	951.52
347.54	959.92
347.91	971.74
348.28	986.04
348.65	998.85
349.03	1009.15
349.40	1015.77
349.77	1025.67
350.14	1029.41
350.52	1035.59
350.89	1044.32
351.26	1052.26
351.63	1057.69
352.01	1065.39
352.38	1067.54
352.75	1068.74
353.12	1072.69
353.50	1076.32
353.87	1078.99
354.24	1083.20
354.61	1085.54
354.98	1087.62
355.36	1089.00
355.73	1088.23
356.10	1087.16
356.47	1089.68
356.84	1090.34
357.22	1089.05
357.59	1089.85
357.96	1089.82
358.33	1085.89
358.70	1087.18
359.08	1089.17
359.45	1088.84
359.82	1088.65
360.19	1093.50
360.56	1091.27
360.94	1088.51
361.31	1088.72
361.68	1088.21
362.05	1081.89
362.42	1082.83
362.79	1083.69
363.16	1084.32
363.54	1083.41
363.91	1085.66
364.28	1083.93
364.65	1079.83
365.02	1081.63
365.39	1078.17
365.76	1079.36
366.14	1078.73
366.51	1079.90
366.88	1076.88
367.25	1078.10
367.62	1078.50
367.99	1079.29
368.36	1081.12
368.73	1078.68
369.10	1080.81
369.48	1080.46
369.85	1078.85
370.22	1076.51
370.59	1077.72
370.96	1077.14
371.33	1074.33
371.70	1073.93
372.07	1077.61
372.44	1076.53
372.81	1078.71
373.18	1081.14
373.55	1081.28
373.93	1078.75
374.30	1080.39
374.67	1081.49
375.04	1079.76
375.41	1081.73
375.78	1081.14
376.15	1081.47
376.52	1080.25
376.89	1083.90
377.26	1083.27
377.63	1084.44
378.00	1083.81
378.37	1082.54
378.74	1079.48
379.11	1079.17
379.48	1078.57
379.85	1078.36
380.22	1080.25
380.59	1080.44
380.96	1082.26
381.33	1082.92
381.70	1084.44
382.07	1080.25
382.44	1081.14
382.81	1082.47
383.18	1080.41
383.55	1077.86
383.92	1085.17
384.29	1084.53
384.66	1081.94
385.03	1082.73
385.40	1086.34
385.77	1081.54
386.14	1082.38
386.51	1082.05
386.88	1083.48
387.25	1083.34
387.62	1086.78
387.99	1086.76
388.36	1089.80
388.73	1089.66
389.10	1089.22
389.46	1089.33
389.83	1089.00
390.20	1087.88
390.57	1087.90
390.94	1088.12
391.31	1088.02
391.68	1092.14
392.05	1090.03
392.42	1088.37
392.79	1090.22
393.16	1088.40
393.53	1087.23
393.89	1090.32
394.26	1090.83
394.63	1089.47
395.00	1091.84
395.37	1093.55
395.74	1092.47
396.11	1095.86
396.48	1094.65
396.84	1091.63
397.21	1087.23
397.58	1087.69
397.95	1084.86
398.32	1083.71
398.69	1084.37
399.06	1084.53
399.42	1085.89
399.79	1085.84
400.16	1089.52
400.53	1092.77
400.90	1097.03
401.27	1095.82
401.64	1097.76
402.00	1098.95
402.37	1097.29
402.74	1095.58
403.11	1096.38
403.48	1094.32
403.84	1095.35
404.21	1096.38
404.58	1094.36
404.95	1095.96
405.32	1097.43
405.68	1096.21
406.05	1092.00
406.42	1095.89
406.79	1093.76
407.16	1093.12
407.52	1091.16
407.89	1091.86
408.26	1089.64
408.63	1091.81
408.99	1093.10
409.36	1093.50
409.73	1095.67
410.10	1101.32
410.47	1102.91
410.83	1104.55
411.20	1103.45
411.57	1105.97
411.94	1101.53
412.30	1098.95
412.67	1101.20
413.04	1108.31
413.40	1111.54
413.77	1112.50
414.14	1113.77
414.51	1109.65
414.87	1104.36
415.24	1097.55
415.61	1099.33
415.97	1100.33
416.34	1101.62
416.71	1105.72
417.08	1109.53
417.44	1108.22
417.81	1109.11
418.18	1109.95
418.54	1109.65
418.91	1108.85
419.28	1108.34
419.64	1109.51
420.01	1112.50
420.38	1113.95
420.74	1111.43
421.11	1111.19
421.48	1107.75
421.84	1105.67
422.21	1102.09
422.58	1110.37
422.94	1112.11
423.31	1113.37
423.68	1112.62
424.04	1111.52
424.41	1107.73
424.77	1108.97
425.14	1108.88
425.51	1112.85
425.87	1112.97
426.24	1112.74
426.61	1111.89
426.97	1115.43
427.34	1114.28
427.70	1115.87
428.07	1114.54
428.44	1116.27
428.80	1113.11
429.17	1112.88
429.53	1114.14
429.90	1114.75
430.27	1110.44
430.63	1109.84
431.00	1106.93
431.36	1105.06
431.73	1105.25
432.09	1109.51
432.46	1110.72
432.83	1114.40
433.19	1113.56
433.56	1113.72
433.92	1112.95
434.29	1114.24
434.65	1112.78
435.02	1113.72
435.38	1114.82
435.75	1115.41
436.11	1116.53
436.48	1117.54
436.84	1117.51
437.21	1116.69
437.57	1113.74
437.94	1110.96
438.30	1107.07
438.67	1108.20
439.03	1109.23
439.40	1110.40
439.76	1108.15
440.13	1109.48
440.49	1109.46
440.86	1111.87
441.22	1110.02
441.59	1111.43
441.95	1111.64
442.32	1113.60
442.68	1112.41
443.05	1113.23
443.41	1114.89
443.78	1114.73
444.14	1112.11
444.51	1107.66
444.87	1107.56
445.24	1103.56
445.60	1104.62
445.96	1103.94
446.33	1104.64
446.69	1107.19
447.06	1111.12
447.42	1106.75
447.79	1106.86
448.15	1108.92
448.51	1105.81
448.88	1104.78
449.24	1108.52
449.61	1105.65
449.97	1106.11
450.33	1106.84
450.70	1106.02
451.06	1106.39
451.43	1110.77
451.79	1110.96
452.15	1110.49
452.52	1113.28
452.88	1111.85
453.24	1110.44
453.61	1110.33
453.97	1109.53
454.34	1107.75
454.70	1109.53
455.06	1111.94
455.43	1111.01
455.79	1112.01
456.15	1112.69
456.52	1110.07
456.88	1108.27
457.24	1106.42
457.61	1108.74
457.97	1107.68
458.33	1109.18
458.70	1109.91
459.06	1116.34
459.42	1115.94
459.79	1117.28
460.15	1120.77
460.51	1121.56
460.88	1115.94
461.24	1118.14
461.60	1117.23
461.96	1117.32
462.33	1114.56
462.69	1116.93
463.05	1115.80
463.42	1118.10
463.78	1117.40
464.14	1121.51
464.50	1121.89
464.87	1121.12
465.23	1119.41
465.59	1119.99
465.95	1123.04
466.32	1127.13
466.68	1127.95
467.04	1127.86
467.40	1129.47
467.77	1129.31
468.13	1128.04
468.49	1132.75
468.85	1135.91
469.22	1136.82
469.58	1135.49
469.94	1136.24
470.30	1136.17
470.66	1138.02
471.03	1136.75
471.39	1139.28
471.75	1141.78
472.11	1139.35
472.47	1140.45
472.84	1146.21
473.20	1150.37
473.56	1155.73
473.92	1162.08
474.28	1164.88
474.65	1171.18
475.01	1171.74
475.37	1170.17
475.73	1174.41
476.09	1180.71
476.45	1179.65
476.81	1184.66
477.18	1192.69
477.54	1197.21
477.90	1202.71
478.26	1210.03
478.62	1218.53
478.98	1222.70
479.34	1229.74
479.71	1239.34
480.07	1248.65
480.43	1255.98
480.79	1266.89
481.15	1276.29
481.51	1284.86
481.87	1297.78
482.23	1310.79
482.59	1323.62
482.96	1338.65
483.32	1351.71
483.68	1364.04
484.04	1377.08
484.40	1389.60
484.76	1404.63
485.12	1422.41
485.48	1437.49
485.84	1455.95
486.20	1476.29
486.56	1494.74
486.92	1521.79
487.28	1553.46
487.64	1583.11
488.00	1615.74
488.37	1643.06
488.73	1671.89
489.09	1700.07
489.45	1734.01
489.81	1767.39
490.17	1811.29
490.53	1846.45
490.89	1890.12
491.25	1934.10
491.61	1980.49
491.97	2027.09
492.33	2083.52
492.69	2132.77
493.05	2186.27
493.41	2243.75
493.77	2311.98
494.13	2377.70
494.49	2447.69
494.85	2518.42
495.21	2592.26
495.57	2666.97
495.93	2751.23
496.29	2832.38
496.64	2928.38
497.00	3022.22
497.36	3120.71
497.72	3216.50
498.08	3325.88
498.44	3436.42
498.80	3565.24
499.16	3691.96
499.52	3824.76
499.88	3982.09
500.24	4135.80
500.60	4284.05
500.96	4449.29
501.32	4622.79
501.68	4787.52
502.03	4973.15
502.39	5185.74
502.75	5396.69
503.11	5624.66
503.47	5854.10
503.83	6096.56
504.19	6344.35
504.55	6618.10
504.91	6893.39
505.26	7176.08
505.62	7474.08
505.98	7788.83
506.34	8110.66
506.70	8457.64
507.06	8842.78
507.42	9248.21
507.78	9652.56
508.13	10080.15
508.49	10512.61
508.85	10972.60
509.21	11445.62
509.57	11958.99
509.93	12501.62
510.28	13101.22
510.64	13717.74
511.00	14337.77
511.36	14908.37
511.72	15480.23
512.07	16113.49
512.43	16700.99
512.79	17350.20
513.15	18091.73
513.51	18856.32
513.86	19589.89
514.22	20443.95
514.58	21248.58
514.94	22064.75
515.30	22911.15
515.65	23702.16
516.01	24507.28
516.37	25340.79
516.73	26129.69
517.08	26978.09
517.44	27823.70
517.80	28616.61
518.16	29455.29
518.51	30280.49
518.87	31006.25
519.23	31874.47
519.59	32752.71
519.94	33560.22
520.30	34429.47
520.66	35208.14
521.01	35988.57
521.37	36682.89
521.73	37328.24
522.09	37920.63
522.44	38564.30
522.80	38973.41
523.16	39291.95
523.51	39539.47
523.87	39821.45
524.23	40080.74
524.58	40344.68
524.94	40732.37
525.30	41094.66
525.65	41272.73
526.01	41316.47
526.37	41325.25
526.72	41258.38
527.08	41109.75
527.44	40927.19
527.79	40773.96
528.15	40644.99
528.51	40410.82
528.86	40193.43
529.22	39970.66
529.58	39709.60
529.93	39335.46
530.29	38909.44
530.65	38553.98
531.00	38221.63
531.36	37774.02
531.71	37325.44
532.07	36854.10
532.43	36257.45
532.78	35589.34
533.14	35016.57
533.49	34445.85
533.85	33825.26
534.21	33233.13
534.56	32681.13
534.92	32101.20
535.27	31492.96
535.63	30902.33
535.98	30283.51
536.34	29666.13
536.69	29033.53
537.05	28423.89
537.41	27914.12
537.76	27428.93
538.12	26877.07
538.47	26399.00
538.83	25944.44
539.18	25475.96
539.54	24990.34
539.89	24529.31
540.25	23999.31
540.60	23515.78
540.96	23002.64
541.31	22510.10
541.67	22102.99
542.02	21723.05
542.38	21307.14
542.73	20872.57
543.09	20492.70
543.44	20121.75
543.80	19763.04
544.15	19376.12
544.51	19055.85
544.86	18737.95
545.22	18373.18
545.57	18011.78
545.93	17658.50
546.28	17351.56
546.64	17042.03
546.99	16703.77
547.35	16381.92
547.70	16082.57
548.05	15764.58
548.41	15446.23
548.76	15141.93
549.12	14857.67
549.47	14583.71
549.83	14319.12
550.18	13993.95
550.53	13678.39
550.89	13396.29
551.24	13125.86
551.60	12824.80
551.95	12582.37
552.30	12359.27
552.66	12128.45
553.01	11866.61
553.37	11595.44
553.72	11316.84
554.07	11051.80
554.43	10765.15
554.78	10487.87
555.13	10243.14
555.49	10025.57
555.84	9834.74
556.19	9639.26
556.55	9445.82
556.90	9247.22
557.26	9036.04
557.61	8803.27
557.96	8560.70
558.32	8360.37
558.67	8161.17
559.02	7952.11
559.37	7769.57
559.73	7628.48
560.08	7465.49
560.43	7310.55
560.79	7195.67
561.14	7046.49
561.49	6887.61
561.85	6734.89
562.20	6586.38
562.55	6438.32
562.90	6311.86
563.26	6174.33
563.61	6061.17
563.96	5957.30
564.32	5839.31
564.67	5718.42
565.02	5604.23
565.37	5487.50
565.73	5367.83
566.08	5264.50
566.43	5161.79
566.78	5060.07
567.14	4957.56
567.49	4848.63
567.84	4741.88
568.19	4633.14
568.54	4542.11
568.90	4450.72
569.25	4374.23
569.60	4303.64
569.95	4234.24
570.31	4156.77
570.66	4081.52
571.01	3993.80
571.36	3902.68
571.71	3822.21
572.06	3757.87
572.42	3696.57
572.77	3641.57
573.12	3587.69
573.47	3534.07
573.82	3465.47
574.18	3393.14
574.53	3335.61
574.88	3279.84
575.23	3223.90
575.58	3181.84
575.93	3134.26
576.28	3080.03
576.64	3024.32
576.99	2967.87
577.34	2909.43
577.69	2857.89
578.04	2804.50
578.39	2753.99
578.74	2713.92
579.09	2675.61
579.44	2637.43
579.80	2599.24
580.15	2559.89
580.50	2522.61
580.85	2484.17
581.20	2447.73
581.55	2415.29
581.90	2388.12
582.25	2356.40
582.60	2315.00
582.95	2282.91
583.30	2249.44
583.65	2218.20
584.00	2183.39
584.35	2158.18
584.71	2126.05
585.06	2096.53
585.41	2062.20
585.76	2037.39
586.11	2011.90
586.46	1991.02
586.81	1969.96
587.16	1950.86
587.51	1933.03
587.86	1913.79
588.21	1891.95
588.56	1874.77
588.91	1853.94
589.26	1827.33
589.61	1807.64
589.96	1788.33
590.31	1766.00
590.66	1748.87
591.01	1739.95
591.36	1725.75
591.71	1710.32
592.06	1694.83
592.41	1681.56
592.76	1664.43
593.10	1648.04
593.45	1634.09
593.80	1619.86
594.15	1604.11
594.50	1589.39
594.85	1575.70
595.20	1560.97
595.55	1550.53
595.90	1539.18
596.25	1530.76
596.60	1521.86
596.95	1514.07
597.30	1501.34
597.64	1542.41
597.99	1531.95
598.34	1520.79
598.69	1513.44
599.04	1508.26
599.39	1448.23
599.74	1437.37
600.09	1427.09
600.44	1416.49
600.78	1405.44
601.13	1400.09
601.48	1394.51
601.83	1391.21
602.18	1386.98
602.53	1383.26
602.88	1373.82
603.22	1367.86
603.57	1359.29
603.92	1353.58
604.27	1346.53
604.62	1340.35
604.97	1331.51
605.31	1326.31
605.66	1318.52
606.01	1310.16
606.36	1303.47
606.71	1298.25
607.05	1292.82
607.40	1289.28
607.75	1287.69
608.10	1284.60
608.44	1280.13
608.79	1275.22
609.14	1270.96
609.49	1262.98
609.84	1259.82
610.18	1258.39
610.53	1260.26
610.88	1258.44
611.23	1259.82
611.57	1257.05
611.92	1253.75
612.27	1248.11
612.62	1240.23
612.96	1237.70
613.31	1235.15
613.66	1225.90
614.00	1218.69
614.35	1219.44
614.70	1215.21
615.05	1212.14
615.39	1211.27
615.74	1209.43
616.09	1207.20
616.43	1204.32
616.78	1198.89
617.13	1196.60
617.47	1192.74
617.82	1187.56
618.17	1181.15
618.51	1181.92
618.86	1181.46
619.21	1180.36
619.55	1178.58
619.90	1177.97
620.25	1175.07
620.59	1173.31
620.94	1169.57
621.29	1166.57
621.63	1167.76
621.98	1167.04
622.32	1162.99
622.67	1162.59
623.02	1163.41
623.36	1158.40
623.71	1153.88
624.05	1155.05
624.40	1157.86
624.75	1154.09
625.09	1155.36
625.44	1152.64
625.78	1150.58
626.13	1143.68
626.48	1142.18
626.82	1139.42
627.17	1141.15
627.51	1140.40
627.86	1141.46
628.20	1139.40
628.55	1140.71
628.89	1140.03
629.24	1138.53
629.58	1140.85
629.93	1142.28
630.28	1138.18
630.62	1136.45
630.97	1134.64
631.31	1128.14
631.66	1124.51
632.00	1122.99
632.35	1122.83
632.69	1123.67
633.04	1124.21
633.38	1126.27
633.73	1125.00
634.07	1123.78
634.42	1125.19
634.76	1124.14
635.11	1121.14
635.45	1119.78
635.79	1120.58
636.14	1118.73
636.48	1116.15
636.83	1117.11
637.17	1120.67
637.52	1118.66
637.86	1115.57
638.21	1117.14
638.55	1118.85
638.89	1117.86
639.24	1114.82
639.58	1114.24
639.93	1114.56
640.27	1111.29
640.61	1110.51
640.96	1113.77
641.30	1114.87
641.65	1111.17
641.99	1107.80
642.33	1104.29
642.68	1102.51
643.02	1100.94
643.37	1104.66
643.71	1109.53
644.05	1108.76
644.40	1107.52
644.74	1104.71
645.08	1104.43
645.43	1101.39
645.77	1105.20
646.11	1105.22
646.46	1108.41
646.80	1106.14
647.14	1103.52
647.49	1101.20
647.83	1099.65
648.17	1097.55
648.52	1096.05
648.86	1097.41
649.20	1097.76
649.55	1097.90
649.89	1099.26
650.23	1099.79
650.57	1101.64
650.92	1102.60
651.26	1105.51
651.60	1102.06
651.95	1101.25
652.29	1101.20
652.63	1099.70
652.97	1096.28
653.32	1097.52
653.66	1099.68
654.00	1100.47
654.34	1099.70
654.69	1101.06
655.03	1106.32
655.37	1104.15
655.71	1102.46
656.05	1102.65
656.40	1098.34
656.74	1094.74
657.08	1097.55
657.42	1095.44
657.76	1093.31
658.11	1097.48
658.45	1099.23
658.79	1095.70
659.13	1098.09
659.47	1102.04
659.82	1100.85
660.16	1098.51
660.50	1096.80
660.84	1094.34
661.18	1091.72
661.52	1091.23
661.87	1090.08
662.21	1094.39
662.55	1093.71
662.89	1095.04
663.23	1094.48
663.57	1091.02
663.91	1089.59
664.25	1092.42
664.60	1090.48
664.94	1089.57
665.28	1092.23
665.62	1092.73
665.96	1088.84
666.30	1087.25
666.64	1092.33
666.98	1093.08
667.32	1088.72
667.66	1092.00
668.01	1094.95
668.35	1091.46
668.69	1091.42
669.03	1096.33
669.37	1094.22
669.71	1093.47
670.05	1092.80
670.39	1091.18
670.73	1090.99
671.07	1091.95
671.41	1090.48
671.75	1090.74
672.09	1090.50
672.43	1091.79
672.77	1092.28
673.11	1092.87
673.45	1092.84
673.79	1094.83
674.13	1094.01
674.47	1094.06
674.81	1095.46
675.15	1095.67
675.49	1096.19
675.83	1096.10
676.17	1094.72
676.51	1096.28
676.85	1094.67
677.19	1094.93
677.53	1093.78
677.87	1095.00
678.21	1094.67
678.55	1095.37
678.89	1095.42
679.23	1095.46
679.57	1095.86
679.90	1093.69
680.24	1093.33
680.58	1088.23
680.92	1086.31
681.26	1085.99
681.60	1086.22
681.94	1087.34
682.28	1089.89
682.62	1093.36
682.96	1091.58
683.29	1092.73
683.63	1093.73
683.97	1092.59
684.31	1089.24
684.65	1089.12
684.99	1088.56
685.33	1089.26
685.67	1089.57
686.00	1088.30
686.34	1089.12
686.68	1087.95
687.02	1084.81
687.36	1085.89
687.70	1087.90
688.03	1085.42
688.37	1084.63
688.71	1083.76
689.05	1086.55
689.39	1087.27
689.72	1088.98
690.06	1092.68
690.40	1094.93
690.74	1091.65
691.08	1090.48
691.41	1089.00
691.75	1086.99
692.09	1087.32
692.43	1089.50
692.76	1091.23
693.10	1094.08
693.44	1093.87
693.78	1093.31
694.11	1092.45
694.45	1090.55
694.79	1087.74
695.13	1085.84
695.46	1087.16
695.80	1086.29
696.14	1088.30
696.48	1092.52
696.81	1094.08
697.15	1094.32
697.49	1096.63
697.82	1094.53
698.16	1091.93
698.50	1090.74
698.83	1089.87
699.17	1090.83
699.51	1093.59
699.84	1091.32
700.18	1089.89
700.52	1088.35
700.85	1084.46
701.19	1082.47
701.53	1085.52
701.86	1086.48
702.20	1088.14
702.54	1089.59
702.87	1089.96
703.21	1090.46
703.55	1090.74
703.88	1087.83
704.22	1084.56
704.55	1082.71
704.89	1079.97
705.23	1081.98
705.56	1083.69
705.90	1087.86
706.23	1088.68
706.57	1089.94
706.91	1088.04
707.24	1086.80
707.58	1084.98
707.91	1082.85
708.25	1082.97
708.58	1083.34
708.92	1085.59
709.26	1087.04
709.59	1089.85
709.93	1088.33
710.26	1088.75
710.60	1085.49
710.93	1084.96
711.27	1086.48
711.60	1086.71
711.94	1085.49
712.27	1085.94
712.61	1084.72
712.94	1082.17
713.28	1084.00
713.61	1083.29
713.95	1084.16
714.28	1086.76
714.62	1085.19
714.95	1084.53
715.29	1084.93
715.62	1085.84
715.96	1087.62
716.29	1087.37
716.63	1087.11
716.96	1088.75
717.29	1088.61
717.63	1085.66
717.96	1090.41
718.30	1091.98
718.63	1091.77
718.97	1090.62
719.30	1089.82
719.63	1086.45
719.97	1086.85
720.30	1084.93
720.64	1084.56
720.97	1082.12
721.30	1082.08
721.64	1081.87
721.97	1083.39
722.31	1087.34
722.64	1089.05
722.97	1088.04
723.31	1084.79
723.64	1088.30
723.97	1086.71
724.31	1087.93
724.64	1088.07
724.98	1088.26
725.31	1084.49
725.64	1082.76
725.98	1081.98
726.31	1085.99
726.64	1088.84
726.97	1088.68
727.31	1086.59
727.64	1088.00
727.97	1087.65
728.31	1086.10
728.64	1086.57
728.97	1087.81
729.31	1087.44
729.64	1084.96
729.97	1089.17
730.30	1087.67
730.64	1089.61
730.97	1086.43
731.30	1087.11
731.63	1084.86
731.97	1086.06
732.30	1085.89
732.63	1086.43
732.96	1086.50
733.30	1086.97
733.63	1087.27
733.96	1086.62
734.29	1088.70
734.63	1089.68
734.96	1089.61
735.29	1089.99
735.62	1090.74
735.95	1088.77
736.29	1089.14
736.62	1087.95
736.95	1089.80
737.28	1088.98
737.61	1090.78
737.94	1088.96
738.28	1088.56
738.61	1087.88
738.94	1089.17
739.27	1091.46
739.60	1093.92
739.93	1094.55
740.27	1093.22
740.60	1092.80
740.93	1086.99
741.26	1085.89
741.59	1086.45
741.92	1086.62
742.25	1084.39
742.58	1087.48
742.91	1086.03
743.25	1086.13
743.58	1085.73
743.91	1086.41
744.24	1087.25
744.57	1087.97
744.90	1086.90
745.23	1085.94
745.56	1090.13
745.89	1091.06
746.22	1091.25
746.55	1089.50
746.88	1089.82
747.21	1087.20
747.54	1087.04
747.87	1088.37
748.20	1089.03
748.53	1088.98
748.87	1088.12
749.20	1087.37
749.53	1084.81
749.86	1082.66
750.19	1082.08
750.52	1084.84
750.85	1085.61
751.18	1090.43
751.51	1092.07
751.84	1095.30
752.16	1092.37
752.49	1088.58
752.82	1083.90
753.15	1081.09
753.48	1079.57
753.81	1082.05
754.14	1084.32
754.47	1083.13
754.80	1086.24
755.13	1083.95
755.46	1082.22
755.79	1080.95
756.12	1082.22
756.45	1080.88
756.78	1081.66
757.11	1079.01
757.43	1080.56
757.76	1083.13
758.09	1085.99
758.42	1085.05
758.75	1089.26
759.08	1089.17
759.41	1087.58
759.74	1089.43
760.07	1092.00
760.39	1090.76
760.72	1090.32
761.05	1089.24
761.38	1086.55
761.71	1086.41
762.04	1089.14
762.36	1090.48
762.69	1087.74
763.02	1088.75
763.35	1088.54
