SpectraSuite Data File
++++++++++++++++++++++++++++++++++++
Date: Mon Aug 26 10:26:53 PDT 2019
User: corrico
Dark Spectrum Present: No
Reference Spectrum Present: No
Number of Sampled Component Spectra: 1
Spectrometers: USB2+H06089
Integration Time (usec): 10000 (USB2+H06089)
Spectra Averaged: 20 (USB2+H06089)
Boxcar Smoothing: 2 (USB2+H06089)
Correct for Electrical Dark: No (USB2+H06089)
Strobe/Lamp Enabled: No (USB2+H06089)
Correct for Detector Non-linearity: No (USB2+H06089)
Correct for Stray Light: No (USB2+H06089)
Number of Pixels in Processed Spectrum: 2048
>>>>>Begin Processed Spectral Data<<<<<
339.70	1024.22
340.07	1024.22
340.45	993.07
340.82	971.30
341.19	948.67
341.57	925.47
341.94	918.85
342.31	912.60
342.69	909.65
343.06	908.46
343.43	905.72
343.81	903.05
344.18	904.29
344.55	908.03
344.93	914.00
345.30	921.96
345.67	926.48
346.04	936.61
346.42	942.42
346.79	950.07
347.16	957.63
347.54	966.92
347.91	975.16
348.28	987.57
348.65	996.97
349.03	1009.59
349.40	1020.80
349.77	1026.61
350.14	1033.88
350.52	1042.54
350.89	1048.07
351.26	1055.23
351.63	1060.03
352.01	1065.39
352.38	1069.53
352.75	1073.30
353.12	1078.40
353.50	1084.84
353.87	1087.20
354.24	1090.50
354.61	1090.46
354.98	1094.76
355.36	1095.75
355.73	1098.23
356.10	1094.15
356.47	1094.27
356.84	1088.70
357.22	1087.97
357.59	1086.15
357.96	1088.82
358.33	1089.82
358.70	1090.71
359.08	1090.83
359.45	1093.31
359.82	1092.54
360.19	1095.56
360.56	1093.87
360.94	1091.34
361.31	1087.58
361.68	1088.79
362.05	1082.17
362.42	1081.94
362.79	1084.35
363.16	1084.77
363.54	1081.56
363.91	1084.32
364.28	1085.77
364.65	1082.31
365.02	1082.24
365.39	1082.33
365.76	1079.85
366.14	1077.09
366.51	1078.33
366.88	1078.52
367.25	1076.83
367.62	1082.10
367.99	1083.53
368.36	1083.83
368.73	1083.06
369.10	1083.11
369.48	1079.92
369.85	1081.49
370.22	1083.34
370.59	1081.35
370.96	1081.51
371.33	1082.29
371.70	1078.33
372.07	1074.03
372.44	1074.89
372.81	1074.33
373.18	1071.33
373.55	1074.61
373.93	1074.56
374.30	1079.27
374.67	1081.33
375.04	1083.01
375.41	1082.24
375.78	1080.20
376.15	1075.43
376.52	1073.39
376.89	1074.80
377.26	1072.13
377.63	1074.03
378.00	1075.94
378.37	1076.46
378.74	1077.56
379.11	1081.89
379.48	1086.43
379.85	1088.00
380.22	1089.05
380.59	1085.80
380.96	1083.88
381.33	1081.19
381.70	1081.12
382.07	1083.90
382.44	1084.00
382.81	1085.17
383.18	1086.85
383.55	1086.08
383.92	1084.81
384.29	1085.03
384.66	1085.70
385.03	1084.81
385.40	1083.18
385.77	1084.46
386.14	1086.27
386.51	1086.48
386.88	1087.67
387.25	1090.83
387.62	1091.58
387.99	1092.05
388.36	1091.20
388.73	1089.14
389.10	1086.62
389.46	1087.93
389.83	1088.04
390.20	1087.74
390.57	1091.65
390.94	1094.25
391.31	1091.37
391.68	1090.46
392.05	1090.74
392.42	1087.04
392.79	1086.20
393.16	1088.91
393.53	1089.92
393.89	1092.07
394.26	1096.49
394.63	1098.90
395.00	1096.28
395.37	1096.96
395.74	1096.82
396.11	1096.00
396.48	1093.24
396.84	1094.18
397.21	1090.95
397.58	1091.20
397.95	1089.57
398.32	1087.67
398.69	1086.27
399.06	1090.34
399.42	1089.03
399.79	1087.88
400.16	1088.42
400.53	1089.43
400.90	1089.12
401.27	1088.70
401.64	1091.72
402.00	1093.94
402.37	1095.42
402.74	1094.60
403.11	1096.92
403.48	1097.57
403.84	1102.21
404.21	1103.21
404.58	1103.49
404.95	1100.80
405.32	1098.95
405.68	1096.17
406.05	1091.23
406.42	1095.89
406.79	1097.15
407.16	1098.76
407.52	1097.59
407.89	1100.71
408.26	1095.51
408.63	1096.56
408.99	1093.69
409.36	1095.09
409.73	1098.04
410.10	1101.08
410.47	1101.76
410.83	1103.87
411.20	1100.47
411.57	1098.69
411.94	1096.07
412.30	1095.56
412.67	1095.44
413.04	1098.69
413.40	1098.32
413.77	1101.43
414.14	1104.57
414.51	1105.51
414.87	1104.52
415.24	1102.56
415.61	1097.88
415.97	1097.85
416.34	1100.87
416.71	1102.74
417.08	1105.60
417.44	1111.29
417.81	1109.32
418.18	1110.21
418.54	1110.02
418.91	1109.81
419.28	1111.10
419.64	1111.52
420.01	1107.42
420.38	1108.31
420.74	1112.62
421.11	1110.63
421.48	1114.26
421.84	1116.20
422.21	1115.43
422.58	1113.79
422.94	1114.28
423.31	1113.02
423.68	1114.98
424.04	1118.50
424.41	1117.75
424.77	1118.40
425.14	1116.83
425.51	1116.53
425.87	1114.59
426.24	1114.61
426.61	1113.56
426.97	1113.23
427.34	1112.81
427.70	1112.01
428.07	1112.01
428.44	1113.02
428.80	1111.71
429.17	1111.92
429.53	1112.41
429.90	1113.70
430.27	1114.77
430.63	1115.80
431.00	1111.78
431.36	1112.90
431.73	1114.75
432.09	1113.14
432.46	1113.77
432.83	1118.87
433.19	1115.90
433.56	1112.18
433.92	1113.16
434.29	1114.02
434.65	1112.50
435.02	1114.87
435.38	1114.33
435.75	1113.86
436.11	1112.13
436.48	1111.26
436.84	1108.13
437.21	1108.74
437.57	1109.11
437.94	1112.62
438.30	1112.64
438.67	1113.11
439.03	1109.16
439.40	1108.31
439.76	1104.50
440.13	1102.04
440.49	1104.33
440.86	1111.12
441.22	1113.91
441.59	1113.60
441.95	1116.34
442.32	1113.37
442.68	1108.88
443.05	1105.88
443.41	1108.10
443.78	1107.66
444.14	1111.33
444.51	1111.78
444.87	1111.40
445.24	1110.23
445.60	1109.04
445.96	1106.46
446.33	1105.76
446.69	1104.92
447.06	1104.87
447.42	1106.98
447.79	1110.16
448.15	1112.32
448.51	1112.67
448.88	1115.83
449.24	1115.03
449.61	1112.62
449.97	1112.22
450.33	1112.20
450.70	1109.16
451.06	1110.26
451.43	1110.70
451.79	1109.18
452.15	1108.92
452.52	1108.59
452.88	1109.16
453.24	1106.42
453.61	1107.05
453.97	1107.54
454.34	1110.79
454.70	1106.23
455.06	1110.72
455.43	1113.98
455.79	1113.86
456.15	1112.32
456.52	1116.48
456.88	1114.82
457.24	1115.90
457.61	1115.20
457.97	1113.58
458.33	1114.12
458.70	1115.36
459.06	1112.27
459.42	1117.61
459.79	1120.25
460.15	1117.42
460.51	1118.12
460.88	1117.93
461.24	1115.55
461.60	1113.21
461.96	1114.91
462.33	1116.13
462.69	1118.57
463.05	1119.31
463.42	1122.33
463.78	1121.05
464.14	1118.82
464.50	1120.30
464.87	1120.84
465.23	1122.50
465.59	1124.09
465.95	1124.70
466.32	1123.13
466.68	1121.19
467.04	1120.18
467.40	1123.88
467.77	1127.13
468.13	1129.54
468.49	1132.91
468.85	1138.34
469.22	1136.40
469.58	1139.33
469.94	1140.12
470.30	1143.23
470.66	1139.12
471.03	1145.22
471.39	1145.08
471.75	1147.07
472.11	1147.49
472.47	1151.45
472.84	1148.36
473.20	1150.12
473.56	1148.76
473.92	1151.31
474.28	1155.43
474.65	1162.08
475.01	1166.94
475.37	1176.40
475.73	1180.59
476.09	1182.53
476.45	1186.49
476.81	1192.95
477.18	1195.92
477.54	1201.94
477.90	1209.82
478.26	1211.77
478.62	1214.90
478.98	1221.71
479.34	1227.59
479.71	1238.35
480.07	1250.50
480.43	1258.79
480.79	1266.56
481.15	1277.60
481.51	1284.79
481.87	1294.27
482.23	1305.18
482.59	1318.82
482.96	1332.33
483.32	1345.53
483.68	1364.11
484.04	1378.36
484.40	1395.33
484.76	1412.44
485.12	1429.55
485.48	1445.19
485.84	1466.79
486.20	1483.60
486.56	1504.96
486.92	1529.94
487.28	1554.49
487.64	1579.44
488.00	1606.40
488.37	1631.19
488.73	1659.44
489.09	1689.96
489.45	1724.81
489.81	1765.86
490.17	1806.59
490.53	1843.78
490.89	1883.71
491.25	1924.93
491.61	1964.32
491.97	2012.35
492.33	2068.24
492.69	2122.02
493.05	2177.45
493.41	2239.49
493.77	2299.62
494.13	2361.67
494.49	2426.13
494.85	2493.00
495.21	2567.12
495.57	2641.04
495.93	2717.24
496.29	2803.47
496.64	2901.70
497.00	2995.84
497.36	3098.47
497.72	3204.26
498.08	3315.39
498.44	3428.02
498.80	3551.37
499.16	3678.71
499.52	3812.48
499.88	3961.87
500.24	4113.89
500.60	4265.30
500.96	4424.08
501.32	4593.77
501.68	4761.00
502.03	4945.22
502.39	5150.04
502.75	5358.98
503.11	5584.21
503.47	5817.31
503.83	6064.09
504.19	6308.42
504.55	6579.04
504.91	6853.63
505.26	7130.96
505.62	7425.05
505.98	7749.96
506.34	8078.12
506.70	8432.18
507.06	8822.23
507.42	9228.33
507.78	9637.60
508.13	10056.49
508.49	10488.15
508.85	10938.28
509.21	11407.56
509.57	11918.45
509.93	12466.23
510.28	13050.71
510.64	13663.11
511.00	14267.25
511.36	14840.00
511.72	15423.97
512.07	16062.21
512.43	16681.23
512.79	17343.32
513.15	18073.64
513.51	18808.08
513.86	19552.62
514.22	20379.93
514.58	21173.84
514.94	21998.37
515.30	22876.28
515.65	23673.40
516.01	24476.32
516.37	25313.83
516.73	26071.32
517.08	26909.05
517.44	27742.25
517.80	28533.52
518.16	29369.53
518.51	30208.12
518.87	30935.00
519.23	31792.34
519.59	32673.08
519.94	33480.97
520.30	34340.93
520.66	35112.23
521.01	35894.64
521.37	36566.89
521.73	37228.58
522.09	37809.55
522.44	38448.57
522.80	38848.91
523.16	39203.22
523.51	39445.21
523.87	39756.90
524.23	40024.85
524.58	40293.73
524.94	40657.80
525.30	41010.75
525.65	41185.94
526.01	41231.04
526.37	41245.72
526.72	41184.25
527.08	41062.57
527.44	40877.53
527.79	40708.61
528.15	40597.95
528.51	40394.88
528.86	40173.47
529.22	39960.39
529.58	39729.05
529.93	39367.55
530.29	38903.31
530.65	38531.72
531.00	38170.23
531.36	37713.22
531.71	37240.61
532.07	36778.92
532.43	36182.06
532.78	35554.73
533.14	35013.81
533.49	34452.43
533.85	33846.11
534.21	33239.00
534.56	32682.63
534.92	32084.30
535.27	31476.13
535.63	30881.59
535.98	30276.19
536.34	29631.53
536.69	28973.05
537.05	28350.72
537.41	27833.09
537.76	27349.79
538.12	26805.78
538.47	26335.10
538.83	25885.51
539.18	25415.64
539.54	24944.24
539.89	24489.42
540.25	23971.35
540.60	23502.58
540.96	23003.44
541.31	22514.01
541.67	22111.70
542.02	21738.19
542.38	21307.98
542.73	20864.40
543.09	20474.59
543.44	20103.80
543.80	19734.41
544.15	19319.69
544.51	18993.17
544.86	18670.27
545.22	18316.63
545.57	17955.14
545.93	17602.35
546.28	17288.02
546.64	16955.38
546.99	16606.97
547.35	16270.87
547.70	16002.01
548.05	15693.20
548.41	15394.92
548.76	15102.92
549.12	14829.00
549.47	14538.73
549.83	14283.42
550.18	13969.42
550.53	13638.49
550.89	13352.99
551.24	13084.25
551.60	12762.99
551.95	12515.13
552.30	12291.28
552.66	12052.78
553.01	11791.97
553.37	11534.00
553.72	11261.14
554.07	11003.51
554.43	10724.10
554.78	10454.28
555.13	10209.86
555.49	9984.70
555.84	9790.32
556.19	9605.11
556.55	9418.39
556.90	9230.82
557.26	9022.34
557.61	8784.41
557.96	8541.69
558.32	8334.37
558.67	8123.39
559.02	7910.94
559.37	7735.96
559.73	7586.57
560.08	7423.76
560.43	7277.17
560.79	7160.35
561.14	7009.86
561.49	6843.42
561.85	6698.57
562.20	6545.57
562.55	6406.49
562.90	6278.63
563.26	6161.13
563.61	6045.84
563.96	5938.50
564.32	5815.93
564.67	5697.87
565.02	5577.15
565.37	5462.74
565.73	5353.37
566.08	5251.16
566.43	5144.92
566.78	5044.60
567.14	4939.05
567.49	4830.89
567.84	4728.44
568.19	4631.66
568.54	4536.68
568.90	4447.13
569.25	4370.39
569.60	4293.53
569.95	4213.17
570.31	4141.13
570.66	4066.05
571.01	3977.41
571.36	3888.85
571.71	3813.79
572.06	3748.06
572.42	3685.83
572.77	3630.71
573.12	3574.30
573.47	3516.54
573.82	3449.95
574.18	3378.00
574.53	3317.52
574.88	3265.23
575.23	3215.87
575.58	3168.41
575.93	3127.03
576.28	3073.73
576.64	3016.60
576.99	2955.21
577.34	2895.87
577.69	2844.17
578.04	2794.60
578.39	2751.77
578.74	2719.05
579.09	2683.52
579.44	2641.22
579.80	2602.47
580.15	2556.89
580.50	2512.92
580.85	2474.63
581.20	2438.93
581.55	2411.81
581.90	2385.68
582.25	2355.77
582.60	2317.43
582.95	2286.02
583.30	2242.91
583.65	2207.43
584.00	2169.33
584.35	2143.72
584.71	2110.62
585.06	2084.76
585.41	2053.02
585.76	2030.70
586.11	2002.33
586.46	1982.50
586.81	1964.39
587.16	1946.76
587.51	1927.55
587.86	1911.80
588.21	1891.48
588.56	1868.05
588.91	1851.81
589.26	1831.63
589.61	1810.38
589.96	1790.04
590.31	1770.97
590.66	1750.86
591.01	1738.57
591.36	1726.15
591.71	1708.57
592.06	1696.37
592.41	1679.31
592.76	1664.26
593.10	1645.21
593.45	1632.31
593.80	1613.54
594.15	1602.49
594.50	1583.89
594.85	1572.23
595.20	1561.65
595.55	1551.63
595.90	1542.93
596.25	1532.42
596.60	1522.40
596.95	1508.85
597.30	1499.07
597.64	1537.26
597.99	1530.31
598.34	1524.95
598.69	1520.55
599.04	1511.52
599.39	1451.18
599.74	1441.82
600.09	1432.20
600.44	1421.85
600.78	1413.99
601.13	1411.02
601.48	1405.80
601.83	1395.76
602.18	1388.73
602.53	1384.08
602.88	1374.20
603.22	1366.05
603.57	1357.44
603.92	1347.80
604.27	1343.12
604.62	1334.25
604.97	1325.98
605.31	1319.52
605.66	1314.98
606.01	1306.60
606.36	1303.19
606.71	1297.15
607.05	1294.29
607.40	1292.16
607.75	1289.33
608.10	1285.45
608.44	1285.94
608.79	1286.26
609.14	1282.85
609.49	1275.64
609.84	1270.63
610.18	1263.61
610.53	1257.57
610.88	1251.67
611.23	1249.75
611.57	1245.19
611.92	1243.22
612.27	1236.34
612.62	1231.10
612.96	1227.66
613.31	1226.18
613.66	1220.26
614.00	1216.31
614.35	1215.60
614.70	1213.36
615.05	1209.05
615.39	1207.01
615.74	1205.56
616.09	1205.52
616.43	1202.33
616.78	1199.83
617.13	1198.64
617.47	1195.83
617.82	1189.34
618.17	1187.03
618.51	1184.69
618.86	1181.78
619.21	1182.09
619.55	1180.82
619.90	1178.76
620.25	1177.85
620.59	1174.34
620.94	1171.23
621.29	1172.40
621.63	1170.60
621.98	1170.74
622.32	1167.06
622.67	1165.10
623.02	1159.88
623.36	1152.90
623.71	1148.73
624.05	1149.74
624.40	1146.46
624.75	1145.88
625.09	1149.53
625.44	1148.01
625.78	1148.20
626.13	1148.10
626.48	1147.78
626.82	1145.81
627.17	1143.73
627.51	1143.35
627.86	1140.68
628.20	1137.66
628.55	1137.76
628.89	1139.07
629.24	1135.44
629.58	1135.63
629.93	1132.75
630.28	1130.36
630.62	1128.47
630.97	1126.10
631.31	1124.84
631.66	1124.93
632.00	1122.61
632.35	1121.30
632.69	1123.76
633.04	1125.87
633.38	1128.23
633.73	1128.28
634.07	1129.17
634.42	1128.42
634.76	1127.86
635.11	1125.82
635.45	1128.35
635.79	1126.76
636.14	1126.24
636.48	1122.22
636.83	1119.78
637.17	1116.79
637.52	1116.62
637.86	1115.78
638.21	1116.76
638.55	1117.42
638.89	1118.64
639.24	1116.15
639.58	1113.95
639.93	1115.43
640.27	1115.27
640.61	1114.31
640.96	1116.60
641.30	1115.10
641.65	1111.31
641.99	1111.12
642.33	1108.66
642.68	1108.66
643.02	1110.19
643.37	1111.31
643.71	1108.10
644.05	1109.09
644.40	1109.41
644.74	1108.55
645.08	1109.53
645.43	1109.67
645.77	1109.51
646.11	1108.22
646.46	1110.07
646.80	1110.63
647.14	1112.83
647.49	1110.79
647.83	1108.81
648.17	1106.93
648.52	1104.73
648.86	1102.67
649.20	1103.07
649.55	1099.35
649.89	1097.43
650.23	1095.00
650.57	1096.66
650.92	1092.84
651.26	1091.16
651.60	1092.56
651.95	1092.66
652.29	1091.81
652.63	1093.90
652.97	1098.83
653.32	1099.51
653.66	1101.34
654.00	1100.17
654.34	1101.41
654.69	1101.95
655.03	1099.82
655.37	1097.08
655.71	1099.00
656.05	1101.74
656.40	1097.95
656.74	1097.34
657.08	1095.91
657.42	1093.01
657.76	1093.76
658.11	1098.95
658.45	1096.38
658.79	1101.71
659.13	1105.39
659.47	1100.38
659.82	1097.03
660.16	1104.38
660.50	1101.53
660.84	1097.76
661.18	1097.99
661.52	1100.00
661.87	1096.24
662.21	1098.32
662.55	1101.08
662.89	1102.09
663.23	1100.92
663.57	1104.66
663.91	1102.91
664.25	1099.23
664.60	1098.44
664.94	1096.99
665.28	1092.96
665.62	1092.23
665.96	1094.13
666.30	1092.61
666.64	1093.66
666.98	1092.07
667.32	1091.04
667.66	1092.77
668.01	1093.62
668.35	1091.39
668.69	1093.76
669.03	1097.17
669.37	1094.69
669.71	1094.62
670.05	1095.14
670.39	1093.01
670.73	1089.07
671.07	1088.72
671.41	1089.36
671.75	1089.24
672.09	1090.46
672.43	1087.02
672.77	1087.39
673.11	1087.65
673.45	1089.14
673.79	1089.17
674.13	1097.69
674.47	1098.04
674.81	1097.13
675.15	1095.89
675.49	1094.74
675.83	1092.26
676.17	1088.30
676.51	1087.11
676.85	1088.23
677.19	1089.17
677.53	1087.62
677.87	1089.78
678.21	1091.23
678.55	1088.26
678.89	1086.29
679.23	1082.99
679.57	1085.05
679.90	1085.21
680.24	1089.29
680.58	1088.84
680.92	1093.47
681.26	1092.98
681.60	1093.33
681.94	1089.38
682.28	1089.75
682.62	1088.07
682.96	1089.85
683.29	1087.18
683.63	1088.04
683.97	1087.69
684.31	1088.00
684.65	1086.52
684.99	1088.02
685.33	1088.28
685.67	1088.86
686.00	1090.24
686.34	1090.08
686.68	1089.75
687.02	1092.80
687.36	1095.63
687.70	1091.20
688.03	1090.01
688.37	1091.98
688.71	1089.33
689.05	1088.61
689.39	1090.53
689.72	1090.67
690.06	1088.70
690.40	1087.11
690.74	1086.31
691.08	1088.28
691.41	1087.06
691.75	1088.47
692.09	1090.78
692.43	1089.45
692.76	1088.70
693.10	1089.61
693.44	1088.56
693.78	1088.84
694.11	1094.13
694.45	1094.32
694.79	1095.84
695.13	1097.64
695.46	1095.39
695.80	1090.53
696.14	1090.24
696.48	1088.28
696.81	1086.36
697.15	1089.00
697.49	1087.27
697.82	1087.44
698.16	1089.40
698.50	1086.97
698.83	1085.99
699.17	1087.44
699.51	1087.39
699.84	1086.90
700.18	1091.37
700.52	1094.20
700.85	1096.59
701.19	1096.61
701.53	1097.41
701.86	1095.93
702.20	1094.27
702.54	1095.93
702.87	1095.44
703.21	1094.62
703.55	1092.28
703.88	1089.07
704.22	1086.71
704.55	1084.65
704.89	1083.27
705.23	1086.59
705.56	1089.33
705.90	1086.92
706.23	1088.07
706.57	1087.97
706.91	1087.81
707.24	1084.21
707.58	1086.03
707.91	1086.52
708.25	1085.68
708.58	1084.25
708.92	1085.24
709.26	1085.59
709.59	1086.99
709.93	1090.85
710.26	1091.02
710.60	1093.03
710.93	1094.39
711.27	1091.70
711.60	1087.65
711.94	1085.77
712.27	1082.66
712.61	1082.47
712.94	1082.69
713.28	1082.47
713.61	1081.91
713.95	1083.62
714.28	1083.34
714.62	1084.23
714.95	1085.40
715.29	1086.20
715.62	1089.40
715.96	1086.69
716.29	1085.89
716.63	1086.59
716.96	1088.02
717.29	1084.70
717.63	1085.24
717.96	1084.98
718.30	1082.08
718.63	1085.38
718.97	1085.21
719.30	1084.53
719.63	1084.00
719.97	1088.00
720.30	1083.83
720.64	1083.64
720.97	1080.44
721.30	1080.56
721.64	1080.95
721.97	1084.44
722.31	1087.30
722.64	1092.61
722.97	1095.04
723.31	1095.91
723.64	1092.61
723.97	1091.11
724.31	1088.16
724.64	1086.36
724.98	1085.73
725.31	1086.20
725.64	1086.66
725.98	1086.27
726.31	1084.09
726.64	1081.05
726.97	1082.85
727.31	1083.36
727.64	1084.25
727.97	1088.65
728.31	1089.57
728.64	1087.93
728.97	1087.53
729.31	1086.76
729.64	1086.52
729.97	1085.75
730.30	1084.63
730.64	1083.06
730.97	1084.72
731.30	1082.47
731.63	1085.40
731.97	1086.50
732.30	1087.88
732.63	1087.58
732.96	1089.82
733.30	1087.44
733.63	1088.82
733.96	1090.20
734.29	1094.15
734.63	1094.69
734.96	1095.53
735.29	1093.62
735.62	1095.16
735.95	1090.39
736.29	1086.97
736.62	1085.28
736.95	1084.84
737.28	1081.82
737.61	1084.91
737.94	1086.36
738.28	1088.91
738.61	1089.87
738.94	1090.62
739.27	1088.07
739.60	1089.31
739.93	1090.83
740.27	1092.82
740.60	1088.68
740.93	1090.50
741.26	1090.74
741.59	1089.61
741.92	1085.94
742.25	1090.27
742.58	1088.61
742.91	1088.47
743.25	1086.57
743.58	1089.99
743.91	1088.00
744.24	1084.74
744.57	1087.37
744.90	1088.96
745.23	1088.93
745.56	1091.23
745.89	1095.79
746.22	1092.96
746.55	1089.40
746.88	1089.31
747.21	1089.80
747.54	1086.01
747.87	1086.38
748.20	1089.92
748.53	1089.22
748.87	1087.81
749.20	1088.58
749.53	1087.74
749.86	1089.05
750.19	1090.24
750.52	1090.46
750.85	1093.19
751.18	1094.46
751.51	1095.72
751.84	1092.87
752.16	1090.99
752.49	1092.23
752.82	1091.86
753.15	1086.78
753.48	1089.00
753.81	1091.53
754.14	1087.46
754.47	1085.59
754.80	1084.32
755.13	1083.50
755.46	1081.02
755.79	1084.04
756.12	1085.56
756.45	1089.33
756.78	1090.22
757.11	1090.13
757.43	1088.33
757.76	1088.82
758.09	1086.50
758.42	1083.60
758.75	1084.42
759.08	1088.12
759.41	1090.32
759.74	1095.02
760.07	1094.60
760.39	1094.67
760.72	1093.03
761.05	1091.39
761.38	1088.12
761.71	1091.79
762.04	1094.11
762.36	1094.41
762.69	1092.87
763.02	1093.78
763.35	1091.67
