SpectraSuite Data File
++++++++++++++++++++++++++++++++++++
Date: Mon Aug 26 10:26:54 PDT 2019
User: corrico
Dark Spectrum Present: No
Reference Spectrum Present: No
Number of Sampled Component Spectra: 1
Spectrometers: USB2+H06089
Integration Time (usec): 10000 (USB2+H06089)
Spectra Averaged: 20 (USB2+H06089)
Boxcar Smoothing: 2 (USB2+H06089)
Correct for Electrical Dark: No (USB2+H06089)
Strobe/Lamp Enabled: No (USB2+H06089)
Correct for Detector Non-linearity: No (USB2+H06089)
Correct for Stray Light: No (USB2+H06089)
Number of Pixels in Processed Spectrum: 2048
>>>>>Begin Processed Spectral Data<<<<<
339.70	1049.38
340.07	1049.38
340.45	1010.27
340.82	984.45
341.19	958.40
341.57	928.23
341.94	918.33
342.31	907.87
342.69	903.40
343.06	898.84
343.43	899.47
343.81	900.97
344.18	905.46
344.55	911.59
344.93	917.14
345.30	924.82
345.67	929.15
346.04	934.11
346.42	938.98
346.79	950.23
347.16	959.22
347.54	969.38
347.91	984.10
348.28	994.56
348.65	1005.49
349.03	1011.39
349.40	1022.11
349.77	1026.68
350.14	1035.80
350.52	1040.04
350.89	1050.10
351.26	1051.56
351.63	1059.07
352.01	1062.98
352.38	1064.52
352.75	1065.81
353.12	1070.96
353.50	1076.27
353.87	1079.71
354.24	1084.32
354.61	1088.16
354.98	1093.29
355.36	1093.17
355.73	1093.62
356.10	1092.98
356.47	1090.50
356.84	1086.83
357.22	1085.21
357.59	1088.21
357.96	1087.53
358.33	1090.48
358.70	1091.65
359.08	1093.94
359.45	1090.90
359.82	1092.35
360.19	1088.98
360.56	1092.14
360.94	1088.72
361.31	1084.37
361.68	1081.94
362.05	1080.65
362.42	1074.73
362.79	1076.58
363.16	1080.65
363.54	1083.48
363.91	1087.11
364.28	1087.13
364.65	1083.88
365.02	1082.15
365.39	1078.96
365.76	1079.83
366.14	1080.88
366.51	1080.65
366.88	1079.88
367.25	1082.10
367.62	1084.16
367.99	1085.21
368.36	1088.72
368.73	1088.82
369.10	1086.62
369.48	1083.74
369.85	1082.50
370.22	1082.22
370.59	1084.46
370.96	1087.02
371.33	1083.08
371.70	1081.51
372.07	1078.28
372.44	1075.20
372.81	1072.71
373.18	1074.73
373.55	1077.07
373.93	1080.41
374.30	1081.94
374.67	1080.09
375.04	1082.03
375.41	1077.58
375.78	1076.67
376.15	1076.27
376.52	1079.15
376.89	1081.68
377.26	1085.17
377.63	1084.49
378.00	1084.89
378.37	1084.14
378.74	1081.37
379.11	1080.20
379.48	1078.99
379.85	1080.11
380.22	1082.73
380.59	1079.27
380.96	1077.89
381.33	1079.92
381.70	1079.29
382.07	1079.64
382.44	1084.09
382.81	1084.37
383.18	1083.39
383.55	1082.52
383.92	1080.91
384.29	1078.87
384.66	1083.13
385.03	1085.12
385.40	1085.12
385.77	1085.56
386.14	1086.45
386.51	1085.05
386.88	1085.07
387.25	1083.22
387.62	1082.61
387.99	1081.82
388.36	1080.63
388.73	1081.56
389.10	1086.41
389.46	1088.19
389.83	1087.58
390.20	1089.36
390.57	1086.22
390.94	1083.81
391.31	1084.39
391.68	1087.09
392.05	1086.22
392.42	1087.76
392.79	1091.46
393.16	1092.87
393.53	1089.31
393.89	1091.44
394.26	1089.43
394.63	1088.86
395.00	1087.37
395.37	1089.89
395.74	1089.07
396.11	1092.52
396.48	1093.92
396.84	1091.32
397.21	1093.83
397.58	1094.90
397.95	1093.69
398.32	1093.24
398.69	1094.62
399.06	1094.81
399.42	1095.30
399.79	1097.20
400.16	1093.10
400.53	1096.00
400.90	1096.52
401.27	1094.60
401.64	1094.11
402.00	1097.08
402.37	1096.59
402.74	1093.50
403.11	1092.45
403.48	1089.17
403.84	1086.45
404.21	1085.63
404.58	1085.28
404.95	1087.81
405.32	1092.05
405.68	1094.88
406.05	1094.53
406.42	1096.28
406.79	1096.31
407.16	1093.85
407.52	1096.87
407.89	1098.51
408.26	1100.96
408.63	1101.74
408.99	1102.86
409.36	1100.29
409.73	1100.47
410.10	1100.36
410.47	1101.46
410.83	1105.48
411.20	1108.17
411.57	1108.66
411.94	1107.33
412.30	1110.98
412.67	1110.19
413.04	1109.02
413.40	1108.69
413.77	1109.16
414.14	1103.56
414.51	1101.76
414.87	1103.68
415.24	1102.06
415.61	1101.92
415.97	1106.56
416.34	1106.58
416.71	1105.41
417.08	1102.70
417.44	1104.10
417.81	1103.66
418.18	1103.68
418.54	1103.19
418.91	1107.12
419.28	1105.74
419.64	1105.62
420.01	1107.21
420.38	1108.29
420.74	1107.99
421.11	1108.92
421.48	1105.18
421.84	1106.44
422.21	1106.02
422.58	1108.64
422.94	1108.38
423.31	1110.56
423.68	1112.13
424.04	1113.58
424.41	1111.85
424.77	1111.87
425.14	1110.09
425.51	1107.71
425.87	1106.84
426.24	1107.28
426.61	1108.15
426.97	1112.92
427.34	1112.64
427.70	1110.33
428.07	1111.97
428.44	1111.82
428.80	1106.32
429.17	1109.06
429.53	1110.14
429.90	1110.33
430.27	1110.91
430.63	1113.86
431.00	1108.99
431.36	1110.14
431.73	1110.47
432.09	1109.74
432.46	1107.73
432.83	1109.84
433.19	1110.94
433.56	1112.83
433.92	1113.49
434.29	1113.95
434.65	1117.37
435.02	1117.68
435.38	1114.52
435.75	1113.95
436.11	1115.43
436.48	1113.18
436.84	1114.38
437.21	1112.43
437.57	1112.18
437.94	1114.96
438.30	1114.56
438.67	1112.88
439.03	1113.67
439.40	1114.56
439.76	1111.97
440.13	1108.17
440.49	1107.56
440.86	1106.93
441.22	1105.81
441.59	1105.65
441.95	1108.59
442.32	1108.01
442.68	1112.15
443.05	1115.36
443.41	1112.71
443.78	1111.99
444.14	1111.17
444.51	1109.20
444.87	1106.91
445.24	1105.65
445.60	1109.48
445.96	1108.36
446.33	1106.70
446.69	1106.00
447.06	1111.82
447.42	1110.23
447.79	1113.07
448.15	1116.08
448.51	1117.61
448.88	1114.07
449.24	1115.41
449.61	1113.44
449.97	1111.78
450.33	1110.09
450.70	1112.01
451.06	1108.43
451.43	1110.42
451.79	1108.83
452.15	1110.68
452.52	1109.72
452.88	1111.92
453.24	1110.61
453.61	1112.88
453.97	1112.57
454.34	1113.58
454.70	1112.13
455.06	1115.45
455.43	1112.74
455.79	1113.11
456.15	1111.22
456.52	1110.91
456.88	1108.55
457.24	1109.37
457.61	1107.64
457.97	1112.22
458.33	1114.28
458.70	1114.38
459.06	1115.87
459.42	1115.83
459.79	1112.88
460.15	1110.21
460.51	1110.37
460.88	1109.23
461.24	1111.66
461.60	1114.52
461.96	1113.23
462.33	1111.03
462.69	1112.97
463.05	1115.73
463.42	1112.08
463.78	1116.27
464.14	1121.30
464.50	1122.71
464.87	1120.18
465.23	1122.75
465.59	1119.64
465.95	1116.37
466.32	1114.19
466.68	1115.59
467.04	1114.31
467.40	1119.20
467.77	1121.84
468.13	1125.05
468.49	1125.68
468.85	1130.13
469.22	1129.57
469.58	1132.59
469.94	1134.01
470.30	1134.50
470.66	1134.32
471.03	1138.46
471.39	1141.17
471.75	1144.97
472.11	1147.78
472.47	1151.31
472.84	1157.07
473.20	1159.34
473.56	1162.01
473.92	1164.98
474.28	1168.75
474.65	1170.38
475.01	1170.74
475.37	1177.20
475.73	1182.27
476.09	1186.51
476.45	1186.39
476.81	1191.85
477.18	1192.50
477.54	1197.44
477.90	1201.65
478.26	1208.56
478.62	1215.02
478.98	1221.71
479.34	1228.13
479.71	1238.73
480.07	1248.23
480.43	1257.08
480.79	1266.65
481.15	1275.12
481.51	1282.87
481.87	1294.81
482.23	1305.81
482.59	1317.49
482.96	1332.68
483.32	1350.14
483.68	1364.06
484.04	1379.37
484.40	1397.53
484.76	1413.24
485.12	1426.56
485.48	1444.27
485.84	1465.85
486.20	1482.68
486.56	1506.65
486.92	1534.64
487.28	1563.08
487.64	1586.09
488.00	1617.66
488.37	1644.09
488.73	1672.97
489.09	1703.49
489.45	1743.39
489.81	1775.88
490.17	1813.75
490.53	1850.57
490.89	1889.84
491.25	1927.76
491.61	1973.42
491.97	2023.49
492.33	2076.99
492.69	2130.59
493.05	2186.97
493.41	2249.07
493.77	2311.09
494.13	2371.13
494.49	2440.03
494.85	2511.49
495.21	2580.53
495.57	2654.47
495.93	2740.35
496.29	2825.24
496.64	2917.13
497.00	3012.01
497.36	3110.69
497.72	3211.12
498.08	3317.26
498.44	3430.99
498.80	3553.89
499.16	3690.04
499.52	3826.54
499.88	3980.67
500.24	4139.33
500.60	4286.08
500.96	4437.87
501.32	4606.62
501.68	4765.63
502.03	4939.21
502.39	5156.34
502.75	5379.02
503.11	5608.32
503.47	5837.88
503.83	6088.72
504.19	6339.83
504.55	6606.93
504.91	6887.05
505.26	7185.40
505.62	7484.19
505.98	7794.24
506.34	8111.78
506.70	8454.39
507.06	8833.86
507.42	9226.13
507.78	9638.96
508.13	10062.88
508.49	10503.20
508.85	10954.97
509.21	11438.67
509.57	11946.54
509.93	12498.98
510.28	13084.86
510.64	13710.11
511.00	14322.51
511.36	14903.85
511.72	15492.29
512.07	16143.75
512.43	16740.24
512.79	17413.09
513.15	18151.25
513.51	18896.20
513.86	19625.79
514.22	20463.09
514.58	21249.23
514.94	22075.25
515.30	22931.21
515.65	23738.63
516.01	24551.24
516.37	25388.96
516.73	26145.12
517.08	27004.66
517.44	27839.34
517.80	28642.12
518.16	29494.49
518.51	30334.72
518.87	31064.83
519.23	31919.52
519.59	32810.73
519.94	33630.90
520.30	34516.86
520.66	35279.71
521.01	36086.96
521.37	36762.21
521.73	37405.18
522.09	37983.59
522.44	38640.79
522.80	39034.50
523.16	39380.64
523.51	39650.17
523.87	39963.55
524.23	40217.59
524.58	40478.11
524.94	40870.08
525.30	41194.20
525.65	41376.25
526.01	41437.01
526.37	41464.18
526.72	41374.91
527.08	41241.34
527.44	41061.19
527.79	40900.77
528.15	40772.41
528.51	40539.53
528.86	40342.06
529.22	40132.16
529.58	39865.27
529.93	39507.92
530.29	39085.94
530.65	38693.34
531.00	38324.61
531.36	37885.27
531.71	37404.99
532.07	36922.35
532.43	36338.36
532.78	35676.62
533.14	35127.49
533.49	34567.75
533.85	33970.32
534.21	33363.45
534.56	32816.04
534.92	32219.18
535.27	31599.99
535.63	30997.00
535.98	30398.04
536.34	29750.22
536.69	29080.62
537.05	28456.40
537.41	27931.77
537.76	27447.79
538.12	26896.34
538.47	26430.20
538.83	26018.66
539.18	25549.90
539.54	25048.76
539.89	24604.98
540.25	24094.34
540.60	23587.68
540.96	23092.85
541.31	22622.00
541.67	22206.04
542.02	21796.85
542.38	21368.01
542.73	20922.21
543.09	20513.63
543.44	20145.67
543.80	19811.44
544.15	19395.36
544.51	19056.06
544.86	18735.59
545.22	18370.37
545.57	17991.98
545.93	17649.46
546.28	17335.15
546.64	17018.41
546.99	16665.50
547.35	16337.24
547.70	16049.24
548.05	15750.28
548.41	15434.99
548.76	15157.82
549.12	14871.60
549.47	14578.66
549.83	14295.41
550.18	13990.69
550.53	13659.37
550.89	13370.61
551.24	13106.95
551.60	12811.41
551.95	12544.10
552.30	12313.18
552.66	12083.95
553.01	11829.47
553.37	11572.80
553.72	11310.26
554.07	11048.73
554.43	10770.14
554.78	10507.32
555.13	10244.90
555.49	10013.12
555.84	9816.58
556.19	9620.68
556.55	9420.80
556.90	9224.85
557.26	9023.77
557.61	8799.06
557.96	8558.66
558.32	8350.45
558.67	8153.63
559.02	7942.51
559.37	7761.97
559.73	7613.90
560.08	7465.51
560.43	7310.55
560.79	7185.96
561.14	7037.05
561.49	6873.97
561.85	6710.64
562.20	6561.06
562.55	6413.86
562.90	6284.43
563.26	6165.02
563.61	6058.78
563.96	5958.07
564.32	5840.83
564.67	5717.88
565.02	5600.18
565.37	5483.36
565.73	5365.61
566.08	5263.21
566.43	5158.00
566.78	5052.58
567.14	4943.98
567.49	4834.38
567.84	4733.78
568.19	4629.98
568.54	4540.78
568.90	4450.76
569.25	4381.79
569.60	4305.67
569.95	4235.22
570.31	4153.49
570.66	4078.92
571.01	3981.93
571.36	3889.85
571.71	3813.18
572.06	3746.10
572.42	3683.00
572.77	3632.21
573.12	3582.35
573.47	3521.71
573.82	3460.20
574.18	3394.15
574.53	3335.54
574.88	3279.89
575.23	3227.97
575.58	3178.85
575.93	3130.16
576.28	3075.84
576.64	3022.90
576.99	2965.06
577.34	2907.30
577.69	2851.54
578.04	2797.88
578.39	2744.89
578.74	2704.63
579.09	2666.15
579.44	2628.52
579.80	2589.52
580.15	2552.75
580.50	2514.32
580.85	2476.78
581.20	2447.03
581.55	2418.76
581.90	2388.38
582.25	2359.07
582.60	2323.71
582.95	2286.35
583.30	2250.12
583.65	2212.93
584.00	2177.42
584.35	2150.84
584.71	2115.80
585.06	2088.62
585.41	2062.36
585.76	2036.55
586.11	2006.94
586.46	1986.18
586.81	1961.06
587.16	1940.26
587.51	1922.45
587.86	1904.68
588.21	1885.25
588.56	1864.12
588.91	1843.73
589.26	1820.35
589.61	1799.40
589.96	1777.85
590.31	1763.27
590.66	1746.44
591.01	1733.68
591.36	1720.97
591.71	1706.09
592.06	1692.96
592.41	1677.37
592.76	1660.02
593.10	1645.26
593.45	1630.02
593.80	1612.11
594.15	1600.36
594.50	1586.91
594.85	1572.07
595.20	1564.84
595.55	1553.60
595.90	1546.51
596.25	1537.40
596.60	1527.67
596.95	1513.41
597.30	1505.55
597.64	1540.33
597.99	1534.03
598.34	1527.18
598.69	1519.27
599.04	1507.16
599.39	1451.48
599.74	1438.75
600.09	1425.48
600.44	1419.72
600.78	1412.00
601.13	1402.99
601.48	1398.19
601.83	1395.40
602.18	1386.16
602.53	1382.39
602.88	1376.45
603.22	1368.42
603.57	1360.16
603.92	1353.02
604.27	1342.32
604.62	1332.54
604.97	1326.36
605.31	1320.09
605.66	1313.53
606.01	1310.58
606.36	1304.68
606.71	1296.89
607.05	1289.99
607.40	1285.47
607.75	1281.49
608.10	1278.03
608.44	1277.16
608.79	1275.26
609.14	1272.78
609.49	1270.98
609.84	1268.97
610.18	1265.67
610.53	1264.38
610.88	1264.78
611.23	1259.54
611.57	1256.68
611.92	1252.54
612.27	1243.69
612.62	1234.09
612.96	1230.51
613.31	1224.80
613.66	1219.35
614.00	1218.72
614.35	1218.39
614.70	1212.26
615.05	1207.62
615.39	1203.69
615.74	1199.69
616.09	1197.30
616.43	1197.70
616.78	1199.29
617.13	1196.86
617.47	1196.46
617.82	1192.22
618.17	1188.95
618.51	1183.96
618.86	1183.37
619.21	1180.22
619.55	1180.59
619.90	1180.94
620.25	1180.31
620.59	1176.31
620.94	1175.65
621.29	1170.50
621.63	1168.68
621.98	1167.65
622.32	1169.57
622.67	1166.29
623.02	1166.64
623.36	1160.18
623.71	1156.27
624.05	1152.48
624.40	1151.17
624.75	1148.27
625.09	1151.22
625.44	1153.11
625.78	1153.60
626.13	1151.87
626.48	1153.65
626.82	1151.50
627.17	1145.74
627.51	1139.68
627.86	1138.81
628.20	1139.37
628.55	1137.31
628.89	1138.81
629.24	1142.39
629.58	1139.47
629.93	1136.52
630.28	1135.72
630.62	1135.89
630.97	1133.87
631.31	1135.42
631.66	1131.49
632.00	1129.19
632.35	1125.49
632.69	1126.08
633.04	1126.62
633.38	1127.37
633.73	1125.10
634.07	1126.20
634.42	1122.87
634.76	1121.28
635.11	1124.21
635.45	1124.44
635.79	1119.48
636.14	1118.47
636.48	1116.44
636.83	1113.32
637.17	1116.37
637.52	1121.68
637.86	1119.97
638.21	1118.61
638.55	1116.55
638.89	1115.27
639.24	1113.28
639.58	1116.15
639.93	1116.22
640.27	1115.55
640.61	1112.95
640.96	1112.81
641.30	1112.01
641.65	1113.07
641.99	1114.80
642.33	1114.09
642.68	1113.04
643.02	1111.52
643.37	1108.17
643.71	1106.86
644.05	1110.75
644.40	1110.75
644.74	1109.95
645.08	1111.99
645.43	1109.65
645.77	1103.26
646.11	1100.82
646.46	1101.92
646.80	1100.57
647.14	1102.18
647.49	1101.50
647.83	1102.79
648.17	1102.95
648.52	1101.88
648.86	1099.61
649.20	1108.64
649.55	1107.26
649.89	1107.05
650.23	1105.51
650.57	1105.58
650.92	1098.46
651.26	1098.88
651.60	1098.62
651.95	1101.71
652.29	1102.60
652.63	1100.40
652.97	1101.11
653.32	1099.91
653.66	1096.38
654.00	1098.65
654.34	1099.84
654.69	1098.74
655.03	1099.40
655.37	1101.11
655.71	1097.62
656.05	1098.58
656.40	1098.48
656.74	1095.89
657.08	1096.80
657.42	1097.34
657.76	1098.88
658.11	1101.99
658.45	1099.65
658.79	1098.65
659.13	1096.87
659.47	1093.19
659.82	1088.65
660.16	1088.49
660.50	1087.46
660.84	1088.16
661.18	1088.00
661.52	1089.59
661.87	1092.68
662.21	1092.35
662.55	1092.02
662.89	1094.55
663.23	1094.67
663.57	1096.40
663.91	1098.06
664.25	1099.40
664.60	1098.25
664.94	1096.82
665.28	1095.39
665.62	1096.07
665.96	1094.76
666.30	1095.28
666.64	1096.85
666.98	1097.24
667.32	1097.45
667.66	1096.47
668.01	1098.34
668.35	1097.99
668.69	1098.90
669.03	1098.02
669.37	1099.77
669.71	1096.87
670.05	1094.60
670.39	1093.47
670.73	1092.00
671.07	1092.05
671.41	1090.53
671.75	1091.60
672.09	1092.21
672.43	1093.26
672.77	1093.83
673.11	1096.92
673.45	1097.29
673.79	1097.10
674.13	1095.51
674.47	1092.68
674.81	1091.34
675.15	1089.89
675.49	1088.26
675.83	1091.27
676.17	1093.59
676.51	1093.59
676.85	1098.13
677.19	1098.25
677.53	1095.14
677.87	1092.23
678.21	1092.59
678.55	1089.80
678.89	1090.95
679.23	1090.17
679.57	1092.91
679.90	1092.02
680.24	1090.85
680.58	1087.83
680.92	1087.81
681.26	1085.12
681.60	1087.06
681.94	1087.74
682.28	1092.49
682.62	1094.04
682.96	1097.71
683.29	1094.69
683.63	1092.75
683.97	1086.08
684.31	1084.74
684.65	1081.87
684.99	1082.10
685.33	1082.73
685.67	1089.05
686.00	1091.34
686.34	1091.67
686.68	1090.69
687.02	1093.36
687.36	1091.27
687.70	1090.15
688.03	1089.05
688.37	1089.99
688.71	1089.61
689.05	1088.35
689.39	1088.44
689.72	1089.57
690.06	1092.63
690.40	1093.24
690.74	1095.32
691.08	1096.87
691.41	1096.96
691.75	1094.81
692.09	1094.13
692.43	1094.74
692.76	1092.77
693.10	1092.35
693.44	1092.52
693.78	1088.93
694.11	1086.43
694.45	1089.07
694.79	1087.69
695.13	1086.87
695.46	1090.83
695.80	1093.12
696.14	1090.81
696.48	1091.18
696.81	1092.28
697.15	1092.66
697.49	1090.67
697.82	1090.27
698.16	1091.27
698.50	1090.92
698.83	1090.76
699.17	1091.06
699.51	1091.09
699.84	1092.66
700.18	1090.83
700.52	1088.37
700.85	1088.16
701.19	1090.55
701.53	1086.99
701.86	1087.13
702.20	1087.34
702.54	1084.42
702.87	1086.29
703.21	1087.76
703.55	1088.77
703.88	1089.75
704.22	1092.14
704.55	1086.13
704.89	1087.32
705.23	1087.16
705.56	1086.73
705.90	1089.07
706.23	1092.66
706.57	1091.95
706.91	1092.87
707.24	1091.63
707.58	1092.56
707.91	1091.53
708.25	1093.12
708.58	1093.97
708.92	1094.25
709.26	1090.95
709.59	1091.79
709.93	1090.10
710.26	1089.12
710.60	1091.20
710.93	1088.42
711.27	1090.41
711.60	1091.42
711.94	1091.04
712.27	1086.36
712.61	1087.23
712.94	1084.30
713.28	1084.91
713.61	1084.49
713.95	1086.62
714.28	1088.54
714.62	1087.51
714.95	1085.91
715.29	1083.22
715.62	1084.30
715.96	1082.59
716.29	1084.53
716.63	1083.29
716.96	1085.56
717.29	1085.17
717.63	1087.72
717.96	1085.70
718.30	1088.49
718.63	1090.17
718.97	1092.21
719.30	1092.19
719.63	1095.63
719.97	1092.56
720.30	1091.84
720.64	1091.06
720.97	1090.06
721.30	1087.25
721.64	1091.88
721.97	1092.63
722.31	1092.54
722.64	1090.20
722.97	1089.75
723.31	1086.24
723.64	1086.62
723.97	1087.37
724.31	1088.79
724.64	1087.60
724.98	1087.90
725.31	1084.58
725.64	1085.12
725.98	1088.26
726.31	1089.66
726.64	1089.29
726.97	1092.23
727.31	1088.40
727.64	1083.34
727.97	1083.06
728.31	1082.94
728.64	1081.58
728.97	1082.50
729.31	1085.68
729.64	1087.72
729.97	1087.20
730.30	1086.36
730.64	1086.34
730.97	1086.87
731.30	1086.69
731.63	1085.96
731.97	1084.56
732.30	1083.71
732.63	1080.77
732.96	1078.96
733.30	1078.54
733.63	1079.67
733.96	1080.60
734.29	1080.84
734.63	1082.15
734.96	1082.76
735.29	1085.47
735.62	1085.45
735.95	1088.56
736.29	1087.09
736.62	1091.04
736.95	1088.86
737.28	1090.67
737.61	1088.77
737.94	1090.22
738.28	1088.12
738.61	1088.63
738.94	1089.29
739.27	1090.62
739.60	1088.93
739.93	1088.72
740.27	1092.52
740.60	1088.28
740.93	1088.40
741.26	1087.23
741.59	1089.75
741.92	1087.46
742.25	1090.22
742.58	1089.43
742.91	1090.36
743.25	1090.13
743.58	1089.75
743.91	1089.10
744.24	1090.76
744.57	1094.90
744.90	1093.43
745.23	1093.08
745.56	1091.65
745.89	1089.82
746.22	1087.37
746.55	1087.11
746.88	1087.51
747.21	1086.41
747.54	1081.84
747.87	1080.06
748.20	1079.41
748.53	1078.66
748.87	1080.27
749.20	1083.95
749.53	1087.04
749.86	1085.87
750.19	1086.78
750.52	1087.74
750.85	1090.83
751.18	1089.31
751.51	1090.55
751.84	1088.82
752.16	1086.01
752.49	1082.64
752.82	1083.67
753.15	1082.38
753.48	1082.45
753.81	1084.25
754.14	1082.83
754.47	1081.37
754.80	1084.51
755.13	1081.33
755.46	1082.94
755.79	1084.09
756.12	1086.45
756.45	1081.44
756.78	1085.87
757.11	1085.00
757.43	1087.37
757.76	1086.73
758.09	1090.17
758.42	1088.79
758.75	1088.63
759.08	1087.46
759.41	1087.34
759.74	1086.29
760.07	1085.12
760.39	1086.22
760.72	1086.27
761.05	1085.03
761.38	1084.37
761.71	1087.32
762.04	1087.67
762.36	1087.60
762.69	1086.76
763.02	1090.62
763.35	1090.01
