SpectraSuite Data File
++++++++++++++++++++++++++++++++++++
Date: Mon Aug 26 10:26:42 PDT 2019
User: corrico
Dark Spectrum Present: No
Reference Spectrum Present: No
Number of Sampled Component Spectra: 1
Spectrometers: USB2+H06089
Integration Time (usec): 10000 (USB2+H06089)
Spectra Averaged: 20 (USB2+H06089)
Boxcar Smoothing: 2 (USB2+H06089)
Correct for Electrical Dark: No (USB2+H06089)
Strobe/Lamp Enabled: No (USB2+H06089)
Correct for Detector Non-linearity: No (USB2+H06089)
Correct for Stray Light: No (USB2+H06089)
Number of Pixels in Processed Spectrum: 2048
>>>>>Begin Processed Spectral Data<<<<<
339.70	1024.45
340.07	1024.45
340.45	995.99
340.82	979.61
341.19	957.65
341.57	933.76
341.94	921.09
342.31	913.60
342.69	909.09
343.06	904.97
343.43	907.73
343.81	904.78
344.18	906.30
344.55	906.35
344.93	912.32
345.30	914.35
345.67	922.73
346.04	933.34
346.42	942.60
346.79	948.20
347.16	958.96
347.54	972.00
347.91	980.12
348.28	987.71
348.65	1001.23
349.03	1009.36
349.40	1016.38
349.77	1023.98
350.14	1033.53
350.52	1039.88
350.89	1050.69
351.26	1058.20
351.63	1064.71
352.01	1073.44
352.38	1077.91
352.75	1077.56
353.12	1078.26
353.50	1081.98
353.87	1079.50
354.24	1083.64
354.61	1086.10
354.98	1090.08
355.36	1088.96
355.73	1088.82
356.10	1088.40
356.47	1088.28
356.84	1087.55
357.22	1089.14
357.59	1093.57
357.96	1093.69
358.33	1095.91
358.70	1096.21
359.08	1097.69
359.45	1091.65
359.82	1086.97
360.19	1083.81
360.56	1080.34
360.94	1074.17
361.31	1076.18
361.68	1077.44
362.05	1077.49
362.42	1077.77
362.79	1079.50
363.16	1077.14
363.54	1077.51
363.91	1078.33
364.28	1079.29
364.65	1079.62
365.02	1079.95
365.39	1079.57
365.76	1077.16
366.14	1073.32
366.51	1075.01
366.88	1076.81
367.25	1080.41
367.62	1080.88
367.99	1085.75
368.36	1085.07
368.73	1079.88
369.10	1076.06
369.48	1072.71
369.85	1072.39
370.22	1072.64
370.59	1078.87
370.96	1079.78
371.33	1083.79
371.70	1086.50
372.07	1085.63
372.44	1081.91
372.81	1082.52
373.18	1084.81
373.55	1078.78
373.93	1078.87
374.30	1081.16
374.67	1080.53
375.04	1076.93
375.41	1081.19
375.78	1077.86
376.15	1079.08
376.52	1080.53
376.89	1081.77
377.26	1080.02
377.63	1083.06
378.00	1080.79
378.37	1077.79
378.74	1079.34
379.11	1081.87
379.48	1081.75
379.85	1079.62
380.22	1084.46
380.59	1081.73
380.96	1081.16
381.33	1080.77
381.70	1083.69
382.07	1082.03
382.44	1084.32
382.81	1080.37
383.18	1082.10
383.55	1085.89
383.92	1084.32
384.29	1080.74
384.66	1084.30
385.03	1084.51
385.40	1084.39
385.77	1088.19
386.14	1090.57
386.51	1090.39
386.88	1091.34
387.25	1085.91
387.62	1082.26
387.99	1082.64
388.36	1081.82
388.73	1078.87
389.10	1081.98
389.46	1083.57
389.83	1084.14
390.20	1083.43
390.57	1085.96
390.94	1087.62
391.31	1088.12
391.68	1088.02
392.05	1086.71
392.42	1087.83
392.79	1088.49
393.16	1087.25
393.53	1086.55
393.89	1087.93
394.26	1085.87
394.63	1081.35
395.00	1079.08
395.37	1077.21
395.74	1079.99
396.11	1078.10
396.48	1081.37
396.84	1083.55
397.21	1086.48
397.58	1087.30
397.95	1091.58
398.32	1091.53
398.69	1096.00
399.06	1096.92
399.42	1094.48
399.79	1092.73
400.16	1092.63
400.53	1091.72
400.90	1089.26
401.27	1089.50
401.64	1091.32
402.00	1089.57
402.37	1089.43
402.74	1090.32
403.11	1092.19
403.48	1092.73
403.84	1100.12
404.21	1097.20
404.58	1102.04
404.95	1101.08
405.32	1097.66
405.68	1090.15
406.05	1096.00
406.42	1093.05
406.79	1093.03
407.16	1094.15
407.52	1095.00
407.89	1090.32
408.26	1095.00
408.63	1095.56
408.99	1099.54
409.36	1100.82
409.73	1102.95
410.10	1099.84
410.47	1101.90
410.83	1099.26
411.20	1100.96
411.57	1099.42
411.94	1099.37
412.30	1095.70
412.67	1098.09
413.04	1098.51
413.40	1100.54
413.77	1099.98
414.14	1104.73
414.51	1103.09
414.87	1104.12
415.24	1103.45
415.61	1104.57
415.97	1104.01
416.34	1107.80
416.71	1105.20
417.08	1104.99
417.44	1104.43
417.81	1103.61
418.18	1103.66
418.54	1107.54
418.91	1110.35
419.28	1112.50
419.64	1111.99
420.01	1110.07
420.38	1108.43
420.74	1106.35
421.11	1108.85
421.48	1112.25
421.84	1112.74
422.21	1114.59
422.58	1116.08
422.94	1111.64
423.31	1111.15
423.68	1115.43
424.04	1110.00
424.41	1107.92
424.77	1109.65
425.14	1107.85
425.51	1101.64
425.87	1107.71
426.24	1111.87
426.61	1112.53
426.97	1114.96
427.34	1119.36
427.70	1117.61
428.07	1115.59
428.44	1115.41
428.80	1114.80
429.17	1113.09
429.53	1110.63
429.90	1108.31
430.27	1107.35
430.63	1105.51
431.00	1107.42
431.36	1110.26
431.73	1114.84
432.09	1115.83
432.46	1119.90
432.83	1116.97
433.19	1119.45
433.56	1116.67
433.92	1118.87
434.29	1114.59
434.65	1116.83
435.02	1112.90
435.38	1113.37
435.75	1108.88
436.11	1108.01
436.48	1105.67
436.84	1108.45
437.21	1108.64
437.57	1109.25
437.94	1112.90
438.30	1113.16
438.67	1113.63
439.03	1111.92
439.40	1114.19
439.76	1114.42
440.13	1117.63
440.49	1116.72
440.86	1118.50
441.22	1117.68
441.59	1117.02
441.95	1113.58
442.32	1112.41
442.68	1110.75
443.05	1111.01
443.41	1109.23
443.78	1111.59
444.14	1114.38
444.51	1112.81
444.87	1113.65
445.24	1111.29
445.60	1108.69
445.96	1108.64
446.33	1112.92
446.69	1112.62
447.06	1115.73
447.42	1115.43
447.79	1110.47
448.15	1108.50
448.51	1108.62
448.88	1108.85
449.24	1108.76
449.61	1109.41
449.97	1109.18
450.33	1106.77
450.70	1105.58
451.06	1106.16
451.43	1106.89
451.79	1105.74
452.15	1106.98
452.52	1107.94
452.88	1108.17
453.24	1107.94
453.61	1110.91
453.97	1111.26
454.34	1109.84
454.70	1112.36
455.06	1113.25
455.43	1111.50
455.79	1113.25
456.15	1116.67
456.52	1113.49
456.88	1112.69
457.24	1111.40
457.61	1111.01
457.97	1111.73
458.33	1111.52
458.70	1113.98
459.06	1114.26
459.42	1111.29
459.79	1109.62
460.15	1109.65
460.51	1111.47
460.88	1113.60
461.24	1116.20
461.60	1117.30
461.96	1121.68
462.33	1120.16
462.69	1122.87
463.05	1123.39
463.42	1122.97
463.78	1123.67
464.14	1126.69
464.50	1125.66
464.87	1128.72
465.23	1127.37
465.59	1123.53
465.95	1121.40
466.32	1124.04
466.68	1120.48
467.04	1124.35
467.40	1128.58
467.77	1131.41
468.13	1130.41
468.49	1130.31
468.85	1130.43
469.22	1134.34
469.58	1136.68
469.94	1136.99
470.30	1143.12
470.66	1146.04
471.03	1143.63
471.39	1142.11
471.75	1145.76
472.11	1147.45
472.47	1146.44
472.84	1151.73
473.20	1155.19
473.56	1160.62
473.92	1165.61
474.28	1170.24
474.65	1169.36
475.01	1173.26
475.37	1173.47
475.73	1177.78
476.09	1183.49
476.45	1191.94
476.81	1197.16
477.18	1203.62
477.54	1207.30
477.90	1215.09
478.26	1215.60
478.62	1218.39
478.98	1225.74
479.34	1231.66
479.71	1238.73
480.07	1247.95
480.43	1258.72
480.79	1265.88
481.15	1275.43
481.51	1283.01
481.87	1295.65
482.23	1307.07
482.59	1319.71
482.96	1331.58
483.32	1343.98
483.68	1362.22
484.04	1379.32
484.40	1393.23
484.76	1412.40
485.12	1432.45
485.48	1445.23
485.84	1461.69
486.20	1482.68
486.56	1505.55
486.92	1531.46
487.28	1558.38
487.64	1587.66
488.00	1618.76
488.37	1644.88
488.73	1674.49
489.09	1707.65
489.45	1739.72
489.81	1774.97
490.17	1817.19
490.53	1851.81
490.89	1891.13
491.25	1930.68
491.61	1975.93
491.97	2019.93
492.33	2071.61
492.69	2126.92
493.05	2183.25
493.41	2242.91
493.77	2306.04
494.13	2371.97
494.49	2440.55
494.85	2517.88
495.21	2593.13
495.57	2671.18
495.93	2750.90
496.29	2833.38
496.64	2920.71
497.00	3006.86
497.36	3101.26
497.72	3204.80
498.08	3313.54
498.44	3429.45
498.80	3553.12
499.16	3682.44
499.52	3819.87
499.88	3973.57
500.24	4131.02
500.60	4284.82
500.96	4448.77
501.32	4618.25
501.68	4782.79
502.03	4962.40
502.39	5171.60
502.75	5380.10
503.11	5602.47
503.47	5832.78
503.83	6077.76
504.19	6330.99
504.55	6606.96
504.91	6884.12
505.26	7164.33
505.62	7462.26
505.98	7775.26
506.34	8097.04
506.70	8459.16
507.06	8845.84
507.42	9248.11
507.78	9664.31
508.13	10079.77
508.49	10514.15
508.85	10984.39
509.21	11471.22
509.57	11989.60
509.93	12548.64
510.28	13150.30
510.64	13760.64
511.00	14358.51
511.36	14941.98
511.72	15521.71
512.07	16149.09
512.43	16755.82
512.79	17424.59
513.15	18136.55
513.51	18899.05
513.86	19606.62
514.22	20438.42
514.58	21231.68
514.94	22077.69
515.30	22919.13
515.65	23749.39
516.01	24571.08
516.37	25417.09
516.73	26173.70
517.08	27032.72
517.44	27878.96
517.80	28696.96
518.16	29553.22
518.51	30394.06
518.87	31127.53
519.23	31981.57
519.59	32837.81
519.94	33666.15
520.30	34543.26
520.66	35327.25
521.01	36126.43
521.37	36831.07
521.73	37465.21
522.09	38070.31
522.44	38703.45
522.80	39108.81
523.16	39443.18
523.51	39709.48
523.87	40014.08
524.23	40281.95
524.58	40560.73
524.94	40956.00
525.30	41273.90
525.65	41433.22
526.01	41481.95
526.37	41477.48
526.72	41406.09
527.08	41292.34
527.44	41111.14
527.79	40969.79
528.15	40866.78
528.51	40627.35
528.86	40412.16
529.22	40197.48
529.58	39963.90
529.93	39588.50
530.29	39164.49
530.65	38792.18
531.00	38445.01
531.36	38003.68
531.71	37534.16
532.07	37061.49
532.43	36462.55
532.78	35806.36
533.14	35238.73
533.49	34686.46
533.85	34079.81
534.21	33497.07
534.56	32933.42
534.92	32311.45
535.27	31701.71
535.63	31085.50
535.98	30470.94
536.34	29842.70
536.69	29184.12
537.05	28550.14
537.41	28038.05
537.76	27540.01
538.12	27003.58
538.47	26531.80
538.83	26088.45
539.18	25623.90
539.54	25132.63
539.89	24665.60
540.25	24146.65
540.60	23651.96
540.96	23136.90
541.31	22658.73
541.67	22242.39
542.02	21858.89
542.38	21447.80
542.73	21011.67
543.09	20615.60
543.44	20237.07
543.80	19870.96
544.15	19448.17
544.51	19108.98
544.86	18785.33
545.22	18424.35
545.57	18054.64
545.93	17723.29
546.28	17399.73
546.64	17080.81
546.99	16742.86
547.35	16414.41
547.70	16120.56
548.05	15829.58
548.41	15520.05
548.76	15225.18
549.12	14948.28
549.47	14661.33
549.83	14397.59
550.18	14078.06
550.53	13761.20
550.89	13486.85
551.24	13222.74
551.60	12913.81
551.95	12656.47
552.30	12417.41
552.66	12166.25
553.01	11896.10
553.37	11624.83
553.72	11360.05
554.07	11095.61
554.43	10811.82
554.78	10544.02
555.13	10288.41
555.49	10065.10
555.84	9866.27
556.19	9690.52
556.55	9492.98
556.90	9296.51
557.26	9089.59
557.61	8865.18
557.96	8615.11
558.32	8415.14
558.67	8214.58
559.02	7994.71
559.37	7822.91
559.73	7674.92
560.08	7520.12
560.43	7369.18
560.79	7240.87
561.14	7083.58
561.49	6921.34
561.85	6758.65
562.20	6607.99
562.55	6470.22
562.90	6338.73
563.26	6211.97
563.61	6100.33
563.96	5986.08
564.32	5869.01
564.67	5752.78
565.02	5630.81
565.37	5513.97
565.73	5400.34
566.08	5295.20
566.43	5179.72
566.78	5074.61
567.14	4964.49
567.49	4858.41
567.84	4756.11
568.19	4653.50
568.54	4574.18
568.90	4487.20
569.25	4410.90
569.60	4334.74
569.95	4263.59
570.31	4179.80
570.66	4102.89
571.01	4008.17
571.36	3915.13
571.71	3837.82
572.06	3766.86
572.42	3702.54
572.77	3653.11
573.12	3600.00
573.47	3541.75
573.82	3479.77
574.18	3411.78
574.53	3345.84
574.88	3291.10
575.23	3236.77
575.58	3186.85
575.93	3137.23
576.28	3086.32
576.64	3025.70
576.99	2967.54
577.34	2909.15
577.69	2858.03
578.04	2807.45
578.39	2759.40
578.74	2719.37
579.09	2680.03
579.44	2636.38
579.80	2597.27
580.15	2562.72
580.50	2523.96
580.85	2487.43
581.20	2459.04
581.55	2431.35
581.90	2402.09
582.25	2370.73
582.60	2334.08
582.95	2294.59
583.30	2255.83
583.65	2223.23
584.00	2188.59
584.35	2156.59
584.71	2127.29
585.06	2100.26
585.41	2064.68
585.76	2039.82
586.11	2015.67
586.46	1996.31
586.81	1972.93
587.16	1954.30
587.51	1935.97
587.86	1915.00
588.21	1893.33
588.56	1873.01
588.91	1851.74
589.26	1827.79
589.61	1807.24
589.96	1788.78
590.31	1770.64
590.66	1751.33
591.01	1733.33
591.36	1720.15
591.71	1701.22
592.06	1688.39
592.41	1674.54
592.76	1666.48
593.10	1654.74
593.45	1643.50
593.80	1625.78
594.15	1608.46
594.50	1589.36
594.85	1573.82
595.20	1561.65
595.55	1550.16
595.90	1546.81
596.25	1540.84
596.60	1530.15
596.95	1518.68
597.30	1510.46
597.64	1545.88
597.99	1536.61
598.34	1528.86
598.69	1518.52
599.04	1507.80
599.39	1450.45
599.74	1438.42
600.09	1429.08
600.44	1423.26
600.78	1415.79
601.13	1407.57
601.48	1402.82
601.83	1397.37
602.18	1390.98
602.53	1384.12
602.88	1378.97
603.22	1373.01
603.57	1364.58
603.92	1357.67
604.27	1348.66
604.62	1339.00
604.97	1332.68
605.31	1327.53
605.66	1317.18
606.01	1317.56
606.36	1313.65
606.71	1304.05
607.05	1295.00
607.40	1293.61
607.75	1284.11
608.10	1279.45
608.44	1278.49
608.79	1278.99
609.14	1274.84
609.49	1271.22
609.84	1268.20
610.18	1262.74
610.53	1259.61
610.88	1255.63
611.23	1254.93
611.57	1253.40
611.92	1249.71
612.27	1245.33
612.62	1239.13
612.96	1235.76
613.31	1230.51
613.66	1226.49
614.00	1222.58
614.35	1221.92
614.70	1216.45
615.05	1212.19
615.39	1209.80
615.74	1204.14
616.09	1200.98
616.43	1198.59
616.78	1197.93
617.13	1193.51
617.47	1190.65
617.82	1190.58
618.17	1190.72
618.51	1187.17
618.86	1185.76
619.21	1186.21
619.55	1182.86
619.90	1178.23
620.25	1175.60
620.59	1174.15
620.94	1170.67
621.29	1169.24
621.63	1167.53
621.98	1165.33
622.32	1165.42
622.67	1163.69
623.02	1161.28
623.36	1160.16
623.71	1159.34
624.05	1156.04
624.40	1157.18
624.75	1151.50
625.09	1150.70
625.44	1148.95
625.78	1149.34
626.13	1143.54
626.48	1144.57
626.82	1140.10
627.17	1140.45
627.51	1136.21
627.86	1138.86
628.20	1138.62
628.55	1141.27
628.89	1138.39
629.24	1138.02
629.58	1135.42
629.93	1133.26
630.28	1129.52
630.62	1130.83
630.97	1131.18
631.31	1133.85
631.66	1134.72
632.00	1135.77
632.35	1133.43
632.69	1129.71
633.04	1126.41
633.38	1126.06
633.73	1125.31
634.07	1121.80
634.42	1122.12
634.76	1122.05
635.11	1119.97
635.45	1118.52
635.79	1121.05
636.14	1122.54
636.48	1120.58
636.83	1122.26
637.17	1120.02
637.52	1118.52
637.86	1117.61
638.21	1115.48
638.55	1110.75
638.89	1110.02
639.24	1109.18
639.58	1107.71
639.93	1108.01
640.27	1109.53
640.61	1111.26
640.96	1110.63
641.30	1108.78
641.65	1109.55
641.99	1109.58
642.33	1109.06
642.68	1110.00
643.02	1114.63
643.37	1116.18
643.71	1114.24
644.05	1114.17
644.40	1112.95
644.74	1109.41
645.08	1109.60
645.43	1110.02
645.77	1109.74
646.11	1107.61
646.46	1107.17
646.80	1100.89
647.14	1102.32
647.49	1102.21
647.83	1104.64
648.17	1103.45
648.52	1100.92
648.86	1098.53
649.20	1098.93
649.55	1099.49
649.89	1100.29
650.23	1105.29
650.57	1105.06
650.92	1104.12
651.26	1102.32
651.60	1101.92
651.95	1101.85
652.29	1104.10
652.63	1101.71
652.97	1099.96
653.32	1097.92
653.66	1097.59
654.00	1095.96
654.34	1096.99
654.69	1100.03
655.03	1102.91
655.37	1104.10
655.71	1105.06
656.05	1105.95
656.40	1103.80
656.74	1100.99
657.08	1099.84
657.42	1099.16
657.76	1099.47
658.11	1101.46
658.45	1103.38
658.79	1102.60
659.13	1097.27
659.47	1095.67
659.82	1095.79
660.16	1094.79
660.50	1095.32
660.84	1098.95
661.18	1099.84
661.52	1096.19
661.87	1096.80
662.21	1093.64
662.55	1094.15
662.89	1093.52
663.23	1094.72
663.57	1094.22
663.91	1094.88
664.25	1094.01
664.60	1092.37
664.94	1093.62
665.28	1095.16
665.62	1094.69
665.96	1093.52
666.30	1092.68
666.64	1092.49
666.98	1092.12
667.32	1093.85
667.66	1092.45
668.01	1093.69
668.35	1089.68
668.69	1088.02
669.03	1087.76
669.37	1092.12
669.71	1090.10
670.05	1091.16
670.39	1089.26
670.73	1091.23
671.07	1087.06
671.41	1088.42
671.75	1089.22
672.09	1090.46
672.43	1088.63
672.77	1093.19
673.11	1095.02
673.45	1097.08
673.79	1098.25
674.13	1097.59
674.47	1096.63
674.81	1095.02
675.15	1092.05
675.49	1092.45
675.83	1093.10
676.17	1093.01
676.51	1093.31
676.85	1095.56
677.19	1093.94
677.53	1092.80
677.87	1089.19
678.21	1087.83
678.55	1087.18
678.89	1088.91
679.23	1090.48
679.57	1093.43
679.90	1093.31
680.24	1092.42
680.58	1091.67
680.92	1089.87
681.26	1086.66
681.60	1087.32
681.94	1088.23
682.28	1086.69
682.62	1087.65
682.96	1091.04
683.29	1093.05
683.63	1091.13
683.97	1093.36
684.31	1093.90
684.65	1094.48
684.99	1094.25
685.33	1094.67
685.67	1095.23
686.00	1096.45
686.34	1097.24
686.68	1095.32
687.02	1094.90
687.36	1093.94
687.70	1093.38
688.03	1091.30
688.37	1092.87
688.71	1093.31
689.05	1093.08
689.39	1090.55
689.72	1091.70
690.06	1089.31
690.40	1089.07
690.74	1087.88
691.08	1084.63
691.41	1086.94
691.75	1091.37
692.09	1093.08
692.43	1092.37
692.76	1095.77
693.10	1091.58
693.44	1088.21
693.78	1088.86
694.11	1090.41
694.45	1093.80
694.79	1095.09
695.13	1095.84
695.46	1093.40
695.80	1092.28
696.14	1089.03
696.48	1090.92
696.81	1090.69
697.15	1093.01
697.49	1093.85
697.82	1094.81
698.16	1093.76
698.50	1096.07
698.83	1093.26
699.17	1093.15
699.51	1091.27
699.84	1090.32
700.18	1087.79
700.52	1091.51
700.85	1090.57
701.19	1093.26
701.53	1093.29
701.86	1092.59
702.20	1092.59
702.54	1094.76
702.87	1095.93
703.21	1095.04
703.55	1095.91
703.88	1091.53
704.22	1089.17
704.55	1090.29
704.89	1091.79
705.23	1092.59
705.56	1093.55
705.90	1095.04
706.23	1092.12
706.57	1090.20
706.91	1090.29
707.24	1089.14
707.58	1090.46
707.91	1091.67
708.25	1092.14
708.58	1091.30
708.92	1094.57
709.26	1091.63
709.59	1088.49
709.93	1089.31
710.26	1088.44
710.60	1088.35
710.93	1088.96
711.27	1088.28
711.60	1084.84
711.94	1086.76
712.27	1085.82
712.61	1084.63
712.94	1085.91
713.28	1083.11
713.61	1083.39
713.95	1086.41
714.28	1089.45
714.62	1089.24
714.95	1093.94
715.29	1091.04
715.62	1088.58
715.96	1086.13
716.29	1086.13
716.63	1085.00
716.96	1087.60
717.29	1087.86
717.63	1087.41
717.96	1090.03
718.30	1094.18
718.63	1094.34
718.97	1090.48
719.30	1090.27
719.63	1088.23
719.97	1087.79
720.30	1084.72
720.64	1088.68
720.97	1090.85
721.30	1090.53
721.64	1087.25
721.97	1086.94
722.31	1085.35
722.64	1083.83
722.97	1084.46
723.31	1086.08
723.64	1084.46
723.97	1085.94
724.31	1082.87
724.64	1082.24
724.98	1083.60
725.31	1085.42
725.64	1084.32
725.98	1085.35
726.31	1086.41
726.64	1082.17
726.97	1083.81
727.31	1083.18
727.64	1087.53
727.97	1084.04
728.31	1086.59
728.64	1086.27
728.97	1085.75
729.31	1085.00
729.64	1085.80
729.97	1086.94
730.30	1081.96
730.64	1081.73
730.97	1082.29
731.30	1084.74
731.63	1081.05
731.97	1084.89
732.30	1087.79
732.63	1086.62
732.96	1085.19
733.30	1086.15
733.63	1085.56
733.96	1084.00
734.29	1082.94
734.63	1085.70
734.96	1085.94
735.29	1085.54
735.62	1088.02
735.95	1086.27
736.29	1083.79
736.62	1083.62
736.95	1088.93
737.28	1086.48
737.61	1089.19
737.94	1089.64
738.28	1092.12
738.61	1088.16
738.94	1089.59
739.27	1089.82
739.60	1088.63
739.93	1085.31
740.27	1085.52
740.60	1086.20
740.93	1083.97
741.26	1085.05
741.59	1089.10
741.92	1088.91
742.25	1086.15
742.58	1091.74
742.91	1093.73
743.25	1090.64
743.58	1092.98
743.91	1094.86
744.24	1090.99
744.57	1090.64
744.90	1089.24
745.23	1083.81
745.56	1082.01
745.89	1083.29
746.22	1084.35
746.55	1088.44
746.88	1092.19
747.21	1089.99
747.54	1090.22
747.87	1090.85
748.20	1091.13
748.53	1093.12
748.87	1094.88
749.20	1092.19
749.53	1087.13
749.86	1083.39
750.19	1079.74
750.52	1082.59
750.85	1086.38
751.18	1086.94
751.51	1088.07
751.84	1089.12
752.16	1086.83
752.49	1083.13
752.82	1084.21
753.15	1085.59
753.48	1084.37
753.81	1084.74
754.14	1085.59
754.47	1085.24
754.80	1083.34
755.13	1084.00
755.46	1083.60
755.79	1080.60
756.12	1081.75
756.45	1078.36
756.78	1078.99
757.11	1076.13
757.43	1076.83
757.76	1081.09
758.09	1086.97
758.42	1088.86
758.75	1091.98
759.08	1093.90
759.41	1089.87
759.74	1091.25
760.07	1092.19
760.39	1096.19
760.72	1097.85
761.05	1097.57
761.38	1096.00
761.71	1092.19
762.04	1084.49
762.36	1083.64
762.69	1084.44
763.02	1084.16
763.35	1087.53
