SpectraSuite Data File
++++++++++++++++++++++++++++++++++++
Date: Mon Aug 26 10:26:47 PDT 2019
User: corrico
Dark Spectrum Present: No
Reference Spectrum Present: No
Number of Sampled Component Spectra: 1
Spectrometers: USB2+H06089
Integration Time (usec): 10000 (USB2+H06089)
Spectra Averaged: 20 (USB2+H06089)
Boxcar Smoothing: 2 (USB2+H06089)
Correct for Electrical Dark: No (USB2+H06089)
Strobe/Lamp Enabled: No (USB2+H06089)
Correct for Detector Non-linearity: No (USB2+H06089)
Correct for Stray Light: No (USB2+H06089)
Number of Pixels in Processed Spectrum: 2048
>>>>>Begin Processed Spectral Data<<<<<
339.70	1028.31
340.07	1028.31
340.45	993.60
340.82	973.05
341.19	951.17
341.57	927.72
341.94	918.64
342.31	908.50
342.69	904.43
343.06	901.74
343.43	900.33
343.81	903.47
344.18	906.91
344.55	907.85
344.93	912.93
345.30	919.95
345.67	927.84
346.04	935.77
346.42	943.82
346.79	951.71
347.16	956.25
347.54	961.91
347.91	971.30
348.28	982.81
348.65	993.11
349.03	1007.18
349.40	1017.88
349.77	1028.57
350.14	1035.94
350.52	1040.20
350.89	1049.10
351.26	1054.18
351.63	1056.73
352.01	1057.55
352.38	1061.69
352.75	1061.01
353.12	1067.07
353.50	1071.19
353.87	1080.11
354.24	1085.40
354.61	1090.97
354.98	1092.70
355.36	1095.86
355.73	1094.39
356.10	1092.16
356.47	1090.24
356.84	1090.20
357.22	1087.95
357.59	1087.60
357.96	1089.94
358.33	1089.89
358.70	1090.46
359.08	1093.59
359.45	1094.08
359.82	1094.06
360.19	1093.83
360.56	1091.72
360.94	1087.79
361.31	1085.45
361.68	1081.49
362.05	1080.41
362.42	1078.61
362.79	1079.50
363.16	1081.21
363.54	1083.79
363.91	1082.29
364.28	1083.01
364.65	1081.58
365.02	1082.71
365.39	1079.99
365.76	1077.00
366.14	1074.40
366.51	1070.98
366.88	1066.61
367.25	1068.01
367.62	1071.10
367.99	1072.95
368.36	1078.87
368.73	1080.16
369.10	1079.95
369.48	1079.76
369.85	1079.34
370.22	1078.17
370.59	1079.15
370.96	1081.12
371.33	1082.29
371.70	1081.89
372.07	1077.72
372.44	1079.10
372.81	1080.34
373.18	1081.37
373.55	1077.56
373.93	1079.10
374.30	1077.42
374.67	1076.79
375.04	1076.20
375.41	1080.60
375.78	1082.08
376.15	1082.29
376.52	1078.96
376.89	1079.31
377.26	1080.60
377.63	1080.77
378.00	1081.73
378.37	1084.39
378.74	1083.32
379.11	1085.68
379.48	1087.34
379.85	1087.53
380.22	1088.72
380.59	1088.93
380.96	1084.23
381.33	1083.62
381.70	1084.84
382.07	1084.56
382.44	1085.91
382.81	1085.35
383.18	1084.81
383.55	1083.81
383.92	1083.04
384.29	1084.77
384.66	1086.10
385.03	1088.79
385.40	1087.18
385.77	1084.11
386.14	1079.95
386.51	1082.99
386.88	1079.62
387.25	1079.36
387.62	1081.54
387.99	1081.73
388.36	1080.18
388.73	1079.99
389.10	1082.57
389.46	1084.21
389.83	1086.13
390.20	1083.93
390.57	1085.77
390.94	1084.93
391.31	1084.49
391.68	1087.27
392.05	1091.86
392.42	1090.99
392.79	1089.82
393.16	1090.22
393.53	1084.93
393.89	1082.33
394.26	1083.81
394.63	1084.86
395.00	1085.68
395.37	1089.54
395.74	1091.25
396.11	1091.95
396.48	1094.27
396.84	1090.97
397.21	1090.69
397.58	1090.22
397.95	1086.78
398.32	1086.64
398.69	1086.24
399.06	1083.46
399.42	1085.42
399.79	1089.40
400.16	1089.96
400.53	1094.15
400.90	1096.85
401.27	1095.18
401.64	1095.02
402.00	1093.29
402.37	1093.94
402.74	1094.22
403.11	1095.77
403.48	1096.03
403.84	1100.68
404.21	1098.98
404.58	1100.68
404.95	1102.16
405.32	1101.48
405.68	1096.42
406.05	1096.33
406.42	1094.57
406.79	1092.28
407.16	1094.65
407.52	1096.82
407.89	1097.90
408.26	1097.50
408.63	1095.72
408.99	1094.53
409.36	1094.27
409.73	1095.04
410.10	1097.57
410.47	1099.70
410.83	1098.11
411.20	1098.09
411.57	1099.14
411.94	1103.21
412.30	1103.21
412.67	1102.70
413.04	1105.27
413.40	1101.48
413.77	1095.37
414.14	1096.40
414.51	1097.71
414.87	1096.17
415.24	1098.79
415.61	1099.23
415.97	1100.99
416.34	1100.94
416.71	1101.62
417.08	1101.48
417.44	1103.12
417.81	1102.21
418.18	1103.89
418.54	1103.33
418.91	1106.72
419.28	1107.64
419.64	1106.21
420.01	1103.16
420.38	1102.21
420.74	1097.27
421.11	1094.36
421.48	1097.59
421.84	1102.67
422.21	1107.03
422.58	1108.95
422.94	1111.40
423.31	1112.32
423.68	1110.42
424.04	1109.25
424.41	1109.11
424.77	1108.83
425.14	1109.32
425.51	1110.89
425.87	1113.39
426.24	1115.01
426.61	1117.49
426.97	1118.57
427.34	1117.61
427.70	1115.34
428.07	1116.74
428.44	1115.43
428.80	1114.31
429.17	1111.87
429.53	1111.43
429.90	1112.67
430.27	1112.92
430.63	1110.44
431.00	1113.07
431.36	1112.69
431.73	1109.98
432.09	1108.43
432.46	1113.09
432.83	1113.25
433.19	1113.04
433.56	1114.68
433.92	1116.41
434.29	1112.88
434.65	1114.94
435.02	1115.66
435.38	1114.75
435.75	1111.89
436.11	1108.88
436.48	1108.71
436.84	1108.36
437.21	1106.96
437.57	1111.85
437.94	1111.57
438.30	1109.25
438.67	1109.91
439.03	1113.25
439.40	1109.84
439.76	1111.52
440.13	1110.58
440.49	1111.31
440.86	1105.74
441.22	1106.02
441.59	1107.24
441.95	1109.74
442.32	1109.16
442.68	1112.36
443.05	1111.45
443.41	1112.20
443.78	1108.78
444.14	1105.53
444.51	1103.96
444.87	1107.26
445.24	1104.73
445.60	1104.08
445.96	1106.93
446.33	1108.71
446.69	1106.58
447.06	1106.51
447.42	1110.49
447.79	1109.44
448.15	1109.32
448.51	1108.22
448.88	1110.21
449.24	1108.13
449.61	1108.43
449.97	1107.31
450.33	1109.16
450.70	1110.09
451.06	1111.45
451.43	1112.90
451.79	1115.92
452.15	1115.22
452.52	1112.97
452.88	1113.25
453.24	1110.49
453.61	1109.13
453.97	1106.65
454.34	1107.68
454.70	1108.90
455.06	1111.64
455.43	1109.91
455.79	1115.34
456.15	1113.91
456.52	1110.94
456.88	1111.29
457.24	1113.58
457.61	1109.86
457.97	1112.04
458.33	1116.32
458.70	1114.94
459.06	1115.97
459.42	1118.85
459.79	1115.27
460.15	1113.67
460.51	1116.20
460.88	1116.08
461.24	1116.60
461.60	1121.84
461.96	1119.03
462.33	1116.65
462.69	1116.74
463.05	1117.75
463.42	1116.72
463.78	1117.56
464.14	1115.78
464.50	1116.65
464.87	1117.04
465.23	1118.54
465.59	1121.84
465.95	1128.86
466.32	1132.35
466.68	1128.86
467.04	1129.19
467.40	1130.97
467.77	1131.25
468.13	1128.04
468.49	1134.81
468.85	1136.94
469.22	1136.47
469.58	1133.57
469.94	1137.90
470.30	1136.40
470.66	1133.45
471.03	1136.47
471.39	1142.04
471.75	1142.16
472.11	1144.38
472.47	1149.11
472.84	1151.47
473.20	1154.52
473.56	1158.35
473.92	1161.23
474.28	1162.50
474.65	1165.96
475.01	1170.41
475.37	1172.73
475.73	1175.60
476.09	1183.82
476.45	1187.35
476.81	1190.82
477.18	1198.21
477.54	1206.22
477.90	1209.89
478.26	1211.39
478.62	1214.71
478.98	1218.55
479.34	1222.37
479.71	1231.52
480.07	1244.09
480.43	1254.60
480.79	1264.10
481.15	1274.80
481.51	1283.11
481.87	1290.99
482.23	1303.28
482.59	1315.69
482.96	1328.58
483.32	1342.91
483.68	1358.26
484.04	1371.83
484.40	1386.72
484.76	1404.02
485.12	1419.46
485.48	1439.85
485.84	1456.94
486.20	1477.56
486.56	1500.68
486.92	1525.98
487.28	1551.61
487.64	1580.12
488.00	1611.34
488.37	1636.62
488.73	1670.81
489.09	1702.88
489.45	1741.87
489.81	1776.14
490.17	1815.32
490.53	1853.89
490.89	1896.42
491.25	1931.92
491.61	1974.10
491.97	2018.85
492.33	2070.91
492.69	2119.00
493.05	2172.11
493.41	2228.31
493.77	2294.78
494.13	2354.23
494.49	2423.46
494.85	2496.67
495.21	2570.68
495.57	2646.40
495.93	2731.94
496.29	2812.69
496.64	2908.84
497.00	2998.46
497.36	3095.85
497.72	3190.41
498.08	3300.16
498.44	3407.73
498.80	3530.46
499.16	3658.89
499.52	3796.09
499.88	3947.76
500.24	4103.71
500.60	4260.88
500.96	4418.16
501.32	4581.51
501.68	4740.78
502.03	4921.35
502.39	5135.63
502.75	5349.53
503.11	5576.86
503.47	5803.19
503.83	6041.51
504.19	6278.42
504.55	6536.95
504.91	6808.08
505.26	7096.81
505.62	7393.33
505.98	7706.12
506.34	8039.44
506.70	8403.39
507.06	8787.82
507.42	9185.64
507.78	9590.39
508.13	10006.00
508.49	10416.37
508.85	10870.15
509.21	11332.76
509.57	11836.60
509.93	12370.92
510.28	12948.31
510.64	13544.75
511.00	14153.29
511.36	14729.37
511.72	15316.04
512.07	15957.07
512.43	16556.27
512.79	17224.92
513.15	17948.49
513.51	18683.63
513.86	19411.89
514.22	20244.49
514.58	21030.39
514.94	21858.45
515.30	22689.76
515.65	23503.82
516.01	24329.78
516.37	25178.66
516.73	25937.18
517.08	26806.46
517.44	27639.57
517.80	28418.57
518.16	29239.70
518.51	30058.82
518.87	30780.10
519.23	31619.33
519.59	32484.58
519.94	33307.95
520.30	34182.68
520.66	34957.63
521.01	35743.73
521.37	36419.88
521.73	37018.45
522.09	37610.04
522.44	38240.61
522.80	38648.12
523.16	39000.23
523.51	39287.30
523.87	39567.88
524.23	39852.30
524.58	40111.73
524.94	40500.93
525.30	40854.78
525.65	41045.79
526.01	41065.33
526.37	41081.64
526.72	41015.78
527.08	40852.16
527.44	40666.71
527.79	40518.25
528.15	40385.69
528.51	40136.79
528.86	39939.49
529.22	39718.52
529.58	39477.37
529.93	39123.04
530.29	38694.44
530.65	38311.06
531.00	37966.06
531.36	37504.11
531.71	37056.37
532.07	36597.30
532.43	36044.30
532.78	35393.93
533.14	34843.98
533.49	34268.79
533.85	33654.91
534.21	33029.10
534.56	32472.92
534.92	31868.17
535.27	31252.82
535.63	30674.05
535.98	30060.83
536.34	29451.48
536.69	28833.86
537.05	28239.83
537.41	27720.11
537.76	27247.28
538.12	26717.07
538.47	26234.99
538.83	25790.71
539.18	25309.08
539.54	24838.09
539.89	24365.87
540.25	23852.14
540.60	23360.51
540.96	22870.50
541.31	22377.91
541.67	21966.63
542.02	21602.16
542.38	21182.67
542.73	20759.87
543.09	20388.10
543.44	20023.05
543.80	19674.89
544.15	19287.70
544.51	18948.86
544.86	18628.51
545.22	18277.36
545.57	17881.74
545.93	17534.17
546.28	17226.81
546.64	16906.30
546.99	16565.89
547.35	16259.56
547.70	15969.12
548.05	15655.47
548.41	15358.71
548.76	15074.66
549.12	14785.89
549.47	14500.51
549.83	14236.66
550.18	13912.89
550.53	13573.16
550.89	13304.17
551.24	13037.88
551.60	12742.34
551.95	12493.55
552.30	12277.47
552.66	12029.67
553.01	11792.48
553.37	11518.99
553.72	11251.87
554.07	10984.27
554.43	10703.29
554.78	10418.12
555.13	10171.80
555.49	9938.36
555.84	9746.32
556.19	9561.09
556.55	9366.68
556.90	9183.63
557.26	8987.59
557.61	8770.24
557.96	8544.76
558.32	8347.33
558.67	8146.96
559.02	7935.40
559.37	7752.16
559.73	7589.84
560.08	7436.40
560.43	7291.21
560.79	7171.14
561.14	7022.94
561.49	6873.52
561.85	6722.07
562.20	6571.66
562.55	6425.00
562.90	6296.95
563.26	6175.20
563.61	6052.44
563.96	5938.31
564.32	5820.16
564.67	5698.48
565.02	5572.14
565.37	5460.75
565.73	5345.88
566.08	5244.74
566.43	5139.54
566.78	5036.76
567.14	4929.59
567.49	4822.35
567.84	4719.34
568.19	4612.66
568.54	4518.71
568.90	4438.55
569.25	4363.79
569.60	4290.90
569.95	4227.59
570.31	4152.95
570.66	4065.37
571.01	3978.42
571.36	3894.25
571.71	3813.65
572.06	3747.22
572.42	3688.57
572.77	3633.54
573.12	3575.75
573.47	3515.93
573.82	3455.08
574.18	3386.83
574.53	3326.60
574.88	3276.33
575.23	3226.45
575.58	3180.69
575.93	3139.41
576.28	3084.73
576.64	3021.16
576.99	2964.62
577.34	2905.59
577.69	2845.65
578.04	2796.43
578.39	2752.59
578.74	2713.22
579.09	2674.25
579.44	2638.88
579.80	2600.12
580.15	2556.52
580.50	2511.04
580.85	2473.78
581.20	2440.08
581.55	2410.96
581.90	2386.64
582.25	2361.44
582.60	2323.26
582.95	2283.94
583.30	2246.05
583.65	2212.06
584.00	2174.10
584.35	2147.11
584.71	2120.17
585.06	2092.13
585.41	2060.49
585.76	2035.89
586.11	2008.60
586.46	1985.13
586.81	1965.75
587.16	1945.34
587.51	1926.24
587.86	1908.82
588.21	1888.34
588.56	1865.08
588.91	1842.17
589.26	1816.96
589.61	1799.33
589.96	1785.90
590.31	1767.67
590.66	1752.64
591.01	1739.72
591.36	1718.49
591.71	1701.27
592.06	1686.17
592.41	1672.48
592.76	1656.51
593.10	1647.25
593.45	1630.16
593.80	1615.60
594.15	1601.89
594.50	1588.66
594.85	1570.80
595.20	1558.26
595.55	1545.97
595.90	1534.81
596.25	1526.40
596.60	1514.44
596.95	1504.52
597.30	1493.59
597.64	1531.46
597.99	1525.21
598.34	1520.27
598.69	1509.20
599.04	1504.29
599.39	1448.35
599.74	1439.13
600.09	1428.52
600.44	1418.62
600.78	1409.52
601.13	1401.37
601.48	1389.72
601.83	1385.29
602.18	1380.80
602.53	1376.66
602.88	1369.14
603.22	1360.37
603.57	1349.20
603.92	1343.91
604.27	1334.99
604.62	1327.95
604.97	1325.84
605.31	1323.46
605.66	1316.11
606.01	1308.57
606.36	1302.70
606.71	1295.35
607.05	1290.01
607.40	1285.84
607.75	1283.18
608.10	1279.48
608.44	1274.49
608.79	1270.40
609.14	1265.60
609.49	1264.66
609.84	1264.17
610.18	1263.68
610.53	1262.37
610.88	1260.66
611.23	1257.48
611.57	1253.54
611.92	1247.39
612.27	1241.86
612.62	1239.57
612.96	1235.19
613.31	1229.83
613.66	1228.17
614.00	1223.66
614.35	1220.31
614.70	1210.43
615.05	1210.45
615.39	1209.50
615.74	1207.58
616.09	1202.57
616.43	1204.63
616.78	1200.62
617.13	1195.48
617.47	1196.06
617.82	1194.80
618.17	1191.47
618.51	1189.98
618.86	1186.98
619.21	1181.06
619.55	1176.33
619.90	1172.23
620.25	1164.28
620.59	1162.90
620.94	1162.31
621.29	1162.33
621.63	1162.40
621.98	1167.08
622.32	1166.69
622.67	1163.04
623.02	1160.65
623.36	1160.55
623.71	1154.89
624.05	1151.33
624.40	1149.53
624.75	1150.26
625.09	1150.51
625.44	1150.21
625.78	1148.55
626.13	1148.15
626.48	1145.50
626.82	1140.75
627.17	1141.60
627.51	1143.19
627.86	1143.19
628.20	1143.52
628.55	1142.74
628.89	1135.82
629.24	1131.49
629.58	1129.66
629.93	1128.89
630.28	1128.35
630.62	1129.64
630.97	1128.56
631.31	1128.61
631.66	1128.33
632.00	1125.26
632.35	1125.84
632.69	1125.54
633.04	1123.32
633.38	1121.02
633.73	1121.26
634.07	1119.41
634.42	1118.66
634.76	1118.14
635.11	1117.68
635.45	1119.92
635.79	1118.40
636.14	1120.18
636.48	1118.85
636.83	1113.35
637.17	1110.47
637.52	1112.90
637.86	1113.11
638.21	1112.36
638.55	1116.74
638.89	1113.93
639.24	1115.62
639.58	1116.44
639.93	1119.45
640.27	1121.65
640.61	1124.53
640.96	1123.62
641.30	1118.00
641.65	1113.49
641.99	1109.79
642.33	1108.66
642.68	1106.84
643.02	1109.11
643.37	1109.72
643.71	1108.34
644.05	1112.85
644.40	1110.33
644.74	1109.02
645.08	1109.72
645.43	1111.87
645.77	1107.49
646.11	1108.85
646.46	1108.59
646.80	1109.32
647.14	1104.50
647.49	1107.38
647.83	1102.98
648.17	1100.64
648.52	1100.05
648.86	1104.15
649.20	1101.69
649.55	1104.17
649.89	1105.01
650.23	1104.80
650.57	1102.46
650.92	1098.53
651.26	1097.34
651.60	1097.17
651.95	1098.20
652.29	1097.36
652.63	1096.54
652.97	1097.64
653.32	1098.23
653.66	1094.29
654.00	1093.66
654.34	1093.90
654.69	1094.57
655.03	1091.39
655.37	1090.69
655.71	1087.81
656.05	1090.01
656.40	1090.13
656.74	1094.74
657.08	1094.36
657.42	1095.98
657.76	1094.53
658.11	1093.90
658.45	1091.30
658.79	1092.70
659.13	1094.27
659.47	1097.69
659.82	1095.23
660.16	1097.97
660.50	1096.99
660.84	1096.85
661.18	1093.55
661.52	1097.36
661.87	1095.72
662.21	1095.07
662.55	1097.88
662.89	1098.44
663.23	1094.13
663.57	1093.73
663.91	1100.29
664.25	1098.79
664.60	1099.56
664.94	1102.49
665.28	1103.23
665.62	1100.50
665.96	1101.60
666.30	1100.59
666.64	1101.41
666.98	1098.95
667.32	1093.10
667.66	1090.03
668.01	1089.68
668.35	1085.35
668.69	1084.39
669.03	1087.02
669.37	1087.48
669.71	1087.62
670.05	1088.91
670.39	1091.70
670.73	1089.85
671.07	1087.83
671.41	1087.53
671.75	1086.90
672.09	1089.57
672.43	1091.46
672.77	1091.86
673.11	1090.92
673.45	1093.29
673.79	1089.57
674.13	1089.89
674.47	1090.62
674.81	1092.66
675.15	1090.06
675.49	1092.37
675.83	1094.65
676.17	1094.15
676.51	1094.86
676.85	1094.36
677.19	1091.49
677.53	1090.76
677.87	1091.09
678.21	1086.48
678.55	1088.33
678.89	1088.26
679.23	1088.14
679.57	1089.07
679.90	1091.86
680.24	1090.78
680.58	1092.91
680.92	1090.50
681.26	1086.20
681.60	1084.60
681.94	1083.71
682.28	1080.79
682.62	1081.07
682.96	1085.73
683.29	1088.30
683.63	1089.40
683.97	1089.43
684.31	1089.19
684.65	1090.50
684.99	1089.12
685.33	1090.53
685.67	1092.68
686.00	1096.45
686.34	1094.60
686.68	1093.69
687.02	1093.92
687.36	1088.86
687.70	1085.89
688.03	1084.23
688.37	1087.25
688.71	1087.37
689.05	1092.98
689.39	1093.05
689.72	1095.16
690.06	1092.96
690.40	1093.66
690.74	1092.19
691.08	1091.67
691.41	1091.06
691.75	1092.75
692.09	1090.46
692.43	1090.76
692.76	1091.13
693.10	1091.77
693.44	1091.88
693.78	1094.46
694.11	1094.13
694.45	1095.32
694.79	1095.11
695.13	1093.83
695.46	1089.57
695.80	1090.53
696.14	1088.28
696.48	1086.94
696.81	1085.59
697.15	1088.49
697.49	1086.64
697.82	1085.99
698.16	1086.31
698.50	1086.34
698.83	1085.56
699.17	1086.92
699.51	1091.53
699.84	1088.96
700.18	1088.26
700.52	1084.89
700.85	1080.86
701.19	1077.91
701.53	1081.09
701.86	1080.77
702.20	1083.62
702.54	1085.56
702.87	1085.63
703.21	1081.61
703.55	1084.02
703.88	1085.61
704.22	1086.69
704.55	1089.45
704.89	1091.67
705.23	1091.56
705.56	1089.43
705.90	1088.49
706.23	1087.97
706.57	1089.82
706.91	1091.06
707.24	1093.94
707.58	1094.06
707.91	1093.05
708.25	1093.12
708.58	1090.60
708.92	1088.91
709.26	1090.29
709.59	1089.80
709.93	1090.48
710.26	1091.81
710.60	1090.76
710.93	1086.99
711.27	1085.96
711.60	1085.07
711.94	1086.36
712.27	1086.97
712.61	1086.80
712.94	1088.21
713.28	1090.81
713.61	1089.45
713.95	1088.54
714.28	1092.54
714.62	1092.91
714.95	1090.43
715.29	1089.19
715.62	1089.54
715.96	1086.99
716.29	1085.73
716.63	1082.71
716.96	1085.05
717.29	1082.22
717.63	1084.09
717.96	1082.38
718.30	1082.22
718.63	1080.93
718.97	1083.88
719.30	1081.75
719.63	1084.67
719.97	1088.19
720.30	1089.03
720.64	1088.49
720.97	1090.60
721.30	1089.17
721.64	1086.76
721.97	1084.96
722.31	1082.50
722.64	1083.29
722.97	1082.59
723.31	1083.64
723.64	1084.32
723.97	1086.48
724.31	1085.35
724.64	1088.77
724.98	1089.80
725.31	1090.67
725.64	1091.63
725.98	1095.65
726.31	1092.37
726.64	1092.09
726.97	1092.66
727.31	1092.75
727.64	1089.07
727.97	1089.24
728.31	1088.56
728.64	1084.51
728.97	1085.03
729.31	1086.43
729.64	1083.62
729.97	1083.15
730.30	1089.45
730.64	1086.97
730.97	1084.49
731.30	1087.51
731.63	1089.85
731.97	1088.35
732.30	1090.08
732.63	1090.20
732.96	1088.02
733.30	1086.31
733.63	1083.67
733.96	1083.93
734.29	1083.29
734.63	1085.21
734.96	1087.69
735.29	1086.99
735.62	1088.37
735.95	1090.10
736.29	1089.89
736.62	1088.19
736.95	1087.88
737.28	1087.65
737.61	1088.19
737.94	1089.36
738.28	1089.29
738.61	1091.72
738.94	1089.31
739.27	1087.74
739.60	1084.04
739.93	1085.05
740.27	1084.93
740.60	1084.58
740.93	1086.13
741.26	1088.37
741.59	1086.92
741.92	1086.57
742.25	1090.67
742.58	1086.62
742.91	1086.38
743.25	1084.42
743.58	1082.76
743.91	1081.56
744.24	1086.50
744.57	1086.73
744.90	1089.22
745.23	1091.63
745.56	1091.67
745.89	1090.62
746.22	1092.91
746.55	1093.94
746.88	1093.15
747.21	1093.33
747.54	1092.14
747.87	1091.88
748.20	1090.50
748.53	1091.46
748.87	1090.39
749.20	1090.01
749.53	1087.67
749.86	1088.30
750.19	1088.63
750.52	1088.96
750.85	1088.37
751.18	1090.20
751.51	1089.61
751.84	1086.90
752.16	1085.99
752.49	1086.22
752.82	1088.47
753.15	1090.03
753.48	1092.89
753.81	1094.90
754.14	1093.08
754.47	1090.55
754.80	1086.90
755.13	1084.04
755.46	1080.25
755.79	1083.13
756.12	1082.29
756.45	1082.40
756.78	1084.09
757.11	1085.47
757.43	1085.05
757.76	1085.84
758.09	1085.54
758.42	1084.49
758.75	1083.60
759.08	1084.35
759.41	1085.45
759.74	1086.83
760.07	1087.02
760.39	1089.43
760.72	1087.51
761.05	1087.51
761.38	1086.55
761.71	1083.01
762.04	1079.27
762.36	1080.27
762.69	1078.80
763.02	1082.24
763.35	1084.44
