SpectraSuite Data File
++++++++++++++++++++++++++++++++++++
Date: Mon Aug 26 10:26:44 PDT 2019
User: corrico
Dark Spectrum Present: No
Reference Spectrum Present: No
Number of Sampled Component Spectra: 1
Spectrometers: USB2+H06089
Integration Time (usec): 10000 (USB2+H06089)
Spectra Averaged: 20 (USB2+H06089)
Boxcar Smoothing: 2 (USB2+H06089)
Correct for Electrical Dark: No (USB2+H06089)
Strobe/Lamp Enabled: No (USB2+H06089)
Correct for Detector Non-linearity: No (USB2+H06089)
Correct for Stray Light: No (USB2+H06089)
Number of Pixels in Processed Spectrum: 2048
>>>>>Begin Processed Spectral Data<<<<<
339.70	1037.91
340.07	1037.91
340.45	996.76
340.82	971.56
341.19	947.92
341.57	921.68
341.94	913.16
342.31	907.96
342.69	905.46
343.06	903.14
343.43	901.22
343.81	901.67
344.18	902.00
344.55	903.80
344.93	909.53
345.30	916.13
345.67	927.34
346.04	938.77
346.42	950.94
346.79	955.48
347.16	965.73
347.54	971.72
347.91	979.05
348.28	987.40
348.65	999.46
349.03	1008.49
349.40	1015.49
349.77	1025.74
350.14	1034.35
350.52	1038.03
350.89	1043.36
351.26	1052.61
351.63	1056.96
352.01	1061.18
352.38	1069.18
352.75	1073.98
353.12	1076.11
353.50	1078.33
353.87	1082.15
354.24	1082.03
354.61	1085.91
354.98	1090.92
355.36	1093.71
355.73	1094.32
356.10	1093.10
356.47	1089.59
356.84	1085.17
357.22	1085.80
357.59	1082.54
357.96	1088.65
358.33	1089.52
358.70	1087.16
359.08	1084.23
359.45	1083.01
359.82	1080.60
360.19	1080.77
360.56	1083.43
360.94	1082.94
361.31	1086.27
361.68	1083.32
362.05	1081.89
362.42	1078.45
362.79	1078.17
363.16	1077.11
363.54	1079.48
363.91	1081.09
364.28	1085.96
364.65	1084.91
365.02	1083.43
365.39	1084.30
365.76	1087.51
366.14	1084.18
366.51	1086.99
366.88	1087.79
367.25	1083.88
367.62	1079.92
367.99	1081.19
368.36	1078.92
368.73	1075.34
369.10	1077.84
369.48	1078.99
369.85	1079.06
370.22	1078.82
370.59	1081.54
370.96	1079.60
371.33	1079.17
371.70	1079.17
372.07	1078.92
372.44	1081.23
372.81	1081.40
373.18	1078.73
373.55	1079.27
373.93	1080.13
374.30	1078.05
374.67	1077.33
375.04	1076.41
375.41	1075.69
375.78	1075.27
376.15	1076.08
376.52	1077.93
376.89	1082.45
377.26	1082.80
377.63	1082.94
378.00	1081.51
378.37	1082.26
378.74	1080.32
379.11	1080.39
379.48	1081.21
379.85	1083.20
380.22	1082.61
380.59	1081.51
380.96	1081.87
381.33	1086.29
381.70	1087.88
382.07	1088.07
382.44	1089.94
382.81	1090.01
383.18	1086.27
383.55	1084.02
383.92	1085.94
384.29	1089.36
384.66	1088.14
385.03	1089.38
385.40	1086.36
385.77	1084.18
386.14	1080.58
386.51	1085.24
386.88	1083.25
387.25	1086.73
387.62	1088.07
387.99	1090.24
388.36	1085.40
388.73	1086.64
389.10	1087.30
389.46	1088.19
389.83	1087.27
390.20	1088.14
390.57	1089.31
390.94	1090.39
391.31	1089.03
391.68	1084.81
392.05	1087.34
392.42	1087.69
392.79	1089.31
393.16	1092.89
393.53	1101.08
393.89	1099.51
394.26	1099.37
394.63	1096.78
395.00	1093.55
395.37	1089.68
395.74	1086.64
396.11	1082.59
396.48	1081.84
396.84	1085.03
397.21	1083.71
397.58	1087.41
397.95	1089.43
398.32	1089.14
398.69	1085.24
399.06	1088.12
399.42	1090.62
399.79	1094.95
400.16	1096.63
400.53	1100.73
400.90	1100.12
401.27	1100.29
401.64	1100.78
402.00	1101.41
402.37	1098.88
402.74	1099.26
403.11	1095.09
403.48	1091.91
403.84	1089.68
404.21	1090.06
404.58	1088.35
404.95	1091.30
405.32	1093.36
405.68	1096.12
406.05	1093.76
406.42	1094.43
406.79	1094.29
407.16	1095.60
407.52	1093.92
407.89	1095.82
408.26	1096.40
408.63	1096.05
408.99	1092.80
409.36	1096.12
409.73	1097.73
410.10	1098.16
410.47	1097.99
410.83	1101.03
411.20	1101.06
411.57	1103.21
411.94	1106.51
412.30	1107.38
412.67	1105.81
413.04	1106.16
413.40	1105.11
413.77	1101.20
414.14	1103.96
414.51	1102.25
414.87	1099.98
415.24	1100.26
415.61	1102.06
415.97	1100.80
416.34	1102.23
416.71	1102.42
417.08	1104.01
417.44	1105.13
417.81	1106.49
418.18	1108.52
418.54	1112.53
418.91	1111.01
419.28	1110.96
419.64	1110.44
420.01	1109.74
420.38	1107.12
420.74	1107.73
421.11	1109.46
421.48	1107.78
421.84	1109.69
422.21	1111.68
422.58	1112.34
422.94	1111.57
423.31	1110.33
423.68	1109.02
424.04	1108.38
424.41	1108.59
424.77	1107.35
425.14	1111.40
425.51	1113.02
425.87	1110.56
426.24	1110.21
426.61	1109.18
426.97	1110.58
427.34	1108.62
427.70	1111.38
428.07	1106.96
428.44	1110.58
428.80	1109.06
429.17	1108.85
429.53	1107.52
429.90	1110.47
430.27	1107.47
430.63	1107.17
431.00	1109.67
431.36	1108.41
431.73	1110.87
432.09	1114.05
432.46	1115.48
432.83	1117.44
433.19	1121.61
433.56	1119.29
433.92	1119.92
434.29	1117.96
434.65	1115.41
435.02	1114.31
435.38	1115.62
435.75	1112.95
436.11	1114.33
436.48	1118.87
436.84	1121.28
437.21	1119.57
437.57	1120.55
437.94	1118.24
438.30	1113.21
438.67	1109.44
439.03	1109.74
439.40	1107.56
439.76	1111.85
440.13	1112.13
440.49	1113.67
440.86	1117.02
441.22	1118.35
441.59	1115.99
441.95	1118.10
442.32	1115.66
442.68	1112.78
443.05	1113.39
443.41	1112.78
443.78	1108.76
444.14	1112.01
444.51	1112.67
444.87	1113.88
445.24	1113.32
445.60	1115.34
445.96	1113.11
446.33	1112.62
446.69	1110.16
447.06	1112.22
447.42	1112.08
447.79	1112.06
448.15	1109.81
448.51	1110.23
448.88	1106.07
449.24	1105.36
449.61	1106.14
449.97	1106.89
450.33	1107.80
450.70	1109.18
451.06	1107.56
451.43	1108.08
451.79	1110.98
452.15	1111.03
452.52	1113.18
452.88	1113.46
453.24	1112.06
453.61	1111.22
453.97	1112.06
454.34	1110.79
454.70	1115.08
455.06	1116.53
455.43	1114.42
455.79	1110.26
456.15	1112.48
456.52	1108.81
456.88	1106.75
457.24	1107.19
457.61	1110.12
457.97	1107.45
458.33	1109.74
458.70	1109.74
459.06	1110.70
459.42	1114.61
459.79	1116.81
460.15	1114.61
460.51	1117.21
460.88	1119.90
461.24	1115.29
461.60	1113.91
461.96	1116.69
462.33	1116.30
462.69	1115.17
463.05	1114.98
463.42	1114.26
463.78	1114.35
464.14	1112.97
464.50	1115.10
464.87	1117.02
465.23	1118.50
465.59	1119.24
465.95	1124.09
466.32	1123.36
466.68	1126.52
467.04	1130.41
467.40	1130.92
467.77	1132.16
468.13	1134.90
468.49	1133.85
468.85	1132.05
469.22	1134.15
469.58	1132.94
469.94	1133.26
470.30	1134.34
470.66	1135.32
471.03	1135.77
471.39	1138.20
471.75	1140.94
472.11	1145.06
472.47	1149.13
472.84	1151.94
473.20	1153.70
473.56	1153.35
473.92	1154.09
474.28	1156.51
474.65	1158.61
475.01	1160.41
475.37	1168.16
475.73	1174.88
476.09	1179.72
476.45	1186.89
476.81	1191.01
477.18	1190.86
477.54	1193.98
477.90	1199.15
478.26	1204.16
478.62	1214.01
478.98	1223.44
479.34	1231.82
479.71	1241.84
480.07	1253.80
480.43	1266.58
480.79	1279.99
481.15	1290.01
481.51	1297.55
481.87	1303.47
482.23	1312.88
482.59	1322.15
482.96	1336.66
483.32	1354.12
483.68	1372.02
484.04	1382.84
484.40	1397.72
484.76	1411.72
485.12	1427.09
485.48	1444.81
485.84	1463.82
486.20	1483.03
486.56	1506.13
486.92	1527.04
487.28	1548.52
487.64	1573.50
488.00	1605.70
488.37	1633.09
488.73	1666.72
489.09	1699.49
489.45	1736.58
489.81	1771.06
490.17	1809.12
490.53	1847.31
490.89	1887.45
491.25	1928.25
491.61	1970.47
491.97	2017.19
492.33	2070.70
492.69	2126.54
493.05	2182.74
493.41	2239.85
493.77	2301.43
494.13	2361.37
494.49	2427.07
494.85	2496.91
495.21	2572.60
495.57	2654.17
495.93	2736.81
496.29	2820.02
496.64	2914.51
497.00	3003.28
497.36	3100.11
497.72	3198.95
498.08	3306.52
498.44	3418.68
498.80	3545.05
499.16	3676.21
499.52	3817.46
499.88	3973.43
500.24	4128.42
500.60	4279.34
500.96	4430.96
501.32	4593.21
501.68	4756.18
502.03	4934.95
502.39	5144.24
502.75	5359.24
503.11	5582.86
503.47	5811.62
503.83	6057.17
504.19	6300.37
504.55	6568.01
504.91	6840.80
505.26	7117.99
505.62	7411.56
505.98	7727.61
506.34	8055.73
506.70	8414.32
507.06	8796.81
507.42	9188.71
507.78	9594.70
508.13	9995.63
508.49	10429.33
508.85	10880.38
509.21	11352.67
509.57	11880.47
509.93	12435.97
510.28	13009.26
510.64	13616.98
511.00	14222.24
511.36	14784.79
511.72	15356.49
512.07	15993.58
512.43	16599.43
512.79	17267.72
513.15	17986.34
513.51	18735.80
513.86	19457.01
514.22	20281.91
514.58	21060.49
514.94	21878.16
515.30	22716.42
515.65	23520.77
516.01	24335.37
516.37	25177.42
516.73	25945.47
517.08	26784.22
517.44	27621.39
517.80	28419.70
518.16	29268.28
518.51	30091.00
518.87	30839.23
519.23	31690.03
519.59	32555.21
519.94	33385.82
520.30	34248.94
520.66	35007.65
521.01	35798.12
521.37	36476.78
521.73	37059.06
522.09	37641.38
522.44	38285.62
522.80	38675.83
523.16	39028.69
523.51	39290.20
523.87	39592.20
524.23	39864.52
524.58	40141.62
524.94	40500.79
525.30	40853.77
525.65	41029.26
526.01	41065.94
526.37	41081.93
526.72	41038.20
527.08	40905.14
527.44	40726.19
527.79	40568.88
528.15	40435.91
528.51	40178.36
528.86	39947.94
529.22	39731.51
529.58	39496.80
529.93	39128.02
530.29	38697.79
530.65	38352.63
531.00	37981.16
531.36	37520.29
531.71	37057.91
532.07	36602.09
532.43	36010.43
532.78	35375.21
533.14	34813.78
533.49	34279.93
533.85	33683.35
534.21	33087.73
534.56	32545.08
534.92	31952.46
535.27	31305.81
535.63	30686.08
535.98	30073.71
536.34	29439.63
536.69	28787.86
537.05	28195.03
537.41	27690.83
537.76	27209.17
538.12	26658.96
538.47	26198.08
538.83	25752.49
539.18	25293.65
539.54	24817.68
539.89	24379.63
540.25	23869.56
540.60	23381.18
540.96	22883.28
541.31	22409.97
541.67	22002.30
542.02	21612.81
542.38	21197.58
542.73	20759.15
543.09	20369.66
543.44	20005.78
543.80	19671.03
544.15	19276.04
544.51	18949.28
544.86	18631.93
545.22	18280.73
545.57	17896.02
545.93	17562.84
546.28	17245.91
546.64	16920.29
546.99	16571.53
547.35	16261.15
547.70	15951.10
548.05	15653.50
548.41	15340.90
548.76	15035.39
549.12	14756.19
549.47	14489.30
549.83	14215.13
550.18	13910.37
550.53	13595.66
550.89	13316.74
551.24	13041.16
551.60	12742.72
551.95	12500.97
552.30	12276.53
552.66	12026.40
553.01	11777.83
553.37	11512.49
553.72	11235.93
554.07	10976.90
554.43	10697.65
554.78	10425.12
555.13	10168.90
555.49	9948.52
555.84	9758.30
556.19	9578.69
556.55	9385.85
556.90	9201.89
557.26	8993.98
557.61	8768.79
557.96	8528.14
558.32	8332.31
558.67	8133.92
559.02	7922.39
559.37	7738.98
559.73	7584.15
560.08	7423.85
560.43	7275.25
560.79	7157.69
561.14	7014.33
561.49	6858.17
561.85	6702.97
562.20	6551.74
562.55	6413.86
562.90	6282.51
563.26	6164.62
563.61	6049.65
563.96	5948.00
564.32	5825.15
564.67	5712.80
565.02	5597.67
565.37	5486.71
565.73	5370.73
566.08	5269.37
566.43	5161.21
566.78	5053.68
567.14	4939.82
567.49	4831.26
567.84	4725.21
568.19	4615.47
568.54	4523.48
568.90	4442.92
569.25	4363.72
569.60	4297.08
569.95	4231.06
570.31	4157.77
570.66	4080.54
571.01	3990.89
571.36	3894.60
571.71	3815.33
572.06	3738.87
572.42	3676.65
572.77	3626.40
573.12	3574.58
573.47	3515.74
573.82	3457.91
574.18	3392.33
574.53	3330.47
574.88	3270.29
575.23	3217.42
575.58	3169.95
575.93	3121.88
576.28	3070.64
576.64	3014.40
576.99	2961.39
577.34	2904.21
577.69	2848.31
578.04	2795.11
578.39	2752.47
578.74	2709.38
579.09	2669.85
579.44	2638.28
579.80	2603.85
580.15	2560.83
580.50	2524.10
580.85	2487.52
581.20	2445.39
581.55	2416.37
581.90	2390.32
582.25	2358.14
582.60	2324.97
582.95	2291.52
583.30	2250.78
583.65	2216.14
584.00	2178.78
584.35	2142.81
584.71	2115.49
585.06	2086.40
585.41	2058.29
585.76	2035.66
586.11	2016.79
586.46	1990.77
586.81	1973.75
587.16	1953.74
587.51	1932.28
587.86	1911.66
588.21	1892.72
588.56	1867.05
588.91	1842.59
589.26	1821.94
589.61	1802.35
589.96	1785.81
590.31	1772.39
590.66	1763.15
591.01	1746.41
591.36	1729.35
591.71	1711.07
592.06	1694.97
592.41	1674.44
592.76	1656.87
593.10	1642.54
593.45	1630.58
593.80	1611.51
594.15	1596.81
594.50	1587.98
594.85	1577.83
595.20	1561.23
595.55	1552.64
595.90	1541.64
596.25	1527.53
596.60	1514.09
596.95	1505.90
597.30	1494.03
597.64	1533.96
597.99	1527.60
598.34	1520.20
598.69	1510.25
599.04	1504.03
599.39	1442.36
599.74	1433.88
600.09	1426.25
600.44	1416.00
600.78	1409.61
601.13	1406.36
601.48	1399.92
601.83	1390.42
602.18	1386.39
602.53	1377.99
602.88	1371.46
603.22	1364.72
603.57	1358.75
603.92	1353.11
604.27	1348.50
604.62	1340.73
604.97	1332.40
605.31	1327.48
605.66	1319.78
606.01	1313.77
606.36	1311.07
606.71	1309.41
607.05	1303.07
607.40	1298.81
607.75	1293.97
608.10	1288.11
608.44	1277.56
608.79	1272.41
609.14	1272.34
609.49	1265.11
609.84	1261.41
610.18	1263.98
610.53	1260.89
610.88	1256.87
611.23	1256.87
611.57	1253.61
611.92	1247.67
612.27	1243.04
612.62	1238.52
612.96	1234.02
613.31	1231.50
613.66	1230.51
614.00	1228.99
614.35	1224.97
614.70	1221.99
615.05	1218.18
615.39	1214.57
615.74	1209.12
616.09	1204.81
616.43	1202.66
616.78	1199.76
617.13	1194.98
617.47	1191.57
617.82	1188.22
618.17	1185.15
618.51	1185.46
618.86	1179.37
619.21	1178.74
619.55	1180.38
619.90	1179.40
620.25	1172.21
620.59	1174.76
620.94	1174.20
621.29	1168.61
621.63	1166.01
621.98	1166.27
622.32	1164.72
622.67	1161.89
623.02	1162.31
623.36	1158.45
623.71	1157.93
624.05	1157.39
624.40	1155.08
624.75	1152.62
625.09	1155.50
625.44	1153.77
625.78	1148.36
626.13	1150.42
626.48	1150.33
626.82	1147.94
627.17	1146.75
627.51	1149.72
627.86	1146.25
628.20	1146.98
628.55	1143.40
628.89	1140.45
629.24	1141.62
629.58	1141.46
629.93	1136.68
630.28	1133.62
630.62	1134.57
630.97	1130.41
631.31	1128.86
631.66	1127.83
632.00	1130.57
632.35	1127.55
632.69	1125.54
633.04	1124.42
633.38	1127.46
633.73	1124.14
634.07	1127.58
634.42	1129.73
634.76	1127.53
635.11	1121.21
635.45	1122.73
635.79	1120.95
636.14	1117.84
636.48	1120.30
636.83	1121.09
637.17	1118.73
637.52	1118.05
637.86	1114.54
638.21	1112.95
638.55	1111.50
638.89	1111.26
639.24	1106.75
639.58	1109.44
639.93	1109.27
640.27	1112.53
640.61	1112.11
640.96	1113.93
641.30	1113.30
641.65	1112.41
641.99	1111.99
642.33	1112.41
642.68	1111.38
643.02	1110.87
643.37	1112.83
643.71	1109.30
644.05	1106.70
644.40	1106.84
644.74	1106.25
645.08	1104.83
645.43	1106.18
645.77	1106.32
646.11	1106.91
646.46	1105.18
646.80	1104.36
647.14	1104.03
647.49	1105.67
647.83	1104.15
648.17	1105.20
648.52	1104.55
648.86	1101.64
649.20	1103.00
649.55	1105.34
649.89	1106.61
650.23	1106.23
650.57	1109.69
650.92	1108.76
651.26	1107.85
651.60	1105.65
651.95	1103.82
652.29	1101.85
652.63	1100.29
652.97	1096.49
653.32	1096.00
653.66	1095.37
654.00	1099.23
654.34	1097.03
654.69	1099.07
655.03	1099.72
655.37	1104.01
655.71	1101.15
656.05	1103.42
656.40	1102.53
656.74	1101.15
657.08	1100.57
657.42	1097.03
657.76	1095.84
658.11	1096.45
658.45	1098.34
658.79	1096.33
659.13	1099.65
659.47	1101.67
659.82	1101.03
660.16	1099.47
660.50	1097.55
660.84	1095.58
661.18	1092.52
661.52	1092.49
661.87	1090.53
662.21	1091.39
662.55	1095.00
662.89	1097.10
663.23	1097.95
663.57	1100.12
663.91	1099.09
664.25	1094.93
664.60	1095.02
664.94	1092.35
665.28	1094.01
665.62	1095.49
665.96	1097.62
666.30	1095.89
666.64	1096.26
666.98	1093.22
667.32	1093.66
667.66	1093.97
668.01	1093.43
668.35	1094.93
668.69	1096.49
669.03	1090.97
669.37	1089.54
669.71	1092.59
670.05	1092.14
670.39	1091.53
670.73	1095.37
671.07	1094.72
671.41	1093.73
671.75	1095.25
672.09	1094.93
672.43	1094.95
672.77	1096.14
673.11	1094.81
673.45	1094.83
673.79	1096.03
674.13	1097.01
674.47	1095.21
674.81	1094.55
675.15	1093.47
675.49	1091.63
675.83	1090.13
676.17	1091.39
676.51	1091.16
676.85	1090.43
677.19	1089.66
677.53	1089.59
677.87	1088.44
678.21	1088.37
678.55	1087.44
678.89	1090.99
679.23	1092.80
679.57	1092.73
679.90	1092.23
680.24	1092.21
680.58	1090.95
680.92	1089.50
681.26	1090.32
681.60	1092.00
681.94	1091.18
682.28	1090.71
682.62	1089.10
682.96	1088.86
683.29	1089.24
683.63	1090.99
683.97	1089.59
684.31	1091.91
684.65	1090.60
684.99	1089.00
685.33	1085.80
685.67	1085.56
686.00	1083.93
686.34	1084.72
686.68	1088.30
687.02	1092.21
687.36	1091.65
687.70	1092.26
688.03	1093.31
688.37	1091.32
688.71	1089.92
689.05	1091.39
689.39	1092.00
689.72	1091.16
690.06	1090.48
690.40	1089.78
690.74	1090.67
691.08	1092.47
691.41	1094.50
691.75	1093.80
692.09	1095.00
692.43	1095.35
692.76	1095.25
693.10	1094.15
693.44	1093.90
693.78	1094.72
694.11	1090.85
694.45	1087.34
694.79	1085.40
695.13	1084.86
695.46	1083.86
695.80	1087.32
696.14	1086.73
696.48	1088.54
696.81	1088.70
697.15	1087.65
697.49	1086.34
697.82	1090.74
698.16	1089.14
698.50	1087.90
698.83	1089.45
699.17	1091.11
699.51	1089.43
699.84	1090.27
700.18	1092.75
700.52	1090.62
700.85	1088.04
701.19	1087.30
701.53	1089.00
701.86	1087.23
702.20	1088.21
702.54	1088.37
702.87	1088.00
703.21	1088.00
703.55	1091.63
703.88	1089.94
704.22	1091.42
704.55	1090.39
704.89	1088.33
705.23	1085.47
705.56	1090.06
705.90	1088.33
706.23	1089.12
706.57	1083.48
706.91	1087.69
707.24	1085.33
707.58	1088.40
707.91	1090.60
708.25	1097.95
708.58	1093.26
708.92	1092.75
709.26	1093.97
709.59	1094.43
709.93	1091.23
710.26	1093.80
710.60	1095.65
710.93	1091.06
711.27	1087.72
711.60	1090.83
711.94	1089.29
712.27	1088.07
712.61	1088.19
712.94	1090.48
713.28	1090.15
713.61	1090.81
713.95	1092.28
714.28	1094.90
714.62	1095.60
714.95	1096.73
715.29	1094.39
715.62	1090.41
715.96	1092.09
716.29	1090.29
716.63	1090.03
716.96	1092.09
717.29	1094.57
717.63	1094.18
717.96	1096.07
718.30	1094.76
718.63	1095.30
718.97	1093.05
719.30	1088.19
719.63	1087.90
719.97	1087.02
720.30	1089.03
720.64	1090.06
720.97	1094.18
721.30	1090.60
721.64	1091.63
721.97	1088.54
722.31	1089.07
722.64	1087.27
722.97	1087.76
723.31	1085.05
723.64	1085.42
723.97	1085.70
724.31	1085.99
724.64	1087.95
724.98	1092.45
725.31	1091.58
725.64	1092.68
725.98	1094.83
726.31	1094.08
726.64	1086.94
726.97	1089.78
727.31	1090.99
727.64	1091.60
727.97	1092.23
728.31	1096.24
728.64	1094.20
728.97	1090.48
729.31	1087.79
729.64	1085.19
729.97	1088.19
730.30	1087.62
730.64	1086.92
730.97	1084.96
731.30	1090.55
731.63	1087.76
731.97	1089.73
732.30	1090.24
732.63	1091.95
732.96	1092.75
733.30	1091.56
733.63	1090.22
733.96	1088.86
734.29	1088.12
734.63	1084.49
734.96	1088.16
735.29	1089.07
735.62	1092.91
735.95	1093.76
736.29	1094.88
736.62	1093.59
736.95	1091.91
737.28	1091.63
737.61	1090.15
737.94	1087.67
738.28	1085.89
738.61	1085.42
738.94	1082.83
739.27	1086.13
739.60	1085.12
739.93	1083.88
740.27	1084.44
740.60	1087.20
740.93	1087.34
741.26	1090.06
741.59	1093.33
741.92	1094.29
742.25	1092.52
742.58	1089.12
742.91	1086.71
743.25	1087.97
743.58	1085.35
743.91	1085.84
744.24	1087.86
744.57	1090.69
744.90	1088.54
745.23	1089.99
745.56	1090.41
745.89	1088.40
746.22	1088.70
746.55	1086.92
746.88	1089.47
747.21	1087.32
747.54	1086.20
747.87	1083.74
748.20	1085.96
748.53	1083.74
748.87	1088.26
749.20	1091.98
749.53	1091.37
749.86	1088.89
750.19	1089.07
750.52	1085.00
750.85	1081.94
751.18	1080.88
751.51	1083.57
751.84	1081.70
752.16	1084.09
752.49	1084.42
752.82	1084.07
753.15	1083.20
753.48	1086.43
753.81	1084.14
754.14	1084.96
754.47	1084.74
754.80	1083.53
755.13	1080.72
755.46	1084.21
755.79	1085.68
756.12	1088.72
756.45	1090.50
756.78	1091.63
757.11	1088.58
757.43	1088.72
757.76	1088.56
758.09	1087.34
758.42	1087.97
758.75	1088.68
759.08	1085.82
759.41	1083.88
759.74	1082.64
760.07	1080.84
760.39	1081.73
760.72	1083.95
761.05	1084.86
761.38	1090.90
761.71	1094.15
762.04	1091.65
762.36	1091.42
762.69	1091.77
763.02	1086.43
763.35	1084.65
763.68	1087.32
