SpectraSuite Data File
++++++++++++++++++++++++++++++++++++
Date: Mon Aug 26 10:27:03 PDT 2019
User: corrico
Dark Spectrum Present: No
Reference Spectrum Present: No
Number of Sampled Component Spectra: 1
Spectrometers: USB2+H06089
Integration Time (usec): 10000 (USB2+H06089)
Spectra Averaged: 20 (USB2+H06089)
Boxcar Smoothing: 2 (USB2+H06089)
Correct for Electrical Dark: No (USB2+H06089)
Strobe/Lamp Enabled: No (USB2+H06089)
Correct for Detector Non-linearity: No (USB2+H06089)
Correct for Stray Light: No (USB2+H06089)
Number of Pixels in Processed Spectrum: 2048
>>>>>Begin Processed Spectral Data<<<<<
339.70	1023.98
340.07	1023.98
340.45	991.05
340.82	971.95
341.19	947.71
341.57	924.42
341.94	916.41
342.31	910.23
342.69	904.31
343.06	904.52
343.43	905.95
343.81	905.46
344.18	903.87
344.55	906.42
344.93	910.87
345.30	913.77
345.67	922.71
346.04	934.69
346.42	943.80
346.79	952.01
347.16	960.91
347.54	968.51
347.91	974.95
348.28	983.73
348.65	992.53
349.03	1001.84
349.40	1010.97
349.77	1018.46
350.14	1025.22
350.52	1031.66
350.89	1038.73
351.26	1041.23
351.63	1046.55
352.01	1052.38
352.38	1054.39
352.75	1055.68
353.12	1059.09
353.50	1064.10
353.87	1067.61
354.24	1068.10
354.61	1071.75
354.98	1075.27
355.36	1076.08
355.73	1075.45
356.10	1081.56
356.47	1081.73
356.84	1086.22
357.22	1084.21
357.59	1083.46
357.96	1081.68
358.33	1081.77
358.70	1077.16
359.08	1081.28
359.45	1080.51
359.82	1080.13
360.19	1079.46
360.56	1078.80
360.94	1073.81
361.31	1075.43
361.68	1077.72
362.05	1074.49
362.42	1074.75
362.79	1074.68
363.16	1071.85
363.54	1068.67
363.91	1072.15
364.28	1069.51
364.65	1069.23
365.02	1073.18
365.39	1076.95
365.76	1078.26
366.14	1078.66
366.51	1079.27
366.88	1076.62
367.25	1072.32
367.62	1068.90
367.99	1070.05
368.36	1069.25
368.73	1070.05
369.10	1071.26
369.48	1072.76
369.85	1073.28
370.22	1075.69
370.59	1074.87
370.96	1074.07
371.33	1073.44
371.70	1073.49
372.07	1072.48
372.44	1076.81
372.81	1076.04
373.18	1075.48
373.55	1070.84
373.93	1071.75
374.30	1066.98
374.67	1067.59
375.04	1064.41
375.41	1069.18
375.78	1070.21
376.15	1070.09
376.52	1069.70
376.89	1072.88
377.26	1073.70
377.63	1068.08
378.00	1069.60
378.37	1069.79
378.74	1070.21
379.11	1068.85
379.48	1069.79
379.85	1070.30
380.22	1071.24
380.59	1072.67
380.96	1070.07
381.33	1073.67
381.70	1072.41
382.07	1071.10
382.44	1070.49
382.81	1074.33
383.18	1076.48
383.55	1074.03
383.92	1073.91
384.29	1071.47
384.66	1073.42
385.03	1067.92
385.40	1072.39
385.77	1072.55
386.14	1072.60
386.51	1072.04
386.88	1074.31
387.25	1072.67
387.62	1072.41
387.99	1072.60
388.36	1070.65
388.73	1069.41
389.10	1071.59
389.46	1074.00
389.83	1076.95
390.20	1078.38
390.57	1080.32
390.94	1078.59
391.31	1078.14
391.68	1078.94
392.05	1076.81
392.42	1078.66
392.79	1075.20
393.16	1076.08
393.53	1073.88
393.89	1075.17
394.26	1072.74
394.63	1075.50
395.00	1076.76
395.37	1077.56
395.74	1078.61
396.11	1078.94
396.48	1080.02
396.84	1076.04
397.21	1074.68
397.58	1076.20
397.95	1074.70
398.32	1076.72
398.69	1079.17
399.06	1080.11
399.42	1075.24
399.79	1076.41
400.16	1075.34
400.53	1076.86
400.90	1075.92
401.27	1077.93
401.64	1076.34
402.00	1073.60
402.37	1068.81
402.74	1069.58
403.11	1070.61
403.48	1072.85
403.84	1072.08
404.21	1071.92
404.58	1072.78
404.95	1074.59
405.32	1072.43
405.68	1073.07
406.05	1077.58
406.42	1077.09
406.79	1075.08
407.16	1074.24
407.52	1077.68
407.89	1075.34
408.26	1074.59
408.63	1072.97
408.99	1074.70
409.36	1072.97
409.73	1072.78
410.10	1073.18
410.47	1074.33
410.83	1075.83
411.20	1075.69
411.57	1077.47
411.94	1081.33
412.30	1082.52
412.67	1082.26
413.04	1083.64
413.40	1082.78
413.77	1078.12
414.14	1077.18
414.51	1074.24
414.87	1073.63
415.24	1072.83
415.61	1073.84
415.97	1074.38
416.34	1077.35
416.71	1074.38
417.08	1075.24
417.44	1073.67
417.81	1071.99
418.18	1073.18
418.54	1076.06
418.91	1073.28
419.28	1072.39
419.64	1073.65
420.01	1071.99
420.38	1070.49
420.74	1072.64
421.11	1077.37
421.48	1078.92
421.84	1079.50
422.21	1078.89
422.58	1078.50
422.94	1076.51
423.31	1074.17
423.68	1073.42
424.04	1076.41
424.41	1076.08
424.77	1079.03
425.14	1078.36
425.51	1079.92
425.87	1078.52
426.24	1079.53
426.61	1076.39
426.97	1076.39
427.34	1077.98
427.70	1080.23
428.07	1080.81
428.44	1080.51
428.80	1083.29
429.17	1083.22
429.53	1079.78
429.90	1076.65
430.27	1080.09
430.63	1080.48
431.00	1080.67
431.36	1081.51
431.73	1086.76
432.09	1083.53
432.46	1083.64
432.83	1080.09
433.19	1082.12
433.56	1080.95
433.92	1082.52
434.29	1079.24
434.65	1081.49
435.02	1079.50
435.38	1080.04
435.75	1080.04
436.11	1080.88
436.48	1081.70
436.84	1080.84
437.21	1077.77
437.57	1074.31
437.94	1077.16
438.30	1076.08
438.67	1076.55
439.03	1078.26
439.40	1081.56
439.76	1079.06
440.13	1077.77
440.49	1079.67
440.86	1077.82
441.22	1076.79
441.59	1076.25
441.95	1075.17
442.32	1075.64
442.68	1076.41
443.05	1077.40
443.41	1078.89
443.78	1081.96
444.14	1080.16
444.51	1080.09
444.87	1078.80
445.24	1080.25
445.60	1077.16
445.96	1076.76
446.33	1077.61
446.69	1077.96
447.06	1076.06
447.42	1079.46
447.79	1076.79
448.15	1077.28
448.51	1080.79
448.88	1082.22
449.24	1081.44
449.61	1086.50
449.97	1089.17
450.33	1087.34
450.70	1085.24
451.06	1082.94
451.43	1080.41
451.79	1077.54
452.15	1075.73
452.52	1074.80
452.88	1076.13
453.24	1078.38
453.61	1079.50
453.97	1079.92
454.34	1081.44
454.70	1082.99
455.06	1079.38
455.43	1078.19
455.79	1079.88
456.15	1080.34
456.52	1078.14
456.88	1081.47
457.24	1081.80
457.61	1079.31
457.97	1080.11
458.33	1081.37
458.70	1079.03
459.06	1079.36
459.42	1079.38
459.79	1079.60
460.15	1078.85
460.51	1080.23
460.88	1079.31
461.24	1078.07
461.60	1075.03
461.96	1075.24
462.33	1077.35
462.69	1077.42
463.05	1079.48
463.42	1084.98
463.78	1086.24
464.14	1080.81
464.50	1081.35
464.87	1082.69
465.23	1080.06
465.59	1079.53
465.95	1083.29
466.32	1082.08
466.68	1080.34
467.04	1079.83
467.40	1080.09
467.77	1079.10
468.13	1080.37
468.49	1078.03
468.85	1078.64
469.22	1076.60
469.58	1077.56
469.94	1077.33
470.30	1080.34
470.66	1079.03
471.03	1078.71
471.39	1076.65
471.75	1077.37
472.11	1078.26
472.47	1077.21
472.84	1078.80
473.20	1079.20
473.56	1080.16
473.92	1080.70
474.28	1082.61
474.65	1082.54
475.01	1081.73
475.37	1079.03
475.73	1077.35
476.09	1076.08
476.45	1073.16
476.81	1076.72
477.18	1078.21
477.54	1077.49
477.90	1076.81
478.26	1079.57
478.62	1080.65
478.98	1079.34
479.34	1079.34
479.71	1081.12
480.07	1080.67
480.43	1078.59
480.79	1076.97
481.15	1076.55
481.51	1077.70
481.87	1080.02
482.23	1081.51
482.59	1083.81
482.96	1085.73
483.32	1085.56
483.68	1082.94
484.04	1078.73
484.40	1080.27
484.76	1079.06
485.12	1078.94
485.48	1079.88
485.84	1084.25
486.20	1082.33
486.56	1080.79
486.92	1078.33
487.28	1080.72
487.64	1075.59
488.00	1076.34
488.37	1080.72
488.73	1082.61
489.09	1079.38
489.45	1082.19
489.81	1082.85
490.17	1079.22
490.53	1078.85
490.89	1081.26
491.25	1081.96
491.61	1081.82
491.97	1083.34
492.33	1083.11
492.69	1081.19
493.05	1080.30
493.41	1084.35
493.77	1083.39
494.13	1084.09
494.49	1085.91
494.85	1089.40
495.21	1083.13
495.57	1085.96
495.93	1088.21
496.29	1088.21
496.64	1085.19
497.00	1086.80
497.36	1085.84
497.72	1082.85
498.08	1080.25
498.44	1083.50
498.80	1086.24
499.16	1086.06
499.52	1084.70
499.88	1087.04
500.24	1083.90
500.60	1079.81
500.96	1079.99
501.32	1080.56
501.68	1080.53
502.03	1081.47
502.39	1082.87
502.75	1084.77
503.11	1085.19
503.47	1081.30
503.83	1082.45
504.19	1080.98
504.55	1078.61
504.91	1080.53
505.26	1085.77
505.62	1083.81
505.98	1085.05
506.34	1082.80
506.70	1081.23
507.06	1078.71
507.42	1079.20
507.78	1078.26
508.13	1078.96
508.49	1081.19
508.85	1082.38
509.21	1084.09
509.57	1084.16
509.93	1083.93
510.28	1082.80
510.64	1080.18
511.00	1080.04
511.36	1082.26
511.72	1079.38
512.07	1075.83
512.43	1074.42
512.79	1071.94
513.15	1067.78
513.51	1070.16
513.86	1072.74
514.22	1077.21
514.58	1079.57
514.94	1082.80
515.30	1086.27
515.65	1085.49
516.01	1085.14
516.37	1084.14
516.73	1083.46
517.08	1082.40
517.44	1084.86
517.80	1084.09
518.16	1082.40
518.51	1085.03
518.87	1081.91
519.23	1078.78
519.59	1076.95
519.94	1079.88
520.30	1079.76
520.66	1082.01
521.01	1082.57
521.37	1082.73
521.73	1079.24
522.09	1076.76
522.44	1075.83
522.80	1075.13
523.16	1076.62
523.51	1077.49
523.87	1075.85
524.23	1074.35
524.58	1074.21
524.94	1070.72
525.30	1069.53
525.65	1072.71
526.01	1076.97
526.37	1080.67
526.72	1084.77
527.08	1085.21
527.44	1087.97
527.79	1086.27
528.15	1084.37
528.51	1082.66
528.86	1085.00
529.22	1080.81
529.58	1079.20
529.93	1081.02
530.29	1082.61
530.65	1080.32
531.00	1083.64
531.36	1082.71
531.71	1084.70
532.07	1084.51
532.43	1086.62
532.78	1081.84
533.14	1088.37
533.49	1083.83
533.85	1086.17
534.21	1087.18
534.56	1087.86
534.92	1083.18
535.27	1085.26
535.63	1082.76
535.98	1083.46
536.34	1085.99
536.69	1089.75
537.05	1088.96
537.41	1088.44
537.76	1083.93
538.12	1082.52
538.47	1079.08
538.83	1077.86
539.18	1078.03
539.54	1083.95
539.89	1086.45
540.25	1088.91
540.60	1088.54
540.96	1088.42
541.31	1083.15
541.67	1082.69
542.02	1079.22
542.38	1081.89
542.73	1084.09
543.09	1084.67
543.44	1084.02
543.80	1087.20
544.15	1085.35
544.51	1083.18
544.86	1090.01
545.22	1092.61
545.57	1094.06
545.93	1093.36
546.28	1095.51
546.64	1090.62
546.99	1088.37
547.35	1085.24
547.70	1086.31
548.05	1085.10
548.41	1086.78
548.76	1086.57
549.12	1088.84
549.47	1091.16
549.83	1092.89
550.18	1090.41
550.53	1090.24
550.89	1089.10
551.24	1087.16
551.60	1087.67
551.95	1085.17
552.30	1083.29
552.66	1082.40
553.01	1081.23
553.37	1080.95
553.72	1085.21
554.07	1086.62
554.43	1085.45
554.78	1086.31
555.13	1083.41
555.49	1079.78
555.84	1082.40
556.19	1086.57
556.55	1084.51
556.90	1083.53
557.26	1087.58
557.61	1086.90
557.96	1083.15
558.32	1085.94
558.67	1086.41
559.02	1082.08
559.37	1076.76
559.73	1080.65
560.08	1081.77
560.43	1085.26
560.79	1086.52
561.14	1086.85
561.49	1083.62
561.85	1083.27
562.20	1081.26
562.55	1083.39
562.90	1083.48
563.26	1083.15
563.61	1080.56
563.96	1080.60
564.32	1076.46
564.67	1080.63
565.02	1077.35
565.37	1078.38
565.73	1078.00
566.08	1079.64
566.43	1076.46
566.78	1078.85
567.14	1077.75
567.49	1079.64
567.84	1081.87
568.19	1081.61
568.54	1085.26
568.90	1088.30
569.25	1086.08
569.60	1082.80
569.95	1084.09
570.31	1083.29
570.66	1079.64
571.01	1081.30
571.36	1083.08
571.71	1084.93
572.06	1082.50
572.42	1085.33
572.77	1082.61
573.12	1082.73
573.47	1082.64
573.82	1084.51
574.18	1086.27
574.53	1086.29
574.88	1086.94
575.23	1087.46
575.58	1087.62
575.93	1085.59
576.28	1088.26
576.64	1088.16
576.99	1087.13
577.34	1084.14
577.69	1081.16
578.04	1082.29
578.39	1084.42
578.74	1082.78
579.09	1083.57
579.44	1082.73
579.80	1079.69
580.15	1076.53
580.50	1077.00
580.85	1080.16
581.20	1081.66
581.55	1084.14
581.90	1085.38
582.25	1084.42
582.60	1085.31
582.95	1085.80
583.30	1084.18
583.65	1084.49
584.00	1083.97
584.35	1081.49
584.71	1085.28
585.06	1086.48
585.41	1084.28
585.76	1087.60
586.11	1089.36
586.46	1087.93
586.81	1087.79
587.16	1087.48
587.51	1085.61
587.86	1085.07
588.21	1083.01
588.56	1081.40
588.91	1082.26
589.26	1084.30
589.61	1083.32
589.96	1084.21
590.31	1084.93
590.66	1086.92
591.01	1086.55
591.36	1083.25
591.71	1083.62
592.06	1083.22
592.41	1081.84
592.76	1080.86
593.10	1083.88
593.45	1086.17
593.80	1086.06
594.15	1086.41
594.50	1085.87
594.85	1083.11
595.20	1079.17
595.55	1078.61
595.90	1079.92
596.25	1083.15
596.60	1087.53
596.95	1089.05
597.30	1087.93
597.64	1135.60
597.99	1135.60
598.34	1132.23
598.69	1133.33
599.04	1136.40
599.39	1089.59
599.74	1087.67
600.09	1088.54
600.44	1086.24
600.78	1087.18
601.13	1080.46
601.48	1082.76
601.83	1083.43
602.18	1086.31
602.53	1082.61
602.88	1087.90
603.22	1083.29
603.57	1083.95
603.92	1082.61
604.27	1086.73
604.62	1088.68
604.97	1092.00
605.31	1092.54
605.66	1094.67
606.01	1092.40
606.36	1093.22
606.71	1091.72
607.05	1093.01
607.40	1090.17
607.75	1092.30
608.10	1087.74
608.44	1090.81
608.79	1086.03
609.14	1089.85
609.49	1090.85
609.84	1095.16
610.18	1097.13
610.53	1106.42
610.88	1107.73
611.23	1109.20
611.57	1108.92
611.92	1106.56
612.27	1103.91
612.62	1104.87
612.96	1103.87
613.31	1105.48
613.66	1106.09
614.00	1104.94
614.35	1101.29
614.70	1098.25
615.05	1094.08
615.39	1091.86
615.74	1091.98
616.09	1089.17
616.43	1089.87
616.78	1090.41
617.13	1090.17
617.47	1089.03
617.82	1088.61
618.17	1086.76
618.51	1089.07
618.86	1089.82
619.21	1091.37
619.55	1095.37
619.90	1096.03
620.25	1095.84
620.59	1096.10
620.94	1092.98
621.29	1092.68
621.63	1093.19
621.98	1086.48
622.32	1086.06
622.67	1088.42
623.02	1084.70
623.36	1083.20
623.71	1085.14
624.05	1085.56
624.40	1083.43
624.75	1085.66
625.09	1086.27
625.44	1088.00
625.78	1085.82
626.13	1085.68
626.48	1085.47
626.82	1083.15
627.17	1083.57
627.51	1086.15
627.86	1087.93
628.20	1086.85
628.55	1090.20
628.89	1092.33
629.24	1089.99
629.58	1088.33
629.93	1086.55
630.28	1090.76
630.62	1091.88
630.97	1093.17
631.31	1093.85
631.66	1096.42
632.00	1092.07
632.35	1091.53
632.69	1092.40
633.04	1092.37
633.38	1093.08
633.73	1090.99
634.07	1086.62
634.42	1083.86
634.76	1085.14
635.11	1081.47
635.45	1078.99
635.79	1077.96
636.14	1077.68
636.48	1074.61
636.83	1077.86
637.17	1081.66
637.52	1085.63
637.86	1086.41
638.21	1086.41
638.55	1086.03
638.89	1088.26
639.24	1086.50
639.58	1087.34
639.93	1087.90
640.27	1089.07
640.61	1085.31
640.96	1084.89
641.30	1084.49
641.65	1081.84
641.99	1078.12
642.33	1080.18
642.68	1083.36
643.02	1083.67
643.37	1085.63
643.71	1085.59
644.05	1086.48
644.40	1084.67
644.74	1082.83
645.08	1085.61
645.43	1088.44
645.77	1085.40
646.11	1086.15
646.46	1086.50
646.80	1084.44
647.14	1086.27
647.49	1088.35
647.83	1089.80
648.17	1091.98
648.52	1093.59
648.86	1089.52
649.20	1090.85
649.55	1087.20
649.89	1084.53
650.23	1081.23
650.57	1081.19
650.92	1078.66
651.26	1079.88
651.60	1079.69
651.95	1080.16
652.29	1080.98
652.63	1078.07
652.97	1078.47
653.32	1079.06
653.66	1080.74
654.00	1082.73
654.34	1086.52
654.69	1088.16
655.03	1090.15
655.37	1089.45
655.71	1090.74
656.05	1090.60
656.40	1090.29
656.74	1088.26
657.08	1090.43
657.42	1087.23
657.76	1085.40
658.11	1085.12
658.45	1085.84
658.79	1083.11
659.13	1080.74
659.47	1081.61
659.82	1079.17
660.16	1080.70
660.50	1081.75
660.84	1084.04
661.18	1083.32
661.52	1082.33
661.87	1079.38
662.21	1078.71
662.55	1075.43
662.89	1076.60
663.23	1075.92
663.57	1076.62
663.91	1076.34
664.25	1081.82
664.60	1082.29
664.94	1085.17
665.28	1086.27
665.62	1085.70
665.96	1082.87
666.30	1082.61
666.64	1080.95
666.98	1080.48
667.32	1082.03
667.66	1082.66
668.01	1081.87
668.35	1079.92
668.69	1081.00
669.03	1080.88
669.37	1080.39
669.71	1081.96
670.05	1085.38
670.39	1084.79
670.73	1082.85
671.07	1083.11
671.41	1079.92
671.75	1079.08
672.09	1078.26
672.43	1079.31
672.77	1078.03
673.11	1082.94
673.45	1084.07
673.79	1082.26
674.13	1084.23
674.47	1085.66
674.81	1083.74
675.15	1082.22
675.49	1086.41
675.83	1084.93
676.17	1086.76
676.51	1088.02
676.85	1090.50
677.19	1090.20
677.53	1090.41
677.87	1085.52
678.21	1082.40
678.55	1083.55
678.89	1083.13
679.23	1084.11
679.57	1088.75
679.90	1091.81
680.24	1090.17
680.58	1089.73
680.92	1090.71
681.26	1090.64
681.60	1087.13
681.94	1086.13
682.28	1086.01
682.62	1086.45
682.96	1084.70
683.29	1088.23
683.63	1084.51
683.97	1083.71
684.31	1079.99
684.65	1079.83
684.99	1077.63
685.33	1080.70
685.67	1082.85
686.00	1084.96
686.34	1087.55
686.68	1087.93
687.02	1089.26
687.36	1085.70
687.70	1084.04
688.03	1079.15
688.37	1078.92
688.71	1077.86
689.05	1081.44
689.39	1081.42
689.72	1082.97
690.06	1084.67
690.40	1084.39
690.74	1081.91
691.08	1082.10
691.41	1083.69
691.75	1082.01
692.09	1081.47
692.43	1081.14
692.76	1081.73
693.10	1081.98
693.44	1083.08
693.78	1084.35
694.11	1086.76
694.45	1087.97
694.79	1087.83
695.13	1085.96
695.46	1083.04
695.80	1082.17
696.14	1078.75
696.48	1078.50
696.81	1082.05
697.15	1083.29
697.49	1082.69
697.82	1083.50
698.16	1081.49
698.50	1080.30
698.83	1081.44
699.17	1083.43
699.51	1085.91
699.84	1086.03
700.18	1084.09
700.52	1083.62
700.85	1082.85
701.19	1082.24
701.53	1083.18
701.86	1083.48
702.20	1083.95
702.54	1083.97
702.87	1083.27
703.21	1087.16
703.55	1084.60
703.88	1083.57
704.22	1079.08
704.55	1081.21
704.89	1080.51
705.23	1085.80
705.56	1086.97
705.90	1093.05
706.23	1089.89
706.57	1085.82
706.91	1079.36
707.24	1080.16
707.58	1078.59
707.91	1079.90
708.25	1083.64
708.58	1088.12
708.92	1087.81
709.26	1087.30
709.59	1085.89
709.93	1082.97
710.26	1085.31
710.60	1086.36
710.93	1086.13
711.27	1090.29
711.60	1092.54
711.94	1087.04
712.27	1087.34
712.61	1086.22
712.94	1081.28
713.28	1080.93
713.61	1084.63
713.95	1083.25
714.28	1084.49
714.62	1088.79
714.95	1088.14
715.29	1085.91
715.62	1083.08
715.96	1081.73
716.29	1079.46
716.63	1079.46
716.96	1081.82
717.29	1085.47
717.63	1088.23
717.96	1087.72
718.30	1088.23
718.63	1086.78
718.97	1081.68
719.30	1081.21
719.63	1083.06
719.97	1083.06
720.30	1083.36
720.64	1088.91
720.97	1086.08
721.30	1081.21
721.64	1079.55
721.97	1076.60
722.31	1074.00
722.64	1076.13
722.97	1080.30
723.31	1082.87
723.64	1088.79
723.97	1088.65
724.31	1089.29
724.64	1087.74
724.98	1086.17
725.31	1081.12
725.64	1081.96
725.98	1080.27
726.31	1082.22
726.64	1081.33
726.97	1082.36
727.31	1081.28
727.64	1081.75
727.97	1079.90
728.31	1081.89
728.64	1081.51
728.97	1080.58
729.31	1080.16
729.64	1081.49
729.97	1080.95
730.30	1083.48
730.64	1085.10
730.97	1086.45
731.30	1086.45
731.63	1087.79
731.97	1083.20
732.30	1081.94
732.63	1081.26
732.96	1080.56
733.30	1081.09
733.63	1082.94
733.96	1083.39
734.29	1080.25
734.63	1079.20
734.96	1075.34
735.29	1076.37
735.62	1076.67
735.95	1080.04
736.29	1081.44
736.62	1082.83
736.95	1082.10
737.28	1082.17
737.61	1081.19
737.94	1081.35
738.28	1082.54
738.61	1083.64
738.94	1084.58
739.27	1086.41
739.60	1084.58
739.93	1081.54
740.27	1082.90
740.60	1081.33
740.93	1078.87
741.26	1079.57
741.59	1081.89
741.92	1077.89
742.25	1079.83
742.58	1081.80
742.91	1083.71
743.25	1085.38
743.58	1085.84
743.91	1082.92
744.24	1080.81
744.57	1079.95
744.90	1077.23
745.23	1077.40
745.56	1079.78
745.89	1079.03
746.22	1079.46
746.55	1079.10
746.88	1080.51
747.21	1080.74
747.54	1081.51
747.87	1080.56
748.20	1081.30
748.53	1079.90
748.87	1079.10
749.20	1078.68
749.53	1079.81
749.86	1079.36
750.19	1081.89
750.52	1084.23
750.85	1087.18
751.18	1087.30
751.51	1089.57
751.84	1088.28
752.16	1084.77
752.49	1083.01
752.82	1082.40
753.15	1079.97
753.48	1082.83
753.81	1084.14
754.14	1086.87
754.47	1084.25
754.80	1083.25
755.13	1083.81
755.46	1083.86
755.79	1081.56
756.12	1085.91
756.45	1086.92
756.78	1086.24
757.11	1090.08
757.43	1088.37
757.76	1086.73
758.09	1088.44
758.42	1086.43
758.75	1082.76
759.08	1084.77
759.41	1083.62
759.74	1082.15
760.07	1081.96
760.39	1081.33
760.72	1080.70
761.05	1083.76
761.38	1085.68
761.71	1084.04
762.04	1086.48
762.36	1085.10
762.69	1081.87
763.02	1079.46
763.35	1084.16
763.68	1081.21
764.01	1081.66
764.33	1084.49
764.66	1086.52
764.99	1084.32
765.32	1082.90
765.65	1084.63
765.97	1084.81
766.30	1082.43
