SpectraSuite Data File
++++++++++++++++++++++++++++++++++++
Date: Mon Aug 26 10:27:01 PDT 2019
User: corrico
Dark Spectrum Present: No
Reference Spectrum Present: No
Number of Sampled Component Spectra: 1
Spectrometers: USB2+H06089
Integration Time (usec): 10000 (USB2+H06089)
Spectra Averaged: 20 (USB2+H06089)
Boxcar Smoothing: 2 (USB2+H06089)
Correct for Electrical Dark: No (USB2+H06089)
Strobe/Lamp Enabled: No (USB2+H06089)
Correct for Detector Non-linearity: No (USB2+H06089)
Correct for Stray Light: No (USB2+H06089)
Number of Pixels in Processed Spectrum: 2048
>>>>>Begin Processed Spectral Data<<<<<
339.70	1032.18
340.07	1032.18
340.45	995.69
340.82	973.43
341.19	949.93
341.57	926.03
341.94	915.50
342.31	908.64
342.69	904.71
343.06	902.53
343.43	900.94
343.81	900.33
344.18	902.65
344.55	905.16
344.93	908.13
345.30	913.75
345.67	921.61
346.04	928.77
346.42	939.84
346.79	947.66
347.16	956.48
347.54	969.57
347.91	978.04
348.28	981.71
348.65	996.79
349.03	1006.99
349.40	1010.55
349.77	1017.83
350.14	1028.92
350.52	1028.50
350.89	1030.44
351.26	1036.46
351.63	1041.89
352.01	1045.73
352.38	1053.29
352.75	1060.38
353.12	1066.70
353.50	1072.71
353.87	1080.04
354.24	1082.85
354.61	1084.79
354.98	1084.60
355.36	1084.32
355.73	1080.74
356.10	1081.51
356.47	1080.32
356.84	1081.84
357.22	1082.19
357.59	1081.75
357.96	1082.69
358.33	1082.71
358.70	1081.54
359.08	1079.01
359.45	1079.69
359.82	1074.96
360.19	1073.86
360.56	1073.07
360.94	1075.20
361.31	1071.31
361.68	1071.90
362.05	1072.08
362.42	1071.10
362.79	1069.27
363.16	1071.36
363.54	1072.64
363.91	1073.30
364.28	1076.48
364.65	1076.81
365.02	1077.44
365.39	1079.43
365.76	1080.20
366.14	1078.28
366.51	1077.96
366.88	1077.89
367.25	1073.58
367.62	1073.37
367.99	1071.12
368.36	1068.59
368.73	1068.29
369.10	1067.42
369.48	1067.89
369.85	1071.43
370.22	1072.41
370.59	1073.35
370.96	1076.44
371.33	1074.96
371.70	1073.09
372.07	1075.62
372.44	1074.07
372.81	1074.54
373.18	1072.81
373.55	1074.00
373.93	1071.24
374.30	1070.89
374.67	1065.95
375.04	1068.36
375.41	1066.51
375.78	1067.71
376.15	1065.13
376.52	1069.20
376.89	1067.73
377.26	1069.74
377.63	1069.58
378.00	1075.03
378.37	1072.85
378.74	1072.11
379.11	1073.28
379.48	1075.57
379.85	1073.60
380.22	1076.41
380.59	1073.79
380.96	1073.79
381.33	1073.53
381.70	1076.13
382.07	1075.97
382.44	1076.97
382.81	1075.73
383.18	1076.44
383.55	1072.27
383.92	1073.11
384.29	1073.72
384.66	1070.70
385.03	1067.24
385.40	1067.33
385.77	1066.51
386.14	1069.25
386.51	1071.61
386.88	1073.56
387.25	1073.21
387.62	1070.98
387.99	1072.22
388.36	1072.01
388.73	1073.70
389.10	1074.70
389.46	1078.64
389.83	1076.53
390.20	1077.56
390.57	1075.48
390.94	1074.84
391.31	1071.87
391.68	1071.24
392.05	1067.78
392.42	1069.06
392.79	1069.27
393.16	1070.21
393.53	1070.91
393.89	1075.13
394.26	1073.23
394.63	1074.96
395.00	1074.82
395.37	1074.14
395.74	1070.19
396.11	1072.27
396.48	1072.83
396.84	1074.52
397.21	1076.51
397.58	1079.48
397.95	1077.65
398.32	1077.70
398.69	1074.07
399.06	1071.94
399.42	1068.57
399.79	1070.14
400.16	1070.30
400.53	1073.65
400.90	1074.87
401.27	1076.37
401.64	1076.51
402.00	1074.42
402.37	1072.83
402.74	1074.17
403.11	1075.69
403.48	1075.99
403.84	1080.25
404.21	1080.79
404.58	1079.34
404.95	1083.01
405.32	1083.29
405.68	1080.48
406.05	1080.25
406.42	1078.82
406.79	1074.63
407.16	1073.04
407.52	1074.38
407.89	1072.88
408.26	1074.07
408.63	1074.10
408.99	1078.59
409.36	1076.20
409.73	1077.00
410.10	1079.90
410.47	1082.19
410.83	1078.17
411.20	1077.96
411.57	1080.88
411.94	1079.60
412.30	1080.20
412.67	1079.76
413.04	1080.91
413.40	1079.88
413.77	1080.63
414.14	1081.09
414.51	1082.03
414.87	1081.89
415.24	1080.06
415.61	1077.49
415.97	1073.18
416.34	1072.13
416.71	1074.84
417.08	1075.29
417.44	1077.23
417.81	1076.34
418.18	1073.51
418.54	1070.51
418.91	1069.32
419.28	1069.06
419.64	1072.62
420.01	1080.77
420.38	1080.88
420.74	1082.17
421.11	1082.66
421.48	1085.00
421.84	1080.37
422.21	1081.56
422.58	1084.65
422.94	1083.34
423.31	1079.74
423.68	1080.65
424.04	1078.99
424.41	1079.13
424.77	1082.83
425.14	1082.90
425.51	1084.53
425.87	1084.44
426.24	1082.40
426.61	1079.97
426.97	1078.61
427.34	1076.55
427.70	1077.49
428.07	1076.46
428.44	1074.89
428.80	1075.17
429.17	1073.30
429.53	1071.12
429.90	1073.21
430.27	1075.36
430.63	1077.16
431.00	1081.63
431.36	1083.86
431.73	1080.77
432.09	1081.12
432.46	1082.26
432.83	1079.83
433.19	1079.15
433.56	1084.35
433.92	1080.11
434.29	1077.07
434.65	1078.89
435.02	1079.36
435.38	1073.98
435.75	1075.48
436.11	1075.62
436.48	1076.44
436.84	1077.72
437.21	1078.66
437.57	1080.46
437.94	1079.57
438.30	1078.45
438.67	1081.28
439.03	1082.83
439.40	1081.42
439.76	1083.01
440.13	1081.75
440.49	1075.27
440.86	1074.26
441.22	1076.27
441.59	1079.64
441.95	1078.73
442.32	1083.13
442.68	1084.32
443.05	1085.12
443.41	1083.69
443.78	1084.35
444.14	1081.02
444.51	1080.32
444.87	1080.67
445.24	1080.63
445.60	1079.08
445.96	1083.15
446.33	1084.58
446.69	1086.52
447.06	1086.76
447.42	1090.74
447.79	1090.43
448.15	1090.29
448.51	1088.16
448.88	1086.15
449.24	1085.96
449.61	1087.69
449.97	1086.01
450.33	1085.07
450.70	1087.93
451.06	1085.52
451.43	1080.46
451.79	1082.22
452.15	1082.69
452.52	1079.27
452.88	1079.13
453.24	1083.15
453.61	1079.03
453.97	1079.15
454.34	1079.85
454.70	1078.43
455.06	1075.38
455.43	1077.30
455.79	1075.36
456.15	1077.16
456.52	1077.09
456.88	1080.23
457.24	1080.16
457.61	1078.87
457.97	1077.00
458.33	1078.50
458.70	1075.36
459.06	1072.18
459.42	1076.53
459.79	1079.57
460.15	1080.32
460.51	1078.59
460.88	1083.69
461.24	1080.67
461.60	1076.34
461.96	1077.18
462.33	1082.92
462.69	1082.45
463.05	1082.10
463.42	1085.73
463.78	1085.05
464.14	1082.99
464.50	1082.50
464.87	1082.61
465.23	1080.30
465.59	1078.71
465.95	1078.71
466.32	1081.37
466.68	1085.61
467.04	1085.17
467.40	1090.15
467.77	1090.64
468.13	1085.70
468.49	1082.03
468.85	1082.36
469.22	1079.17
469.58	1078.24
469.94	1080.37
470.30	1079.60
470.66	1081.28
471.03	1077.77
471.39	1076.32
471.75	1077.30
472.11	1077.72
472.47	1080.18
472.84	1082.15
473.20	1085.19
473.56	1085.63
473.92	1087.41
474.28	1083.50
474.65	1085.03
475.01	1082.08
475.37	1083.39
475.73	1081.80
476.09	1084.18
476.45	1083.41
476.81	1079.43
477.18	1077.89
477.54	1078.31
477.90	1082.17
478.26	1086.27
478.62	1088.70
478.98	1087.83
479.34	1086.76
479.71	1083.01
480.07	1077.58
480.43	1082.36
480.79	1081.09
481.15	1081.98
481.51	1081.19
481.87	1081.35
482.23	1077.00
482.59	1077.86
482.96	1079.03
483.32	1079.03
483.68	1080.91
484.04	1083.22
484.40	1082.94
484.76	1083.20
485.12	1081.26
485.48	1081.30
485.84	1081.44
486.20	1080.34
486.56	1081.73
486.92	1083.34
487.28	1083.43
487.64	1083.67
488.00	1084.58
488.37	1084.23
488.73	1084.65
489.09	1085.68
489.45	1085.52
489.81	1087.79
490.17	1089.80
490.53	1088.70
490.89	1088.00
491.25	1088.75
491.61	1090.20
491.97	1084.84
492.33	1084.39
492.69	1083.97
493.05	1084.37
493.41	1082.97
493.77	1083.79
494.13	1084.98
494.49	1084.46
494.85	1083.76
495.21	1085.17
495.57	1087.72
495.93	1086.64
496.29	1086.27
496.64	1087.37
497.00	1084.51
497.36	1081.09
497.72	1081.70
498.08	1082.43
498.44	1082.97
498.80	1084.32
499.16	1087.76
499.52	1085.17
499.88	1082.31
500.24	1081.77
500.60	1080.70
500.96	1078.66
501.32	1080.98
501.68	1083.97
502.03	1081.07
502.39	1078.21
502.75	1080.25
503.11	1081.33
503.47	1081.51
503.83	1082.73
504.19	1085.82
504.55	1085.63
504.91	1083.48
505.26	1086.59
505.62	1087.65
505.98	1088.07
506.34	1085.54
506.70	1084.98
507.06	1082.71
507.42	1080.79
507.78	1078.80
508.13	1079.06
508.49	1081.28
508.85	1079.34
509.21	1079.24
509.57	1082.57
509.93	1084.98
510.28	1085.28
510.64	1088.77
511.00	1086.90
511.36	1085.33
511.72	1083.15
512.07	1082.08
512.43	1079.20
512.79	1081.23
513.15	1080.30
513.51	1081.28
513.86	1082.24
514.22	1081.77
514.58	1082.83
514.94	1080.91
515.30	1082.38
515.65	1084.07
516.01	1083.67
516.37	1083.43
516.73	1085.80
517.08	1083.83
517.44	1083.46
517.80	1084.65
518.16	1082.59
518.51	1083.55
518.87	1083.55
519.23	1081.84
519.59	1079.53
519.94	1081.07
520.30	1083.06
520.66	1083.57
521.01	1083.81
521.37	1085.66
521.73	1086.87
522.09	1081.87
522.44	1083.13
522.80	1084.25
523.16	1084.14
523.51	1083.01
523.87	1085.47
524.23	1085.17
524.58	1085.19
524.94	1085.21
525.30	1086.69
525.65	1086.78
526.01	1085.05
526.37	1083.90
526.72	1083.20
527.08	1082.64
527.44	1083.46
527.79	1081.07
528.15	1079.08
528.51	1079.24
528.86	1078.31
529.22	1075.59
529.58	1078.54
529.93	1080.48
530.29	1082.52
530.65	1083.43
531.00	1086.43
531.36	1088.58
531.71	1089.12
532.07	1088.91
532.43	1087.76
532.78	1087.51
533.14	1085.05
533.49	1085.84
533.85	1087.60
534.21	1088.91
534.56	1084.39
534.92	1085.54
535.27	1085.61
535.63	1082.76
535.98	1083.20
536.34	1086.55
536.69	1086.87
537.05	1084.46
537.41	1084.30
537.76	1083.43
538.12	1082.22
538.47	1081.37
538.83	1086.31
539.18	1086.99
539.54	1086.22
539.89	1090.01
540.25	1091.65
540.60	1085.89
540.96	1085.14
541.31	1085.84
541.67	1085.80
542.02	1083.71
542.38	1087.32
542.73	1089.29
543.09	1087.18
543.44	1083.86
543.80	1085.26
544.15	1083.90
544.51	1086.57
544.86	1089.94
545.22	1095.84
545.57	1094.74
545.93	1095.09
546.28	1089.33
546.64	1088.91
546.99	1085.61
547.35	1085.63
547.70	1086.48
548.05	1088.51
548.41	1085.45
548.76	1085.73
549.12	1086.78
549.47	1085.00
549.83	1085.56
550.18	1086.13
550.53	1085.68
550.89	1083.90
551.24	1083.20
551.60	1084.23
551.95	1086.64
552.30	1083.22
552.66	1084.39
553.01	1086.22
553.37	1086.83
553.72	1084.51
554.07	1087.95
554.43	1088.79
554.78	1086.73
555.13	1084.18
555.49	1086.99
555.84	1087.11
556.19	1087.37
556.55	1086.52
556.90	1085.35
557.26	1083.41
557.61	1081.56
557.96	1080.02
558.32	1079.64
558.67	1078.28
559.02	1076.01
559.37	1075.20
559.73	1073.58
560.08	1078.21
560.43	1079.34
560.79	1080.58
561.14	1083.27
561.49	1084.84
561.85	1079.92
562.20	1083.76
562.55	1083.36
562.90	1082.12
563.26	1082.99
563.61	1084.79
563.96	1083.79
564.32	1083.64
564.67	1085.19
565.02	1084.23
565.37	1085.28
565.73	1084.14
566.08	1087.34
566.43	1086.92
566.78	1087.34
567.14	1087.27
567.49	1088.51
567.84	1086.24
568.19	1084.53
568.54	1083.88
568.90	1084.60
569.25	1083.76
569.60	1083.60
569.95	1082.47
570.31	1082.01
570.66	1082.31
571.01	1083.67
571.36	1084.56
571.71	1085.68
572.06	1086.22
572.42	1086.55
572.77	1083.62
573.12	1083.67
573.47	1081.30
573.82	1082.47
574.18	1081.28
574.53	1082.66
574.88	1085.12
575.23	1088.79
575.58	1085.82
575.93	1085.54
576.28	1082.99
576.64	1078.71
576.99	1074.59
577.34	1076.25
577.69	1075.13
578.04	1077.18
578.39	1082.54
578.74	1088.19
579.09	1088.84
579.44	1087.30
579.80	1088.40
580.15	1086.22
580.50	1082.36
580.85	1080.88
581.20	1084.67
581.55	1080.09
581.90	1077.96
582.25	1081.49
582.60	1084.70
582.95	1087.13
583.30	1092.73
583.65	1093.99
584.00	1091.44
584.35	1087.37
584.71	1080.88
585.06	1079.08
585.41	1080.79
585.76	1082.31
586.11	1086.08
586.46	1089.31
586.81	1087.86
587.16	1086.36
587.51	1085.24
587.86	1082.97
588.21	1083.04
588.56	1082.78
588.91	1083.79
589.26	1084.56
589.61	1084.02
589.96	1083.53
590.31	1086.20
590.66	1083.29
591.01	1083.27
591.36	1083.20
591.71	1082.71
592.06	1083.25
592.41	1085.31
592.76	1083.32
593.10	1083.76
593.45	1083.55
593.80	1084.89
594.15	1087.18
594.50	1087.16
594.85	1090.15
595.20	1092.84
595.55	1089.43
595.90	1087.16
596.25	1088.09
596.60	1084.84
596.95	1082.80
597.30	1087.13
597.64	1139.23
597.99	1143.45
598.34	1143.75
598.69	1142.23
599.04	1140.47
599.39	1089.29
599.74	1084.91
600.09	1087.76
600.44	1090.41
600.78	1087.51
601.13	1090.85
601.48	1092.56
601.83	1088.33
602.18	1087.86
602.53	1088.28
602.88	1085.24
603.22	1085.14
603.57	1085.35
603.92	1083.20
604.27	1085.14
604.62	1083.83
604.97	1083.43
605.31	1085.00
605.66	1087.39
606.01	1088.44
606.36	1088.68
606.71	1090.06
607.05	1091.65
607.40	1092.45
607.75	1088.75
608.10	1091.72
608.44	1091.86
608.79	1092.77
609.14	1091.20
609.49	1092.91
609.84	1094.39
610.18	1097.48
610.53	1101.36
610.88	1107.80
611.23	1112.81
611.57	1112.25
611.92	1110.21
612.27	1105.67
612.62	1100.73
612.96	1097.99
613.31	1094.88
613.66	1095.37
614.00	1096.14
614.35	1097.97
614.70	1098.27
615.05	1099.07
615.39	1096.96
615.74	1090.99
616.09	1086.62
616.43	1083.46
616.78	1084.42
617.13	1082.29
617.47	1087.06
617.82	1089.85
618.17	1089.92
618.51	1089.59
618.86	1092.16
619.21	1093.26
619.55	1090.64
619.90	1092.28
620.25	1092.07
620.59	1092.28
620.94	1087.13
621.29	1089.29
621.63	1088.49
621.98	1086.59
622.32	1084.37
622.67	1086.97
623.02	1087.58
623.36	1084.84
623.71	1084.70
624.05	1087.53
624.40	1087.83
624.75	1086.52
625.09	1090.55
625.44	1089.96
625.78	1088.00
626.13	1090.03
626.48	1090.78
626.82	1090.64
627.17	1091.30
627.51	1090.57
627.86	1091.77
628.20	1091.70
628.55	1090.99
628.89	1092.98
629.24	1094.65
629.58	1092.28
629.93	1091.77
630.28	1090.78
630.62	1091.84
630.97	1092.37
631.31	1091.58
631.66	1092.47
632.00	1092.09
632.35	1090.08
632.69	1088.04
633.04	1087.53
633.38	1085.77
633.73	1083.83
634.07	1084.49
634.42	1083.29
634.76	1085.59
635.11	1086.10
635.45	1088.91
635.79	1087.23
636.14	1089.96
636.48	1088.37
636.83	1089.43
637.17	1087.95
637.52	1086.90
637.86	1085.68
638.21	1086.01
638.55	1083.43
638.89	1086.01
639.24	1087.16
639.58	1083.81
639.93	1082.87
640.27	1086.78
640.61	1085.66
640.96	1085.33
641.30	1087.09
641.65	1085.61
641.99	1082.85
642.33	1081.16
642.68	1081.44
643.02	1083.81
643.37	1084.86
643.71	1085.99
644.05	1086.55
644.40	1087.20
644.74	1084.96
645.08	1084.98
645.43	1087.44
645.77	1088.28
646.11	1088.47
646.46	1089.99
646.80	1089.47
647.14	1087.34
647.49	1084.00
647.83	1082.64
648.17	1082.50
648.52	1084.93
648.86	1084.02
649.20	1087.67
649.55	1086.29
649.89	1087.23
650.23	1087.60
650.57	1084.11
650.92	1085.05
651.26	1087.16
651.60	1085.52
651.95	1084.84
652.29	1088.02
652.63	1085.21
652.97	1085.24
653.32	1087.25
653.66	1087.18
654.00	1086.83
654.34	1087.83
654.69	1087.06
655.03	1083.62
655.37	1083.15
655.71	1082.24
656.05	1079.88
656.40	1081.49
656.74	1081.84
657.08	1080.30
657.42	1081.63
657.76	1084.51
658.11	1080.67
658.45	1081.12
658.79	1082.22
659.13	1083.25
659.47	1082.01
659.82	1082.66
660.16	1082.17
660.50	1079.81
660.84	1081.61
661.18	1080.70
661.52	1082.61
661.87	1086.10
662.21	1089.33
662.55	1084.58
662.89	1084.23
663.23	1081.87
663.57	1079.60
663.91	1076.37
664.25	1077.79
664.60	1081.44
664.94	1083.71
665.28	1082.05
665.62	1084.65
665.96	1085.96
666.30	1083.39
666.64	1080.67
666.98	1084.07
667.32	1081.63
667.66	1079.27
668.01	1080.51
668.35	1081.56
668.69	1080.32
669.03	1081.63
669.37	1084.89
669.71	1082.83
670.05	1083.95
670.39	1081.33
670.73	1079.76
671.07	1076.23
671.41	1078.82
671.75	1078.12
672.09	1080.56
672.43	1084.00
672.77	1086.87
673.11	1084.63
673.45	1086.27
673.79	1086.34
674.13	1086.08
674.47	1086.76
674.81	1088.79
675.15	1088.72
675.49	1089.59
675.83	1089.10
676.17	1086.62
676.51	1089.68
676.85	1086.94
677.19	1087.90
677.53	1090.36
677.87	1092.35
678.21	1087.02
678.55	1090.74
678.89	1088.86
679.23	1084.93
679.57	1081.63
679.90	1084.39
680.24	1081.16
680.58	1082.22
680.92	1081.26
681.26	1083.25
681.60	1084.77
681.94	1089.00
682.28	1086.97
682.62	1088.21
682.96	1089.33
683.29	1087.65
683.63	1085.31
683.97	1084.58
684.31	1085.94
684.65	1085.33
684.99	1086.55
685.33	1085.63
685.67	1086.90
686.00	1085.33
686.34	1083.81
686.68	1079.99
687.02	1081.40
687.36	1083.18
687.70	1084.28
688.03	1084.77
688.37	1086.73
688.71	1086.48
689.05	1084.23
689.39	1083.86
689.72	1084.98
690.06	1081.66
690.40	1079.64
690.74	1078.71
691.08	1074.26
691.41	1072.60
691.75	1078.10
692.09	1080.39
692.43	1082.05
692.76	1088.65
693.10	1091.27
693.44	1090.34
693.78	1086.38
694.11	1086.80
694.45	1084.23
694.79	1085.38
695.13	1082.05
695.46	1083.29
695.80	1084.60
696.14	1086.15
696.48	1083.27
696.81	1087.23
697.15	1088.70
697.49	1083.50
697.82	1083.48
698.16	1082.87
698.50	1081.40
698.83	1081.84
699.17	1086.24
699.51	1086.24
699.84	1089.89
700.18	1086.99
700.52	1087.55
700.85	1086.36
701.19	1085.03
701.53	1083.43
701.86	1084.00
702.20	1084.11
702.54	1086.27
702.87	1087.09
703.21	1086.69
703.55	1087.06
703.88	1085.35
704.22	1084.65
704.55	1085.05
704.89	1086.71
705.23	1087.16
705.56	1087.11
705.90	1086.55
706.23	1087.25
706.57	1088.21
706.91	1088.96
707.24	1092.14
707.58	1091.04
707.91	1091.70
708.25	1086.69
708.58	1086.31
708.92	1088.02
709.26	1091.09
709.59	1086.76
709.93	1085.35
710.26	1084.63
710.60	1079.17
710.93	1075.45
711.27	1077.75
711.60	1080.13
711.94	1079.67
712.27	1081.00
712.61	1082.52
712.94	1080.51
713.28	1080.44
713.61	1079.27
713.95	1079.01
714.28	1080.23
714.62	1080.67
714.95	1080.41
715.29	1082.69
715.62	1083.64
715.96	1082.92
716.29	1087.13
716.63	1086.85
716.96	1087.06
717.29	1088.84
717.63	1089.29
717.96	1087.69
718.30	1086.85
718.63	1086.01
718.97	1084.04
719.30	1086.20
719.63	1084.07
719.97	1084.53
720.30	1084.81
720.64	1086.24
720.97	1083.01
721.30	1083.67
721.64	1085.66
721.97	1082.71
722.31	1081.35
722.64	1081.89
722.97	1081.23
723.31	1081.58
723.64	1084.18
723.97	1083.27
724.31	1083.11
724.64	1086.90
724.98	1086.87
725.31	1087.04
725.64	1085.68
725.98	1082.59
726.31	1080.32
726.64	1081.35
726.97	1082.15
727.31	1086.76
727.64	1090.13
727.97	1089.19
728.31	1087.37
728.64	1083.81
728.97	1079.81
729.31	1078.45
729.64	1078.75
729.97	1077.63
730.30	1083.55
730.64	1081.35
730.97	1082.15
731.30	1082.71
731.63	1083.86
731.97	1081.05
732.30	1086.78
732.63	1088.58
732.96	1089.26
733.30	1087.09
733.63	1087.04
733.96	1084.18
734.29	1081.66
734.63	1079.88
734.96	1083.41
735.29	1084.42
735.62	1084.56
735.95	1084.14
736.29	1082.90
736.62	1078.89
736.95	1081.19
737.28	1080.23
737.61	1079.34
737.94	1081.61
738.28	1083.43
738.61	1081.44
738.94	1081.87
739.27	1082.15
739.60	1080.06
739.93	1081.02
740.27	1080.11
740.60	1079.57
740.93	1078.99
741.26	1081.61
741.59	1081.07
741.92	1081.19
742.25	1081.84
742.58	1083.60
742.91	1081.94
743.25	1079.57
743.58	1080.37
743.91	1080.67
744.24	1081.02
744.57	1081.87
744.90	1085.07
745.23	1085.05
745.56	1085.70
745.89	1085.52
746.22	1086.50
746.55	1084.16
746.88	1083.93
747.21	1084.46
747.54	1081.19
747.87	1079.46
748.20	1081.28
748.53	1080.74
748.87	1081.73
749.20	1084.35
749.53	1086.69
749.86	1088.86
750.19	1090.10
750.52	1090.62
750.85	1090.36
751.18	1087.81
751.51	1083.50
751.84	1084.18
752.16	1080.18
752.49	1084.07
752.82	1085.40
753.15	1086.83
753.48	1083.13
753.81	1084.23
754.14	1079.17
754.47	1076.97
754.80	1077.68
755.13	1078.54
755.46	1081.54
755.79	1083.79
756.12	1086.71
756.45	1087.04
756.78	1085.33
757.11	1083.34
757.43	1083.18
757.76	1082.36
758.09	1084.60
758.42	1086.08
758.75	1086.55
759.08	1083.95
759.41	1083.57
759.74	1076.95
760.07	1079.36
760.39	1081.26
760.72	1084.60
761.05	1086.06
761.38	1090.97
761.71	1088.12
762.04	1085.33
762.36	1083.55
762.69	1084.93
763.02	1084.42
763.35	1084.96
763.68	1082.29
764.01	1083.67
764.33	1079.06
764.66	1078.33
764.99	1079.03
765.32	1081.80
765.65	1083.67
765.97	1084.42
766.30	1085.12
