SpectraSuite Data File
++++++++++++++++++++++++++++++++++++
Date: Mon Aug 26 10:26:43 PDT 2019
User: corrico
Dark Spectrum Present: No
Reference Spectrum Present: No
Number of Sampled Component Spectra: 1
Spectrometers: USB2+H06089
Integration Time (usec): 10000 (USB2+H06089)
Spectra Averaged: 20 (USB2+H06089)
Boxcar Smoothing: 2 (USB2+H06089)
Correct for Electrical Dark: No (USB2+H06089)
Strobe/Lamp Enabled: No (USB2+H06089)
Correct for Detector Non-linearity: No (USB2+H06089)
Correct for Stray Light: No (USB2+H06089)
Number of Pixels in Processed Spectrum: 2048
>>>>>Begin Processed Spectral Data<<<<<
339.70	1027.26
340.07	1027.26
340.45	997.30
340.82	975.93
341.19	952.79
341.57	929.68
341.94	918.31
342.31	906.51
342.69	901.22
343.06	896.45
343.43	896.78
343.81	896.80
344.18	901.01
344.55	905.20
344.93	913.72
345.30	920.49
345.67	930.36
346.04	936.75
346.42	948.81
346.79	955.95
347.16	963.50
347.54	970.36
347.91	982.35
348.28	988.67
348.65	997.40
349.03	1005.59
349.40	1017.15
349.77	1024.48
350.14	1030.30
350.52	1038.66
350.89	1043.48
351.26	1047.27
351.63	1054.76
352.01	1063.75
352.38	1067.31
352.75	1073.39
353.12	1074.89
353.50	1075.22
353.87	1074.38
354.24	1077.30
354.61	1079.74
354.98	1083.74
355.36	1084.77
355.73	1090.46
356.10	1091.84
356.47	1090.15
356.84	1091.81
357.22	1094.29
357.59	1090.81
357.96	1090.53
358.33	1090.62
358.70	1089.36
359.08	1085.77
359.45	1086.41
359.82	1085.31
360.19	1087.37
360.56	1084.16
360.94	1083.88
361.31	1080.09
361.68	1078.64
362.05	1079.27
362.42	1079.34
362.79	1083.18
363.16	1085.61
363.54	1085.87
363.91	1082.22
364.28	1083.93
364.65	1082.40
365.02	1082.66
365.39	1083.97
365.76	1083.67
366.14	1084.00
366.51	1083.53
366.88	1082.76
367.25	1081.49
367.62	1079.06
367.99	1075.83
368.36	1074.45
368.73	1075.08
369.10	1076.83
369.48	1079.78
369.85	1084.39
370.22	1083.93
370.59	1083.36
370.96	1081.12
371.33	1082.08
371.70	1077.58
372.07	1075.73
372.44	1072.90
372.81	1071.26
373.18	1069.32
373.55	1070.77
373.93	1073.30
374.30	1076.58
374.67	1079.69
375.04	1079.24
375.41	1079.17
375.78	1081.07
376.15	1080.58
376.52	1081.70
376.89	1084.98
377.26	1086.48
377.63	1084.86
378.00	1087.83
378.37	1083.39
378.74	1080.32
379.11	1081.47
379.48	1081.05
379.85	1078.54
380.22	1084.46
380.59	1087.32
380.96	1084.23
381.33	1085.14
381.70	1082.78
382.07	1083.01
382.44	1084.86
382.81	1087.53
383.18	1089.40
383.55	1091.16
383.92	1090.83
384.29	1089.40
384.66	1088.42
385.03	1089.12
385.40	1091.70
385.77	1088.65
386.14	1088.58
386.51	1089.78
386.88	1091.18
387.25	1089.73
387.62	1092.94
387.99	1092.54
388.36	1093.19
388.73	1091.04
389.10	1089.33
389.46	1085.12
389.83	1084.44
390.20	1082.17
390.57	1080.37
390.94	1080.88
391.31	1084.70
391.68	1086.08
392.05	1089.61
392.42	1092.09
392.79	1090.55
393.16	1089.85
393.53	1090.15
393.89	1089.33
394.26	1086.92
394.63	1091.32
395.00	1089.17
395.37	1089.92
395.74	1088.58
396.11	1087.41
396.48	1084.02
396.84	1086.71
397.21	1084.09
397.58	1084.11
397.95	1088.40
398.32	1089.80
398.69	1088.23
399.06	1089.07
399.42	1089.40
399.79	1085.26
400.16	1087.16
400.53	1090.53
400.90	1091.86
401.27	1093.64
401.64	1095.84
402.00	1096.10
402.37	1094.62
402.74	1095.70
403.11	1096.78
403.48	1101.81
403.84	1100.08
404.21	1100.38
404.58	1099.77
404.95	1098.02
405.32	1094.62
405.68	1095.32
406.05	1093.33
406.42	1091.72
406.79	1091.30
407.16	1091.20
407.52	1093.08
407.89	1094.60
408.26	1097.13
408.63	1097.95
408.99	1096.07
409.36	1095.51
409.73	1094.95
410.10	1096.19
410.47	1100.57
410.83	1101.15
411.20	1100.73
411.57	1100.19
411.94	1100.10
412.30	1097.15
412.67	1099.72
413.04	1104.36
413.40	1105.69
413.77	1105.79
414.14	1103.35
414.51	1103.84
414.87	1097.66
415.24	1100.33
415.61	1095.53
415.97	1096.17
416.34	1096.80
416.71	1099.47
417.08	1099.98
417.44	1101.60
417.81	1103.14
418.18	1103.00
418.54	1104.87
418.91	1104.45
419.28	1107.00
419.64	1108.48
420.01	1110.02
420.38	1109.58
420.74	1108.57
421.11	1108.76
421.48	1106.28
421.84	1109.53
422.21	1110.16
422.58	1111.85
422.94	1112.06
423.31	1116.55
423.68	1111.82
424.04	1111.08
424.41	1110.09
424.77	1110.33
425.14	1109.30
425.51	1108.92
425.87	1110.65
426.24	1110.79
426.61	1111.97
426.97	1112.88
427.34	1113.16
427.70	1110.21
428.07	1112.67
428.44	1114.00
428.80	1111.73
429.17	1114.49
429.53	1114.02
429.90	1114.96
430.27	1114.54
430.63	1116.41
431.00	1115.36
431.36	1119.83
431.73	1115.43
432.09	1114.19
432.46	1110.87
432.83	1110.72
433.19	1110.16
433.56	1109.58
433.92	1110.94
434.29	1112.55
434.65	1114.00
435.02	1114.09
435.38	1118.05
435.75	1113.42
436.11	1113.77
436.48	1112.74
436.84	1108.48
437.21	1106.00
437.57	1106.21
437.94	1108.64
438.30	1104.22
438.67	1106.37
439.03	1107.14
439.40	1109.88
439.76	1108.27
440.13	1109.86
440.49	1109.27
440.86	1109.58
441.22	1109.91
441.59	1111.33
441.95	1114.40
442.32	1115.34
442.68	1114.52
443.05	1115.01
443.41	1114.07
443.78	1110.42
444.14	1111.10
444.51	1113.11
444.87	1115.31
445.24	1112.85
445.60	1114.24
445.96	1113.67
446.33	1110.68
446.69	1107.80
447.06	1108.08
447.42	1108.62
447.79	1108.62
448.15	1109.06
448.51	1109.06
448.88	1110.65
449.24	1112.43
449.61	1110.47
449.97	1111.08
450.33	1110.40
450.70	1108.88
451.06	1106.54
451.43	1109.55
451.79	1112.15
452.15	1110.51
452.52	1112.01
452.88	1113.11
453.24	1114.33
453.61	1114.17
453.97	1115.52
454.34	1113.51
454.70	1113.70
455.06	1110.47
455.43	1107.89
455.79	1111.61
456.15	1115.01
456.52	1114.00
456.88	1114.82
457.24	1117.93
457.61	1115.36
457.97	1111.54
458.33	1113.25
458.70	1114.54
459.06	1110.44
459.42	1108.69
459.79	1111.08
460.15	1109.77
460.51	1107.68
460.88	1109.74
461.24	1111.89
461.60	1110.54
461.96	1111.17
462.33	1112.41
462.69	1112.64
463.05	1113.32
463.42	1115.15
463.78	1116.72
464.14	1116.48
464.50	1115.99
464.87	1116.60
465.23	1119.85
465.59	1119.10
465.95	1122.92
466.32	1126.34
466.68	1126.01
467.04	1126.90
467.40	1127.27
467.77	1127.81
468.13	1129.26
468.49	1132.19
468.85	1130.41
469.22	1132.23
469.58	1131.91
469.94	1132.94
470.30	1133.12
470.66	1138.97
471.03	1143.49
471.39	1150.35
471.75	1153.37
472.11	1158.38
472.47	1157.44
472.84	1155.19
473.20	1153.14
473.56	1151.87
473.92	1154.05
474.28	1156.90
474.65	1164.81
475.01	1169.17
475.37	1174.13
475.73	1178.18
476.09	1184.01
476.45	1185.46
476.81	1190.89
477.18	1195.22
477.54	1201.35
477.90	1205.05
478.26	1213.78
478.62	1218.04
478.98	1227.66
479.34	1232.74
479.71	1241.47
480.07	1247.65
480.43	1258.13
480.79	1266.65
481.15	1276.65
481.51	1288.91
481.87	1300.78
482.23	1312.29
482.59	1322.47
482.96	1333.96
483.32	1345.85
483.68	1363.10
484.04	1374.25
484.40	1392.22
484.76	1407.53
485.12	1424.75
485.48	1441.28
485.84	1465.74
486.20	1484.39
486.56	1512.74
486.92	1537.76
487.28	1561.86
487.64	1586.67
488.00	1618.29
488.37	1644.41
488.73	1676.74
489.09	1713.06
489.45	1749.22
489.81	1782.48
490.17	1821.12
490.53	1861.24
490.89	1897.54
491.25	1936.40
491.61	1979.63
491.97	2025.92
492.33	2073.62
492.69	2123.36
493.05	2182.10
493.41	2244.97
493.77	2305.66
494.13	2372.37
494.49	2447.08
494.85	2520.57
495.21	2594.58
495.57	2675.42
495.93	2757.53
496.29	2837.67
496.64	2926.93
497.00	3013.91
497.36	3111.95
497.72	3210.35
498.08	3317.59
498.44	3427.97
498.80	3553.12
499.16	3684.66
499.52	3825.84
499.88	3982.28
500.24	4141.13
500.60	4297.76
500.96	4458.32
501.32	4622.00
501.68	4788.74
502.03	4974.95
502.39	5188.15
502.75	5388.78
503.11	5615.88
503.47	5848.13
503.83	6090.03
504.19	6329.63
504.55	6606.09
504.91	6882.09
505.26	7156.61
505.62	7445.36
505.98	7765.38
506.34	8098.70
506.70	8454.55
507.06	8845.80
507.42	9250.52
507.78	9639.00
508.13	10039.87
508.49	10468.91
508.85	10934.12
509.21	11404.99
509.57	11932.78
509.93	12489.36
510.28	13067.52
510.64	13670.88
511.00	14288.53
511.36	14867.95
511.72	15442.76
512.07	16081.70
512.43	16684.91
512.79	17355.59
513.15	18081.48
513.51	18825.56
513.86	19550.78
514.22	20389.65
514.58	21169.77
514.94	21995.30
515.30	22839.72
515.65	23664.29
516.01	24481.09
516.37	25321.34
516.73	26100.41
517.08	26970.86
517.44	27799.99
517.80	28588.03
518.16	29413.47
518.51	30212.99
518.87	30926.04
519.23	31786.56
519.59	32670.53
519.94	33488.03
520.30	34382.80
520.66	35173.10
521.01	35966.29
521.37	36640.08
521.73	37275.44
522.09	37855.94
522.44	38487.14
522.80	38871.17
523.16	39213.99
523.51	39461.48
523.87	39763.78
524.23	40039.71
524.58	40312.45
524.94	40672.94
525.30	41032.52
525.65	41209.58
526.01	41248.27
526.37	41267.88
526.72	41216.69
527.08	41104.42
527.44	40931.69
527.79	40783.37
528.15	40661.73
528.51	40433.67
528.86	40176.42
529.22	39941.27
529.58	39665.46
529.93	39275.08
530.29	38820.24
530.65	38470.96
531.00	38114.78
531.36	37678.06
531.71	37222.57
532.07	36770.89
532.43	36193.46
532.78	35537.85
533.14	34985.42
533.49	34424.62
533.85	33803.44
534.21	33193.50
534.56	32659.18
534.92	32061.55
535.27	31436.60
535.63	30837.73
535.98	30218.00
536.34	29577.35
536.69	28939.79
537.05	28353.39
537.41	27844.25
537.76	27374.84
538.12	26838.69
538.47	26352.21
538.83	25914.95
539.18	25459.62
539.54	24966.38
539.89	24505.74
540.25	23989.18
540.60	23482.78
540.96	22972.87
541.31	22495.12
541.67	22073.29
542.02	21678.51
542.38	21249.23
542.73	20819.51
543.09	20439.41
543.44	20080.79
543.80	19738.39
544.15	19348.51
544.51	19027.48
544.86	18699.20
545.22	18330.21
545.57	17956.10
545.93	17597.34
546.28	17256.86
546.64	16936.30
546.99	16600.32
547.35	16271.45
547.70	15997.59
548.05	15691.79
548.41	15404.89
548.76	15121.36
549.12	14849.01
549.47	14563.96
549.83	14311.37
550.18	13978.57
550.53	13661.66
550.89	13390.37
551.24	13129.40
551.60	12824.01
551.95	12568.68
552.30	12332.91
552.66	12088.02
553.01	11826.96
553.37	11560.51
553.72	11285.20
554.07	11019.20
554.43	10735.15
554.78	10465.57
555.13	10213.00
555.49	10004.25
555.84	9815.53
556.19	9629.83
556.55	9424.21
556.90	9233.53
557.26	9028.17
557.61	8796.39
557.96	8565.94
558.32	8369.92
558.67	8159.62
559.02	7932.68
559.37	7753.77
559.73	7596.47
560.08	7442.55
560.43	7307.62
560.79	7195.27
561.14	7044.01
561.49	6881.03
561.85	6721.57
562.20	6561.29
562.55	6415.97
562.90	6295.95
563.26	6174.40
563.61	6064.94
563.96	5953.41
564.32	5836.13
564.67	5701.76
565.02	5585.78
565.37	5471.59
565.73	5363.08
566.08	5262.81
566.43	5158.59
566.78	5052.58
567.14	4948.52
567.49	4846.57
567.84	4742.51
568.19	4645.66
568.54	4555.85
568.90	4465.98
569.25	4384.39
569.60	4308.34
569.95	4236.88
570.31	4158.13
570.66	4077.77
571.01	3985.67
571.36	3891.23
571.71	3811.23
572.06	3739.75
572.42	3679.51
572.77	3628.91
573.12	3576.76
573.47	3519.96
573.82	3460.79
574.18	3396.12
574.53	3326.42
574.88	3277.19
575.23	3224.79
575.58	3173.56
575.93	3125.25
576.28	3080.14
576.64	3017.49
576.99	2960.82
577.34	2909.01
577.69	2848.03
578.04	2798.44
578.39	2753.64
578.74	2710.95
579.09	2667.84
579.44	2636.94
579.80	2601.06
580.15	2561.27
580.50	2524.92
580.85	2490.28
581.20	2455.62
581.55	2425.40
581.90	2399.96
582.25	2365.91
582.60	2329.70
582.95	2294.26
583.30	2251.95
583.65	2215.60
584.00	2181.15
584.35	2153.55
584.71	2121.30
585.06	2088.39
585.41	2057.12
585.76	2031.61
586.11	2006.24
586.46	1982.50
586.81	1967.88
587.16	1948.43
587.51	1930.38
587.86	1911.59
588.21	1893.56
588.56	1870.46
588.91	1848.27
589.26	1826.20
589.61	1803.55
589.96	1783.96
590.31	1768.56
590.66	1753.81
591.01	1740.02
591.36	1724.51
591.71	1708.83
592.06	1691.34
592.41	1671.82
592.76	1655.67
593.10	1643.43
593.45	1627.77
593.80	1612.28
594.15	1603.88
594.50	1591.94
594.85	1576.49
595.20	1565.21
595.55	1558.16
595.90	1548.52
596.25	1536.21
596.60	1524.02
596.95	1516.53
597.30	1502.86
597.64	1539.39
597.99	1532.11
598.34	1528.07
598.69	1514.94
599.04	1507.52
599.39	1450.59
599.74	1442.33
600.09	1433.70
600.44	1426.35
600.78	1415.98
601.13	1410.06
601.48	1400.79
601.83	1391.28
602.18	1383.26
602.53	1375.79
602.88	1364.70
603.22	1360.11
603.57	1355.43
603.92	1351.47
604.27	1346.49
604.62	1339.21
604.97	1330.45
605.31	1322.52
605.66	1318.73
606.01	1311.38
606.36	1306.65
606.71	1306.37
607.05	1298.53
607.40	1291.53
607.75	1288.56
608.10	1284.60
608.44	1277.21
608.79	1278.47
609.14	1274.33
609.49	1270.35
609.84	1266.14
610.18	1259.86
610.53	1253.57
610.88	1250.55
611.23	1250.31
611.57	1247.25
611.92	1243.55
612.27	1239.41
612.62	1235.43
612.96	1227.52
613.31	1223.30
613.66	1223.30
614.00	1219.42
614.35	1215.72
614.70	1215.30
615.05	1215.72
615.39	1210.31
615.74	1208.11
616.09	1204.49
616.43	1201.65
616.78	1198.00
617.13	1196.65
617.47	1196.25
617.82	1192.92
618.17	1192.85
618.51	1189.39
618.86	1186.89
619.21	1182.42
619.55	1180.31
619.90	1171.53
620.25	1169.52
620.59	1168.65
620.94	1166.59
621.29	1169.36
621.63	1173.47
621.98	1174.76
622.32	1171.81
622.67	1170.22
623.02	1165.21
623.36	1163.64
623.71	1157.35
624.05	1155.73
624.40	1152.15
624.75	1153.37
625.09	1151.66
625.44	1152.62
625.78	1151.52
626.13	1150.96
626.48	1147.05
626.82	1146.82
627.17	1144.29
627.51	1141.20
627.86	1142.16
628.20	1137.38
628.55	1134.60
628.89	1135.84
629.24	1134.39
629.58	1133.15
629.93	1135.46
630.28	1130.90
630.62	1128.44
630.97	1129.87
631.31	1127.83
631.66	1127.69
632.00	1126.85
632.35	1123.86
632.69	1119.01
633.04	1116.46
633.38	1116.48
633.73	1117.68
634.07	1119.57
634.42	1122.43
634.76	1123.53
635.11	1119.48
635.45	1116.83
635.79	1113.39
636.14	1111.22
636.48	1112.25
636.83	1114.33
637.17	1112.60
637.52	1115.85
637.86	1114.42
638.21	1111.45
638.55	1110.26
638.89	1113.30
639.24	1110.94
639.58	1110.96
639.93	1113.74
640.27	1113.28
640.61	1114.94
640.96	1112.11
641.30	1112.36
641.65	1106.32
641.99	1104.38
642.33	1103.73
642.68	1103.96
643.02	1103.96
643.37	1106.91
643.71	1103.73
644.05	1101.74
644.40	1102.91
644.74	1102.11
645.08	1102.53
645.43	1106.32
645.77	1104.41
646.11	1104.57
646.46	1105.32
646.80	1108.06
647.14	1109.95
647.49	1109.30
647.83	1108.50
648.17	1108.83
648.52	1103.77
648.86	1102.30
649.20	1102.16
649.55	1102.04
649.89	1099.61
650.23	1097.80
650.57	1095.51
650.92	1095.46
651.26	1094.79
651.60	1096.21
651.95	1101.25
652.29	1100.03
652.63	1099.68
652.97	1099.12
653.32	1100.64
653.66	1096.45
654.00	1099.96
654.34	1105.20
654.69	1104.03
655.03	1100.10
655.37	1101.74
655.71	1101.18
656.05	1097.99
656.40	1099.84
656.74	1099.33
657.08	1097.50
657.42	1094.90
657.76	1091.04
658.11	1090.46
658.45	1090.55
658.79	1090.74
659.13	1089.05
659.47	1093.08
659.82	1093.03
660.16	1092.80
660.50	1094.06
660.84	1095.98
661.18	1092.35
661.52	1091.44
661.87	1092.73
662.21	1095.21
662.55	1097.03
662.89	1100.19
663.23	1100.78
663.57	1101.57
663.91	1099.70
664.25	1099.02
664.60	1092.30
664.94	1089.89
665.28	1090.10
665.62	1087.62
665.96	1087.90
666.30	1090.95
666.64	1092.61
666.98	1091.60
667.32	1092.91
667.66	1093.03
668.01	1093.66
668.35	1093.73
668.69	1093.12
669.03	1093.05
669.37	1092.23
669.71	1094.86
670.05	1094.57
670.39	1093.83
670.73	1092.12
671.07	1091.32
671.41	1087.74
671.75	1086.55
672.09	1084.86
672.43	1085.68
672.77	1082.61
673.11	1083.04
673.45	1085.40
673.79	1086.78
674.13	1087.27
674.47	1090.36
674.81	1092.77
675.15	1091.60
675.49	1093.01
675.83	1092.63
676.17	1089.80
676.51	1089.29
676.85	1091.98
677.19	1089.59
677.53	1090.15
677.87	1094.62
678.21	1094.60
678.55	1092.42
678.89	1095.30
679.23	1094.11
679.57	1095.82
679.90	1097.31
680.24	1098.06
680.58	1098.13
680.92	1097.69
681.26	1097.88
681.60	1095.67
681.94	1097.55
682.28	1097.64
682.62	1097.78
682.96	1094.46
683.29	1095.18
683.63	1090.53
683.97	1087.76
684.31	1085.19
684.65	1084.09
684.99	1082.24
685.33	1084.74
685.67	1086.06
686.00	1090.10
686.34	1088.65
686.68	1091.81
687.02	1089.89
687.36	1091.56
687.70	1089.87
688.03	1092.91
688.37	1090.62
688.71	1091.98
689.05	1090.39
689.39	1093.31
689.72	1093.78
690.06	1095.02
690.40	1093.90
690.74	1094.20
691.08	1091.56
691.41	1092.26
691.75	1089.78
692.09	1093.85
692.43	1092.26
692.76	1093.10
693.10	1091.84
693.44	1091.81
693.78	1088.44
694.11	1094.11
694.45	1093.62
694.79	1094.20
695.13	1093.85
695.46	1093.40
695.80	1090.46
696.14	1090.76
696.48	1089.43
696.81	1090.83
697.15	1087.76
697.49	1088.40
697.82	1086.87
698.16	1087.88
698.50	1087.02
698.83	1093.10
699.17	1089.43
699.51	1089.73
699.84	1088.47
700.18	1088.54
700.52	1086.41
700.85	1088.28
701.19	1089.17
701.53	1089.87
701.86	1093.31
702.20	1091.58
702.54	1088.61
702.87	1086.76
703.21	1085.31
703.55	1081.30
703.88	1082.71
704.22	1087.20
704.55	1090.53
704.89	1089.94
705.23	1089.92
705.56	1089.68
705.90	1084.37
706.23	1083.13
706.57	1083.27
706.91	1083.53
707.24	1084.07
707.58	1086.62
707.91	1087.06
708.25	1088.33
708.58	1089.07
708.92	1089.40
709.26	1087.62
709.59	1083.27
709.93	1082.52
710.26	1081.00
710.60	1079.50
710.93	1083.36
711.27	1089.75
711.60	1088.19
711.94	1089.45
712.27	1091.13
712.61	1089.54
712.94	1083.90
713.28	1086.48
713.61	1084.28
713.95	1083.32
714.28	1083.97
714.62	1086.59
714.95	1084.86
715.29	1089.36
715.62	1088.70
715.96	1085.52
716.29	1085.66
716.63	1086.27
716.96	1083.39
717.29	1085.54
717.63	1090.57
717.96	1090.81
718.30	1091.34
718.63	1092.19
718.97	1091.02
719.30	1093.15
719.63	1093.97
719.97	1090.85
720.30	1091.06
720.64	1089.99
720.97	1084.70
721.30	1084.42
721.64	1088.28
721.97	1087.09
722.31	1087.30
722.64	1088.16
722.97	1088.72
723.31	1088.37
723.64	1087.16
723.97	1088.65
724.31	1089.73
724.64	1088.70
724.98	1090.83
725.31	1093.31
725.64	1089.92
725.98	1089.50
726.31	1087.34
726.64	1083.36
726.97	1083.57
727.31	1085.24
727.64	1086.15
727.97	1087.34
728.31	1088.21
728.64	1088.61
728.97	1090.39
729.31	1089.89
729.64	1086.90
729.97	1085.73
730.30	1088.09
730.64	1085.91
730.97	1082.94
731.30	1090.32
731.63	1090.64
731.97	1086.10
732.30	1084.58
732.63	1083.95
732.96	1076.41
733.30	1076.25
733.63	1079.27
733.96	1082.26
734.29	1083.55
734.63	1088.02
734.96	1089.82
735.29	1087.53
735.62	1086.55
735.95	1090.03
736.29	1090.76
736.62	1089.85
736.95	1090.20
737.28	1092.75
737.61	1090.60
737.94	1089.80
738.28	1089.26
738.61	1087.53
738.94	1088.42
739.27	1084.81
739.60	1087.23
739.93	1086.38
740.27	1086.08
740.60	1083.04
740.93	1085.73
741.26	1083.25
741.59	1084.37
741.92	1086.71
742.25	1087.39
742.58	1087.06
742.91	1085.45
743.25	1088.56
743.58	1091.93
743.91	1091.49
744.24	1092.40
744.57	1093.43
744.90	1090.29
745.23	1085.31
745.56	1086.06
745.89	1086.22
746.22	1083.60
746.55	1083.20
746.88	1084.18
747.21	1086.87
747.54	1087.48
747.87	1090.08
748.20	1090.03
748.53	1090.17
748.87	1085.19
749.20	1085.19
749.53	1085.87
749.86	1087.23
750.19	1085.38
750.52	1084.35
750.85	1083.62
751.18	1081.87
751.51	1084.18
751.84	1087.20
752.16	1085.89
752.49	1084.86
752.82	1083.97
753.15	1082.38
753.48	1081.00
753.81	1084.63
754.14	1087.90
754.47	1087.06
754.80	1085.19
755.13	1087.04
755.46	1084.67
755.79	1082.03
756.12	1085.12
756.45	1083.08
756.78	1083.22
757.11	1084.00
757.43	1086.03
757.76	1083.57
758.09	1085.35
758.42	1081.12
758.75	1083.57
759.08	1085.14
759.41	1087.48
759.74	1088.58
760.07	1092.66
760.39	1091.51
760.72	1090.43
761.05	1090.01
761.38	1090.69
761.71	1090.03
762.04	1091.39
762.36	1089.10
762.69	1089.92
763.02	1088.70
763.35	1085.84
