SpectraSuite Data File
++++++++++++++++++++++++++++++++++++
Date: Mon Aug 26 10:26:57 PDT 2019
User: corrico
Dark Spectrum Present: No
Reference Spectrum Present: No
Number of Sampled Component Spectra: 1
Spectrometers: USB2+H06089
Integration Time (usec): 10000 (USB2+H06089)
Spectra Averaged: 20 (USB2+H06089)
Boxcar Smoothing: 2 (USB2+H06089)
Correct for Electrical Dark: No (USB2+H06089)
Strobe/Lamp Enabled: No (USB2+H06089)
Correct for Detector Non-linearity: No (USB2+H06089)
Correct for Stray Light: No (USB2+H06089)
Number of Pixels in Processed Spectrum: 2048
>>>>>Begin Processed Spectral Data<<<<<
339.70	1026.56
340.07	1026.56
340.45	995.76
340.82	976.96
341.19	955.85
341.57	931.14
341.94	916.20
342.31	905.34
342.69	896.38
343.06	892.19
343.43	891.30
343.81	895.49
344.18	898.84
344.55	903.91
344.93	905.86
345.30	915.64
345.67	924.89
346.04	934.44
346.42	944.69
346.79	956.90
347.16	958.38
347.54	965.73
347.91	971.46
348.28	978.67
348.65	986.51
349.03	999.27
349.40	1003.95
349.77	1011.42
350.14	1019.49
350.52	1027.19
350.89	1033.21
351.26	1044.02
351.63	1052.75
352.01	1054.72
352.38	1058.98
352.75	1064.48
353.12	1065.51
353.50	1070.00
353.87	1074.94
354.24	1074.98
354.61	1077.70
354.98	1080.63
355.36	1077.89
355.73	1079.71
356.10	1080.25
356.47	1076.88
356.84	1078.21
357.22	1083.08
357.59	1080.41
357.96	1082.61
358.33	1084.07
358.70	1083.74
359.08	1080.67
359.45	1078.00
359.82	1079.64
360.19	1078.36
360.56	1073.65
360.94	1071.52
361.31	1073.16
361.68	1073.00
362.05	1074.28
362.42	1077.44
362.79	1078.12
363.16	1078.03
363.54	1074.07
363.91	1070.61
364.28	1069.70
364.65	1068.38
365.02	1068.38
365.39	1068.24
365.76	1068.45
366.14	1068.22
366.51	1072.25
366.88	1073.25
367.25	1074.96
367.62	1076.79
367.99	1076.11
368.36	1073.32
368.73	1072.95
369.10	1071.22
369.48	1069.06
369.85	1067.14
370.22	1066.86
370.59	1067.49
370.96	1068.17
371.33	1069.93
371.70	1071.45
372.07	1071.19
372.44	1069.86
372.81	1067.64
373.18	1066.04
373.55	1069.06
373.93	1071.29
374.30	1073.72
374.67	1077.00
375.04	1076.06
375.41	1075.03
375.78	1071.97
376.15	1068.78
376.52	1066.28
376.89	1068.92
377.26	1069.84
377.63	1069.41
378.00	1071.15
378.37	1073.51
378.74	1076.34
379.11	1073.14
379.48	1076.88
379.85	1077.86
380.22	1073.98
380.59	1072.46
380.96	1070.28
381.33	1068.13
381.70	1067.49
382.07	1069.02
382.44	1067.14
382.81	1069.02
383.18	1071.10
383.55	1071.99
383.92	1073.07
384.29	1073.86
384.66	1073.95
385.03	1073.44
385.40	1072.36
385.77	1073.02
386.14	1069.98
386.51	1071.19
386.88	1072.20
387.25	1070.77
387.62	1069.51
387.99	1071.40
388.36	1067.71
388.73	1064.41
389.10	1066.14
389.46	1068.34
389.83	1068.62
390.20	1071.66
390.57	1071.19
390.94	1070.61
391.31	1069.23
391.68	1070.35
392.05	1070.89
392.42	1073.86
392.79	1075.97
393.16	1076.83
393.53	1077.21
393.89	1074.87
394.26	1071.52
394.63	1066.68
395.00	1065.04
395.37	1061.01
395.74	1065.29
396.11	1067.94
396.48	1072.36
396.84	1071.40
397.21	1075.17
397.58	1073.39
397.95	1071.40
398.32	1067.75
398.69	1068.99
399.06	1067.89
399.42	1068.67
399.79	1067.26
400.16	1069.65
400.53	1070.98
400.90	1069.27
401.27	1065.76
401.64	1066.63
402.00	1068.17
402.37	1067.28
402.74	1068.81
403.11	1068.95
403.48	1073.46
403.84	1074.05
404.21	1074.03
404.58	1075.29
404.95	1077.04
405.32	1072.08
405.68	1072.25
406.05	1072.97
406.42	1073.04
406.79	1072.43
407.16	1075.80
407.52	1074.89
407.89	1073.95
408.26	1073.02
408.63	1074.63
408.99	1071.80
409.36	1073.88
409.73	1074.70
410.10	1073.93
410.47	1072.71
410.83	1076.88
411.20	1074.56
411.57	1072.67
411.94	1073.02
412.30	1073.88
412.67	1071.26
413.04	1072.67
413.40	1076.95
413.77	1080.39
414.14	1082.69
414.51	1082.50
414.87	1080.81
415.24	1078.26
415.61	1074.21
415.97	1071.33
416.34	1074.80
416.71	1075.22
417.08	1076.67
417.44	1079.20
417.81	1078.99
418.18	1073.56
418.54	1073.00
418.91	1072.90
419.28	1073.11
419.64	1072.27
420.01	1074.61
420.38	1075.59
420.74	1077.25
421.11	1075.64
421.48	1080.25
421.84	1082.38
422.21	1082.85
422.58	1076.01
422.94	1074.49
423.31	1072.29
423.68	1070.54
424.04	1067.92
424.41	1072.64
424.77	1077.16
425.14	1080.37
425.51	1081.35
425.87	1082.85
426.24	1083.27
426.61	1082.66
426.97	1083.53
427.34	1084.30
427.70	1083.48
428.07	1081.66
428.44	1081.23
428.80	1076.18
429.17	1075.71
429.53	1074.96
429.90	1074.35
430.27	1076.08
430.63	1075.59
431.00	1071.52
431.36	1074.82
431.73	1074.35
432.09	1071.80
432.46	1075.17
432.83	1077.09
433.19	1074.89
433.56	1077.02
433.92	1075.08
434.29	1074.63
434.65	1077.89
435.02	1080.18
435.38	1079.71
435.75	1083.67
436.11	1083.11
436.48	1083.43
436.84	1082.15
437.21	1082.71
437.57	1084.98
437.94	1085.17
438.30	1083.01
438.67	1082.12
439.03	1082.90
439.40	1077.11
439.76	1077.82
440.13	1080.44
440.49	1081.77
440.86	1080.06
441.22	1081.94
441.59	1083.20
441.95	1080.93
442.32	1081.91
442.68	1083.81
443.05	1085.14
443.41	1082.92
443.78	1082.61
444.14	1081.56
444.51	1080.37
444.87	1079.62
445.24	1079.08
445.60	1078.57
445.96	1078.75
446.33	1076.08
446.69	1073.72
447.06	1074.94
447.42	1073.42
447.79	1073.21
448.15	1076.18
448.51	1078.80
448.88	1078.26
449.24	1079.27
449.61	1080.98
449.97	1078.73
450.33	1079.01
450.70	1078.10
451.06	1080.39
451.43	1076.95
451.79	1081.14
452.15	1081.98
452.52	1083.20
452.88	1082.43
453.24	1085.80
453.61	1083.18
453.97	1083.60
454.34	1086.85
454.70	1088.77
455.06	1086.10
455.43	1086.03
455.79	1083.06
456.15	1080.63
456.52	1080.93
456.88	1084.74
457.24	1083.69
457.61	1084.07
457.97	1082.57
458.33	1079.46
458.70	1076.58
459.06	1076.58
459.42	1077.07
459.79	1074.82
460.15	1075.78
460.51	1072.67
460.88	1074.35
461.24	1075.62
461.60	1079.99
461.96	1081.05
462.33	1084.09
462.69	1086.64
463.05	1088.84
463.42	1085.56
463.78	1085.05
464.14	1082.83
464.50	1081.94
464.87	1076.79
465.23	1076.60
465.59	1076.65
465.95	1081.19
466.32	1078.92
466.68	1081.49
467.04	1081.26
467.40	1081.82
467.77	1079.38
468.13	1079.29
468.49	1076.72
468.85	1080.63
469.22	1079.06
469.58	1081.96
469.94	1080.13
470.30	1082.54
470.66	1083.50
471.03	1085.94
471.39	1083.36
471.75	1088.33
472.11	1089.17
472.47	1084.14
472.84	1085.47
473.20	1082.71
473.56	1079.83
473.92	1078.17
474.28	1078.57
474.65	1075.20
475.01	1077.23
475.37	1079.50
475.73	1079.88
476.09	1080.63
476.45	1078.94
476.81	1079.90
477.18	1079.15
477.54	1083.25
477.90	1084.30
478.26	1086.27
478.62	1085.61
478.98	1084.11
479.34	1080.86
479.71	1080.46
480.07	1080.93
480.43	1082.17
480.79	1084.46
481.15	1084.30
481.51	1083.39
481.87	1082.69
482.23	1083.67
482.59	1083.57
482.96	1082.01
483.32	1081.94
483.68	1081.19
484.04	1078.87
484.40	1078.85
484.76	1081.42
485.12	1083.29
485.48	1083.62
485.84	1084.91
486.20	1083.95
486.56	1081.94
486.92	1079.50
487.28	1082.15
487.64	1081.07
488.00	1081.94
488.37	1083.50
488.73	1082.59
489.09	1079.06
489.45	1079.67
489.81	1079.88
490.17	1076.18
490.53	1077.84
490.89	1078.40
491.25	1078.36
491.61	1076.44
491.97	1077.79
492.33	1078.96
492.69	1080.51
493.05	1083.88
493.41	1084.65
493.77	1084.72
494.13	1086.13
494.49	1084.39
494.85	1082.80
495.21	1084.53
495.57	1086.71
495.93	1084.42
496.29	1086.20
496.64	1086.13
497.00	1083.55
497.36	1082.15
497.72	1081.56
498.08	1082.19
498.44	1083.62
498.80	1082.59
499.16	1082.10
499.52	1080.04
499.88	1079.92
500.24	1075.76
500.60	1074.52
500.96	1076.53
501.32	1079.24
501.68	1080.11
502.03	1080.70
502.39	1083.39
502.75	1083.60
503.11	1085.33
503.47	1083.50
503.83	1083.69
504.19	1082.38
504.55	1083.36
504.91	1079.99
505.26	1078.99
505.62	1077.16
505.98	1081.23
506.34	1079.60
506.70	1080.67
507.06	1081.30
507.42	1079.29
507.78	1076.15
508.13	1077.72
508.49	1077.65
508.85	1076.83
509.21	1080.23
509.57	1079.20
509.93	1077.61
510.28	1076.81
510.64	1077.51
511.00	1078.52
511.36	1080.86
511.72	1082.40
512.07	1084.51
512.43	1084.67
512.79	1082.83
513.15	1084.51
513.51	1082.40
513.86	1083.95
514.22	1083.06
514.58	1085.94
514.94	1084.70
515.30	1085.99
515.65	1084.67
516.01	1085.40
516.37	1084.23
516.73	1083.06
517.08	1082.36
517.44	1083.32
517.80	1082.87
518.16	1083.76
518.51	1085.66
518.87	1087.02
519.23	1085.33
519.59	1087.23
519.94	1085.77
520.30	1084.70
520.66	1083.41
521.01	1082.59
521.37	1078.61
521.73	1077.16
522.09	1074.26
522.44	1070.94
522.80	1071.43
523.16	1074.61
523.51	1074.98
523.87	1079.43
524.23	1081.28
524.58	1083.11
524.94	1081.47
525.30	1082.47
525.65	1080.86
526.01	1081.87
526.37	1081.49
526.72	1084.60
527.08	1084.53
527.44	1085.77
527.79	1084.58
528.15	1085.73
528.51	1080.41
528.86	1080.46
529.22	1077.65
529.58	1078.89
529.93	1078.66
530.29	1082.08
530.65	1082.52
531.00	1081.21
531.36	1081.75
531.71	1083.74
532.07	1085.59
532.43	1087.46
532.78	1088.58
533.14	1086.29
533.49	1084.00
533.85	1083.81
534.21	1081.35
534.56	1084.25
534.92	1084.89
535.27	1086.06
535.63	1086.71
535.98	1088.16
536.34	1086.48
536.69	1086.34
537.05	1083.36
537.41	1081.05
537.76	1079.29
538.12	1077.72
538.47	1080.93
538.83	1081.12
539.18	1082.15
539.54	1084.21
539.89	1088.12
540.25	1084.30
540.60	1084.86
540.96	1084.14
541.31	1085.87
541.67	1086.29
542.02	1089.40
542.38	1090.83
542.73	1092.59
543.09	1088.77
543.44	1085.45
543.80	1083.39
544.15	1082.83
544.51	1082.71
544.86	1086.41
545.22	1088.79
545.57	1090.71
545.93	1089.87
546.28	1088.35
546.64	1087.46
546.99	1085.96
547.35	1087.11
547.70	1088.79
548.05	1091.11
548.41	1088.79
548.76	1088.86
549.12	1088.14
549.47	1086.01
549.83	1084.23
550.18	1087.02
550.53	1085.82
550.89	1082.01
551.24	1083.55
551.60	1086.01
551.95	1083.22
552.30	1086.29
552.66	1088.63
553.01	1085.54
553.37	1079.27
553.72	1080.13
554.07	1078.52
554.43	1077.07
554.78	1079.34
555.13	1084.25
555.49	1084.30
555.84	1084.28
556.19	1084.30
556.55	1082.03
556.90	1081.49
557.26	1082.05
557.61	1080.91
557.96	1081.21
558.32	1081.26
558.67	1079.01
559.02	1078.85
559.37	1078.87
559.73	1080.77
560.08	1081.94
560.43	1080.81
560.79	1079.15
561.14	1081.89
561.49	1080.63
561.85	1084.07
562.20	1088.63
562.55	1088.00
562.90	1087.86
563.26	1087.32
563.61	1084.51
563.96	1083.55
564.32	1085.14
564.67	1082.08
565.02	1082.45
565.37	1083.76
565.73	1083.15
566.08	1081.21
566.43	1080.41
566.78	1080.95
567.14	1083.43
567.49	1086.48
567.84	1088.28
568.19	1091.34
568.54	1092.82
568.90	1087.37
569.25	1083.46
569.60	1083.25
569.95	1081.73
570.31	1079.01
570.66	1080.48
571.01	1081.80
571.36	1084.18
571.71	1083.67
572.06	1081.91
572.42	1082.15
572.77	1082.08
573.12	1078.43
573.47	1079.27
573.82	1080.51
574.18	1080.46
574.53	1079.48
574.88	1082.61
575.23	1080.60
575.58	1084.58
575.93	1088.86
576.28	1091.02
576.64	1086.31
576.99	1090.03
577.34	1088.49
577.69	1088.65
578.04	1087.37
578.39	1089.99
578.74	1087.13
579.09	1085.91
579.44	1082.54
579.80	1079.27
580.15	1079.88
580.50	1080.32
580.85	1084.07
581.20	1083.55
581.55	1085.75
581.90	1086.22
582.25	1085.12
582.60	1084.46
582.95	1085.54
583.30	1086.38
583.65	1086.80
584.00	1089.47
584.35	1085.52
584.71	1083.46
585.06	1085.07
585.41	1083.95
585.76	1082.59
586.11	1083.64
586.46	1083.86
586.81	1082.85
587.16	1081.91
587.51	1083.11
587.86	1084.23
588.21	1083.25
588.56	1084.93
588.91	1089.17
589.26	1088.07
589.61	1087.55
589.96	1088.37
590.31	1084.65
590.66	1082.05
591.01	1084.28
591.36	1083.67
591.71	1086.48
592.06	1089.94
592.41	1087.25
592.76	1086.90
593.10	1087.79
593.45	1088.04
593.80	1085.10
594.15	1084.53
594.50	1083.04
594.85	1082.26
595.20	1080.11
595.55	1079.74
595.90	1083.22
596.25	1085.42
596.60	1089.07
596.95	1088.47
597.30	1089.89
597.64	1139.68
597.99	1142.28
598.34	1137.45
598.69	1137.22
599.04	1138.23
599.39	1086.48
599.74	1082.22
600.09	1084.28
600.44	1084.37
600.78	1082.83
601.13	1083.39
601.48	1083.53
601.83	1082.05
602.18	1086.94
602.53	1087.81
602.88	1088.44
603.22	1088.30
603.57	1089.92
603.92	1084.14
604.27	1082.17
604.62	1081.84
604.97	1081.47
605.31	1080.06
605.66	1081.00
606.01	1080.91
606.36	1079.67
606.71	1080.02
607.05	1080.20
607.40	1080.13
607.75	1083.13
608.10	1084.02
608.44	1085.54
608.79	1085.82
609.14	1087.30
609.49	1084.53
609.84	1087.48
610.18	1089.22
610.53	1090.81
610.88	1093.29
611.23	1100.19
611.57	1099.91
611.92	1101.62
612.27	1100.31
612.62	1098.27
612.96	1094.06
613.31	1092.05
613.66	1086.90
614.00	1088.16
614.35	1086.24
614.70	1085.45
615.05	1085.82
615.39	1084.79
615.74	1085.10
616.09	1085.80
616.43	1086.31
616.78	1084.81
617.13	1085.42
617.47	1083.81
617.82	1082.80
618.17	1082.99
618.51	1085.03
618.86	1087.55
619.21	1087.62
619.55	1087.34
619.90	1086.83
620.25	1086.20
620.59	1085.84
620.94	1086.17
621.29	1087.30
621.63	1087.04
621.98	1084.79
622.32	1082.15
622.67	1081.44
623.02	1081.66
623.36	1079.85
623.71	1081.96
624.05	1082.38
624.40	1085.75
624.75	1086.06
625.09	1087.76
625.44	1088.68
625.78	1089.71
626.13	1085.56
626.48	1087.13
626.82	1086.34
627.17	1084.84
627.51	1084.72
627.86	1086.80
628.20	1084.93
628.55	1084.56
628.89	1085.33
629.24	1081.87
629.58	1081.75
629.93	1081.82
630.28	1082.54
630.62	1085.17
630.97	1087.60
631.31	1085.56
631.66	1086.94
632.00	1085.66
632.35	1083.74
632.69	1087.60
633.04	1089.64
633.38	1087.65
633.73	1090.01
634.07	1087.55
634.42	1084.21
634.76	1083.50
635.11	1081.73
635.45	1078.73
635.79	1080.79
636.14	1079.01
636.48	1077.00
636.83	1079.69
637.17	1079.71
637.52	1078.45
637.86	1080.18
638.21	1079.46
638.55	1080.51
638.89	1082.05
639.24	1084.04
639.58	1082.99
639.93	1084.44
640.27	1080.48
640.61	1077.84
640.96	1078.14
641.30	1078.17
641.65	1078.96
641.99	1081.87
642.33	1084.28
642.68	1082.12
643.02	1084.49
643.37	1084.96
643.71	1084.39
644.05	1085.14
644.40	1086.71
644.74	1084.02
645.08	1082.59
645.43	1082.03
645.77	1079.20
646.11	1080.37
646.46	1080.67
646.80	1082.87
647.14	1085.00
647.49	1085.66
647.83	1082.71
648.17	1083.13
648.52	1084.56
648.86	1082.87
649.20	1087.44
649.55	1087.58
649.89	1088.89
650.23	1086.55
650.57	1083.95
650.92	1081.66
651.26	1083.57
651.60	1086.99
651.95	1083.20
652.29	1087.95
652.63	1086.31
652.97	1082.90
653.32	1079.43
653.66	1085.49
654.00	1083.06
654.34	1081.56
654.69	1082.45
655.03	1083.43
655.37	1081.96
655.71	1081.58
656.05	1081.30
656.40	1081.87
656.74	1081.98
657.08	1082.22
657.42	1084.35
657.76	1088.02
658.11	1088.56
658.45	1088.65
658.79	1086.85
659.13	1086.57
659.47	1086.08
659.82	1086.13
660.16	1083.15
660.50	1083.55
660.84	1082.76
661.18	1084.18
661.52	1083.06
661.87	1084.02
662.21	1082.08
662.55	1082.29
662.89	1078.54
663.23	1079.22
663.57	1081.21
663.91	1084.84
664.25	1080.20
664.60	1082.66
664.94	1081.73
665.28	1081.47
665.62	1079.92
665.96	1085.91
666.30	1084.44
666.64	1085.99
666.98	1085.75
667.32	1086.08
667.66	1086.27
668.01	1086.36
668.35	1085.94
668.69	1083.25
669.03	1081.19
669.37	1080.20
669.71	1080.30
670.05	1079.34
670.39	1080.95
670.73	1083.39
671.07	1081.12
671.41	1081.49
671.75	1080.72
672.09	1078.17
672.43	1077.42
672.77	1077.35
673.11	1075.94
673.45	1077.16
673.79	1078.05
674.13	1076.60
674.47	1075.13
674.81	1076.06
675.15	1076.48
675.49	1077.07
675.83	1077.98
676.17	1081.19
676.51	1084.53
676.85	1085.80
677.19	1085.38
677.53	1085.47
677.87	1086.57
678.21	1085.54
678.55	1083.34
678.89	1082.90
679.23	1081.91
679.57	1080.63
679.90	1077.89
680.24	1078.17
680.58	1080.84
680.92	1081.80
681.26	1079.08
681.60	1078.68
681.94	1081.00
682.28	1081.37
682.62	1081.94
682.96	1086.08
683.29	1084.70
683.63	1086.10
683.97	1084.21
684.31	1082.66
684.65	1081.80
684.99	1084.25
685.33	1081.07
685.67	1081.21
686.00	1083.06
686.34	1082.78
686.68	1079.34
687.02	1080.16
687.36	1081.54
687.70	1079.99
688.03	1081.07
688.37	1083.43
688.71	1082.45
689.05	1083.15
689.39	1081.80
689.72	1080.41
690.06	1079.36
690.40	1079.20
690.74	1075.36
691.08	1077.51
691.41	1076.48
691.75	1079.29
692.09	1082.54
692.43	1085.14
692.76	1087.97
693.10	1087.37
693.44	1087.72
693.78	1085.84
694.11	1085.33
694.45	1082.08
694.79	1083.27
695.13	1081.40
695.46	1079.41
695.80	1077.65
696.14	1080.09
696.48	1081.82
696.81	1086.55
697.15	1086.31
697.49	1088.47
697.82	1086.06
698.16	1084.18
698.50	1081.58
698.83	1084.14
699.17	1083.04
699.51	1082.52
699.84	1081.26
700.18	1081.07
700.52	1079.53
700.85	1077.72
701.19	1076.93
701.53	1076.62
701.86	1076.04
702.20	1077.96
702.54	1080.23
702.87	1082.83
703.21	1084.58
703.55	1086.08
703.88	1083.22
704.22	1083.41
704.55	1082.57
704.89	1083.81
705.23	1085.61
705.56	1086.31
705.90	1086.43
706.23	1085.33
706.57	1083.71
706.91	1082.43
707.24	1082.71
707.58	1084.04
707.91	1087.34
708.25	1087.62
708.58	1084.25
708.92	1083.93
709.26	1080.48
709.59	1077.98
709.93	1077.82
710.26	1080.23
710.60	1082.99
710.93	1087.16
711.27	1085.91
711.60	1086.94
711.94	1084.72
712.27	1082.61
712.61	1078.85
712.94	1081.98
713.28	1081.96
713.61	1083.64
713.95	1084.23
714.28	1087.06
714.62	1086.69
714.95	1084.09
715.29	1080.74
715.62	1081.33
715.96	1077.89
716.29	1074.21
716.63	1077.28
716.96	1080.30
717.29	1080.72
717.63	1083.04
717.96	1085.26
718.30	1082.50
718.63	1080.93
718.97	1078.57
719.30	1078.99
719.63	1080.53
719.97	1081.05
720.30	1082.33
720.64	1084.44
720.97	1088.58
721.30	1084.25
721.64	1087.18
721.97	1088.54
722.31	1087.32
722.64	1083.20
722.97	1086.55
723.31	1081.77
723.64	1078.10
723.97	1078.54
724.31	1075.90
724.64	1076.41
724.98	1079.43
725.31	1082.12
725.64	1081.84
725.98	1086.90
726.31	1087.51
726.64	1087.27
726.97	1085.47
727.31	1084.86
727.64	1080.44
727.97	1080.98
728.31	1081.58
728.64	1082.10
728.97	1083.69
729.31	1085.77
729.64	1083.81
729.97	1081.82
730.30	1082.15
730.64	1081.30
730.97	1080.25
731.30	1082.22
731.63	1083.34
731.97	1083.74
732.30	1084.65
732.63	1083.79
732.96	1082.22
733.30	1082.03
733.63	1082.71
733.96	1079.90
734.29	1078.89
734.63	1075.69
734.96	1075.94
735.29	1072.20
735.62	1074.17
735.95	1077.11
736.29	1080.74
736.62	1082.43
736.95	1086.13
737.28	1087.46
737.61	1088.63
737.94	1087.88
738.28	1089.31
738.61	1089.71
738.94	1089.22
739.27	1086.08
739.60	1086.76
739.93	1083.34
740.27	1084.04
740.60	1082.12
740.93	1083.83
741.26	1082.87
741.59	1084.25
741.92	1082.43
742.25	1084.25
742.58	1081.75
742.91	1083.55
743.25	1082.90
743.58	1078.64
743.91	1077.56
744.24	1079.81
744.57	1079.17
744.90	1078.19
745.23	1082.12
745.56	1082.15
745.89	1079.67
746.22	1080.11
746.55	1080.48
746.88	1079.17
747.21	1081.91
747.54	1082.38
747.87	1078.45
748.20	1078.10
748.53	1080.93
748.87	1078.00
749.20	1080.23
749.53	1084.35
749.86	1085.94
750.19	1086.17
750.52	1087.34
750.85	1087.95
751.18	1087.76
751.51	1086.38
751.84	1084.96
752.16	1080.53
752.49	1080.41
752.82	1076.53
753.15	1078.59
753.48	1077.91
753.81	1079.53
754.14	1076.55
754.47	1078.14
754.80	1076.23
755.13	1076.97
755.46	1079.69
755.79	1085.47
756.12	1086.71
756.45	1086.20
756.78	1085.45
757.11	1084.46
757.43	1083.76
757.76	1084.07
758.09	1084.42
758.42	1087.37
758.75	1087.39
759.08	1082.94
759.41	1081.05
759.74	1080.88
760.07	1079.50
760.39	1082.33
760.72	1084.37
761.05	1084.00
761.38	1083.27
761.71	1081.77
762.04	1079.17
762.36	1079.24
762.69	1081.87
763.02	1084.07
763.35	1085.49
763.68	1083.34
764.01	1083.32
764.33	1082.69
764.66	1084.86
764.99	1082.47
765.32	1082.38
765.65	1080.34
765.97	1080.44
766.30	1079.08
