SpectraSuite Data File
++++++++++++++++++++++++++++++++++++
Date: Mon Aug 26 10:26:47 PDT 2019
User: corrico
Dark Spectrum Present: No
Reference Spectrum Present: No
Number of Sampled Component Spectra: 1
Spectrometers: USB2+H06089
Integration Time (usec): 10000 (USB2+H06089)
Spectra Averaged: 20 (USB2+H06089)
Boxcar Smoothing: 2 (USB2+H06089)
Correct for Electrical Dark: No (USB2+H06089)
Strobe/Lamp Enabled: No (USB2+H06089)
Correct for Detector Non-linearity: No (USB2+H06089)
Correct for Stray Light: No (USB2+H06089)
Number of Pixels in Processed Spectrum: 2048
>>>>>Begin Processed Spectral Data<<<<<
339.70	1026.44
340.07	1026.44
340.45	994.82
340.82	974.74
341.19	953.04
341.57	928.84
341.94	917.23
342.31	907.59
342.69	903.35
343.06	902.07
343.43	901.97
343.81	902.74
344.18	910.26
344.55	912.88
344.93	917.40
345.30	922.03
345.67	930.15
346.04	935.21
346.42	943.49
346.79	952.27
347.16	963.83
347.54	971.72
347.91	981.08
348.28	993.14
348.65	1002.31
349.03	1009.15
349.40	1016.87
349.77	1022.37
350.14	1027.96
350.52	1030.09
350.89	1039.53
351.26	1048.51
351.63	1058.46
352.01	1061.41
352.38	1068.90
352.75	1069.70
353.12	1071.92
353.50	1074.26
353.87	1080.30
354.24	1083.22
354.61	1088.12
354.98	1088.93
355.36	1094.11
355.73	1095.77
356.10	1100.73
356.47	1099.00
356.84	1099.12
357.22	1091.88
357.59	1091.81
357.96	1088.63
358.33	1089.57
358.70	1091.23
359.08	1095.00
359.45	1092.52
359.82	1090.99
360.19	1088.82
360.56	1089.40
360.94	1085.99
361.31	1087.97
361.68	1088.07
362.05	1087.20
362.42	1084.35
362.79	1085.45
363.16	1080.41
363.54	1078.00
363.91	1080.48
364.28	1079.27
364.65	1082.45
365.02	1084.81
365.39	1086.01
365.76	1081.33
366.14	1080.77
366.51	1077.28
366.88	1076.15
367.25	1073.53
367.62	1077.86
367.99	1081.09
368.36	1077.25
368.73	1077.68
369.10	1080.34
369.48	1079.60
369.85	1078.14
370.22	1080.77
370.59	1082.10
370.96	1080.91
371.33	1077.93
371.70	1077.47
372.07	1080.56
372.44	1080.63
372.81	1083.60
373.18	1086.94
373.55	1087.06
373.93	1086.17
374.30	1087.02
374.67	1083.57
375.04	1081.28
375.41	1079.31
375.78	1077.30
376.15	1075.97
376.52	1075.01
376.89	1078.07
377.26	1082.71
377.63	1086.29
378.00	1086.66
378.37	1091.23
378.74	1089.61
379.11	1086.31
379.48	1083.06
379.85	1082.33
380.22	1079.67
380.59	1080.48
380.96	1079.55
381.33	1080.98
381.70	1083.41
382.07	1084.39
382.44	1082.73
382.81	1085.49
383.18	1085.40
383.55	1083.79
383.92	1085.68
384.29	1087.30
384.66	1088.75
385.03	1089.43
385.40	1086.59
385.77	1087.69
386.14	1088.72
386.51	1088.49
386.88	1090.83
387.25	1092.35
387.62	1088.42
387.99	1088.82
388.36	1086.76
388.73	1083.32
389.10	1084.91
389.46	1086.85
389.83	1087.55
390.20	1087.95
390.57	1089.47
390.94	1087.97
391.31	1088.23
391.68	1089.24
392.05	1091.16
392.42	1088.93
392.79	1090.32
393.16	1088.33
393.53	1086.45
393.89	1083.57
394.26	1085.42
394.63	1085.73
395.00	1084.70
395.37	1081.54
395.74	1083.36
396.11	1082.31
396.48	1082.08
396.84	1085.80
397.21	1088.19
397.58	1090.90
397.95	1092.61
398.32	1091.49
398.69	1090.85
399.06	1090.95
399.42	1088.14
399.79	1087.81
400.16	1088.56
400.53	1088.68
400.90	1089.61
401.27	1091.37
401.64	1090.32
402.00	1088.42
402.37	1089.38
402.74	1090.10
403.11	1087.90
403.48	1090.83
403.84	1096.28
404.21	1095.96
404.58	1093.40
404.95	1095.25
405.32	1095.04
405.68	1091.91
406.05	1089.99
406.42	1094.11
406.79	1093.71
407.16	1094.46
407.52	1094.39
407.89	1098.18
408.26	1095.86
408.63	1096.87
408.99	1094.83
409.36	1098.76
409.73	1098.81
410.10	1098.95
410.47	1098.20
410.83	1096.96
411.20	1095.98
411.57	1097.20
411.94	1097.06
412.30	1095.49
412.67	1098.39
413.04	1098.83
413.40	1096.99
413.77	1099.37
414.14	1102.04
414.51	1103.21
414.87	1101.88
415.24	1099.65
415.61	1098.81
415.97	1100.59
416.34	1100.94
416.71	1100.87
417.08	1103.89
417.44	1105.06
417.81	1107.87
418.18	1107.47
418.54	1107.21
418.91	1105.72
419.28	1106.82
419.64	1103.75
420.01	1103.52
420.38	1108.01
420.74	1112.85
421.11	1113.44
421.48	1113.86
421.84	1116.06
422.21	1114.05
422.58	1112.15
422.94	1111.03
423.31	1108.69
423.68	1108.34
424.04	1110.16
424.41	1109.32
424.77	1108.92
425.14	1110.87
425.51	1111.78
425.87	1109.04
426.24	1110.37
426.61	1110.77
426.97	1113.46
427.34	1113.14
427.70	1114.56
428.07	1110.96
428.44	1110.91
428.80	1108.22
429.17	1107.96
429.53	1109.98
429.90	1110.75
430.27	1112.81
430.63	1112.81
431.00	1111.01
431.36	1109.95
431.73	1111.03
432.09	1112.27
432.46	1115.27
432.83	1120.34
433.19	1119.57
433.56	1122.29
433.92	1117.79
434.29	1119.53
434.65	1114.45
435.02	1113.63
435.38	1111.59
435.75	1113.93
436.11	1108.52
436.48	1110.16
436.84	1111.33
437.21	1113.39
437.57	1111.47
437.94	1112.08
438.30	1110.47
438.67	1111.71
439.03	1109.16
439.40	1112.60
439.76	1115.48
440.13	1117.37
440.49	1112.88
440.86	1114.66
441.22	1111.99
441.59	1108.71
441.95	1109.74
442.32	1113.09
442.68	1114.31
443.05	1113.74
443.41	1116.04
443.78	1114.38
444.14	1113.21
444.51	1108.95
444.87	1113.21
445.24	1112.74
445.60	1114.89
445.96	1114.49
446.33	1116.06
446.69	1113.14
447.06	1113.23
447.42	1109.44
447.79	1109.30
448.15	1107.71
448.51	1108.27
448.88	1106.86
449.24	1109.09
449.61	1109.27
449.97	1108.97
450.33	1108.13
450.70	1110.42
451.06	1107.64
451.43	1109.41
451.79	1112.78
452.15	1114.52
452.52	1111.08
452.88	1112.53
453.24	1110.30
453.61	1111.03
453.97	1111.94
454.34	1114.89
454.70	1115.10
455.06	1117.86
455.43	1115.78
455.79	1113.77
456.15	1111.03
456.52	1110.94
456.88	1110.35
457.24	1110.00
457.61	1110.77
457.97	1111.71
458.33	1111.80
458.70	1112.22
459.06	1112.69
459.42	1114.77
459.79	1116.55
460.15	1118.00
460.51	1119.76
460.88	1120.95
461.24	1119.43
461.60	1119.97
461.96	1121.56
462.33	1117.86
462.69	1118.54
463.05	1120.27
463.42	1121.37
463.78	1118.61
464.14	1121.75
464.50	1123.36
464.87	1123.93
465.23	1123.60
465.59	1127.11
465.95	1130.53
466.32	1130.06
466.68	1131.44
467.04	1134.13
467.40	1132.98
467.77	1133.17
468.13	1137.57
468.49	1138.09
468.85	1138.69
469.22	1143.33
469.58	1141.69
469.94	1138.23
470.30	1140.36
470.66	1138.97
471.03	1138.69
471.39	1142.04
471.75	1147.59
472.11	1147.31
472.47	1149.55
472.84	1152.97
473.20	1154.73
473.56	1157.30
473.92	1159.60
474.28	1164.39
474.65	1167.76
475.01	1171.11
475.37	1172.89
475.73	1177.22
476.09	1184.62
476.45	1189.27
476.81	1194.68
477.18	1204.44
477.54	1210.45
477.90	1209.71
478.26	1211.30
478.62	1219.00
478.98	1218.88
479.34	1226.63
479.71	1240.72
480.07	1253.80
480.43	1259.70
480.79	1273.27
481.15	1283.78
481.51	1292.70
481.87	1299.25
482.23	1311.92
482.59	1321.89
482.96	1329.92
483.32	1341.88
483.68	1358.17
484.04	1374.06
484.40	1387.94
484.76	1410.43
485.12	1426.11
485.48	1444.88
485.84	1462.02
486.20	1486.17
486.56	1505.71
486.92	1532.61
487.28	1558.87
487.64	1586.58
488.00	1610.12
488.37	1636.22
488.73	1665.69
489.09	1694.69
489.45	1730.08
489.81	1768.13
490.17	1809.47
490.53	1843.66
490.89	1887.64
491.25	1928.81
491.61	1974.10
491.97	2018.99
492.33	2077.06
492.69	2126.35
493.05	2177.12
493.41	2229.64
493.77	2288.15
494.13	2344.33
494.49	2411.06
494.85	2487.17
495.21	2568.36
495.57	2646.58
495.93	2734.35
496.29	2819.08
496.64	2905.61
497.00	2993.12
497.36	3099.31
497.72	3198.95
498.08	3309.17
498.44	3423.43
498.80	3551.01
499.16	3676.56
499.52	3811.61
499.88	3958.15
500.24	4110.36
500.60	4256.22
500.96	4411.07
501.32	4580.50
501.68	4746.11
502.03	4930.71
502.39	5141.36
502.75	5356.95
503.11	5579.98
503.47	5806.82
503.83	6054.29
504.19	6294.68
504.55	6558.25
504.91	6836.68
505.26	7121.59
505.62	7409.32
505.98	7732.54
506.34	8070.17
506.70	8413.15
507.06	8806.99
507.42	9205.61
507.78	9597.98
508.13	9997.20
508.49	10440.01
508.85	10889.81
509.21	11366.84
509.57	11899.42
509.93	12465.06
510.28	13042.54
510.64	13643.05
511.00	14249.84
511.36	14823.46
511.72	15381.32
512.07	16001.80
512.43	16611.30
512.79	17270.72
513.15	18000.26
513.51	18766.56
513.86	19517.73
514.22	20346.18
514.58	21160.48
514.94	21967.57
515.30	22807.70
515.65	23596.77
516.01	24418.11
516.37	25240.43
516.73	26023.46
517.08	26872.56
517.44	27729.38
517.80	28518.30
518.16	29354.53
518.51	30171.10
518.87	30892.50
519.23	31724.77
519.59	32594.53
519.94	33419.92
520.30	34307.81
520.66	35104.10
521.01	35912.92
521.37	36593.85
521.73	37209.49
522.09	37763.02
522.44	38393.70
522.80	38772.89
523.16	39123.60
523.51	39390.65
523.87	39710.02
524.23	39953.93
524.58	40259.72
524.94	40642.54
525.30	40997.03
525.65	41176.69
526.01	41230.57
526.37	41221.84
526.72	41156.42
527.08	41010.21
527.44	40830.41
527.79	40670.11
528.15	40548.05
528.51	40301.10
528.86	40119.90
529.22	39884.86
529.58	39657.45
529.93	39287.76
530.29	38872.51
530.65	38492.26
531.00	38143.31
531.36	37681.36
531.71	37227.34
532.07	36772.91
532.43	36189.48
532.78	35559.10
533.14	35019.91
533.49	34453.48
533.85	33840.75
534.21	33232.61
534.56	32681.74
534.92	32074.07
535.27	31448.54
535.63	30840.75
535.98	30213.04
536.34	29573.58
536.69	28936.00
537.05	28337.08
537.41	27816.68
537.76	27354.73
538.12	26816.13
538.47	26334.30
538.83	25906.22
539.18	25453.65
539.54	24961.67
539.89	24514.86
540.25	23996.72
540.60	23514.68
540.96	23012.80
541.31	22537.42
541.67	22108.14
542.02	21730.77
542.38	21281.30
542.73	20836.71
543.09	20446.31
543.44	20092.49
543.80	19753.00
544.15	19370.93
544.51	19040.42
544.86	18721.85
545.22	18352.54
545.57	17987.06
545.93	17642.26
546.28	17335.86
546.64	17008.65
546.99	16685.23
547.35	16352.46
547.70	16073.58
548.05	15757.35
548.41	15450.09
548.76	15153.12
549.12	14867.01
549.47	14586.22
549.83	14330.44
550.18	14017.21
550.53	13689.35
550.89	13414.31
551.24	13130.31
551.60	12830.98
551.95	12585.29
552.30	12359.57
552.66	12117.94
553.01	11869.14
553.37	11594.45
553.72	11319.37
554.07	11054.94
554.43	10772.36
554.78	10488.32
555.13	10235.63
555.49	10013.49
555.84	9829.97
556.19	9642.12
556.55	9454.78
556.90	9270.63
557.26	9056.26
557.61	8822.39
557.96	8572.24
558.32	8373.64
558.67	8166.50
559.02	7960.00
559.37	7768.78
559.73	7628.88
560.08	7466.71
560.43	7321.06
560.79	7196.02
561.14	7049.90
561.49	6880.61
561.85	6726.40
562.20	6569.56
562.55	6429.66
562.90	6302.95
563.26	6184.80
563.61	6068.49
563.96	5961.02
564.32	5836.34
564.67	5708.50
565.02	5594.54
565.37	5479.15
565.73	5363.76
566.08	5264.12
566.43	5160.34
566.78	5053.10
567.14	4949.74
567.49	4842.73
567.84	4740.22
568.19	4636.23
568.54	4545.58
568.90	4453.03
569.25	4381.32
569.60	4306.96
569.95	4244.91
570.31	4165.38
570.66	4089.64
571.01	3999.44
571.36	3907.90
571.71	3829.33
572.06	3760.59
572.42	3695.75
572.77	3645.24
573.12	3591.65
573.47	3527.73
573.82	3464.95
574.18	3401.80
574.53	3331.31
574.88	3273.82
575.23	3228.07
575.58	3182.47
575.93	3136.55
576.28	3087.54
576.64	3029.40
576.99	2967.78
577.34	2909.08
577.69	2850.40
578.04	2798.37
578.39	2754.83
578.74	2716.12
579.09	2677.08
579.44	2638.77
579.80	2602.70
580.15	2562.61
580.50	2527.59
580.85	2493.00
581.20	2460.58
581.55	2428.52
581.90	2401.81
582.25	2362.42
582.60	2321.88
582.95	2287.17
583.30	2244.20
583.65	2208.83
584.00	2173.44
584.35	2148.12
584.71	2118.00
585.06	2095.51
585.41	2062.67
585.76	2041.25
586.11	2011.60
586.46	1984.82
586.81	1961.11
587.16	1941.97
587.51	1922.38
587.86	1903.96
588.21	1885.21
588.56	1863.65
588.91	1846.40
589.26	1823.14
589.61	1804.04
589.96	1786.04
590.31	1772.18
590.66	1753.11
591.01	1738.88
591.36	1721.60
591.71	1703.47
592.06	1684.79
592.41	1667.42
592.76	1652.68
593.10	1638.16
593.45	1623.33
593.80	1608.77
594.15	1593.37
594.50	1580.05
594.85	1566.87
595.20	1560.83
595.55	1551.56
595.90	1546.56
596.25	1536.84
596.60	1528.07
596.95	1514.49
597.30	1502.81
597.64	1543.04
597.99	1531.83
598.34	1521.37
598.69	1511.10
599.04	1503.49
599.39	1442.36
599.74	1433.95
600.09	1426.46
600.44	1421.10
600.78	1413.12
601.13	1406.71
601.48	1400.11
601.83	1394.05
602.18	1387.45
602.53	1380.85
602.88	1372.40
603.22	1365.21
603.57	1355.36
603.92	1341.74
604.27	1331.30
604.62	1326.08
604.97	1318.10
605.31	1316.01
605.66	1316.25
606.01	1313.60
606.36	1306.98
606.71	1301.90
607.05	1293.92
607.40	1290.22
607.75	1287.48
608.10	1285.35
608.44	1284.88
608.79	1282.17
609.14	1276.74
609.49	1273.27
609.84	1269.18
610.18	1268.24
610.53	1266.39
610.88	1263.56
611.23	1261.01
611.57	1258.83
611.92	1253.52
612.27	1249.07
612.62	1243.69
612.96	1238.42
613.31	1233.56
613.66	1230.09
614.00	1225.04
614.35	1223.05
614.70	1219.89
615.05	1216.87
615.39	1208.89
615.74	1205.05
616.09	1202.59
616.43	1197.44
616.78	1194.14
617.13	1196.36
617.47	1193.95
617.82	1191.54
618.17	1191.08
618.51	1189.55
618.86	1185.27
619.21	1186.30
619.55	1184.40
619.90	1182.13
620.25	1177.41
620.59	1173.94
620.94	1169.00
621.29	1167.08
621.63	1165.31
621.98	1166.41
622.32	1166.03
622.67	1165.73
623.02	1164.77
623.36	1162.22
623.71	1158.14
624.05	1159.24
624.40	1157.14
624.75	1152.90
625.09	1151.94
625.44	1151.68
625.78	1144.78
626.13	1144.69
626.48	1144.40
626.82	1142.18
627.17	1138.79
627.51	1138.72
627.86	1134.22
628.20	1130.60
628.55	1131.72
628.89	1132.54
629.24	1133.38
629.58	1135.21
629.93	1137.31
630.28	1135.60
630.62	1134.97
630.97	1134.81
631.31	1132.91
631.66	1130.60
632.00	1127.62
632.35	1124.49
632.69	1122.36
633.04	1122.17
633.38	1124.96
633.73	1128.00
634.07	1132.07
634.42	1130.29
634.76	1130.10
635.11	1124.91
635.45	1120.11
635.79	1116.37
636.14	1118.47
636.48	1117.25
636.83	1116.58
637.17	1116.13
637.52	1115.52
637.86	1110.91
638.21	1110.21
638.55	1107.14
638.89	1106.54
639.24	1107.40
639.58	1109.62
639.93	1107.78
640.27	1109.79
640.61	1107.89
640.96	1107.28
641.30	1105.20
641.65	1104.83
641.99	1106.58
642.33	1108.48
642.68	1109.48
643.02	1110.58
643.37	1110.12
643.71	1105.34
644.05	1104.99
644.40	1103.28
644.74	1102.06
645.08	1104.05
645.43	1105.81
645.77	1106.00
646.11	1103.82
646.46	1102.06
646.80	1102.56
647.14	1104.12
647.49	1105.72
647.83	1108.69
648.17	1111.19
648.52	1107.07
648.86	1105.86
649.20	1102.65
649.55	1100.61
649.89	1098.53
650.23	1102.06
650.57	1103.96
650.92	1102.32
651.26	1104.29
651.60	1103.84
651.95	1102.23
652.29	1099.07
652.63	1102.86
652.97	1097.24
653.32	1096.61
653.66	1096.45
654.00	1101.22
654.34	1102.11
654.69	1104.64
655.03	1106.56
655.37	1106.75
655.71	1103.70
656.05	1100.82
656.40	1100.40
656.74	1099.54
657.08	1097.31
657.42	1097.13
657.76	1095.00
658.11	1095.82
658.45	1094.43
658.79	1093.57
659.13	1094.25
659.47	1097.55
659.82	1095.63
660.16	1097.48
660.50	1098.88
660.84	1098.18
661.18	1093.36
661.52	1095.51
661.87	1094.18
662.21	1093.40
662.55	1092.47
662.89	1092.40
663.23	1092.23
663.57	1092.12
663.91	1090.78
664.25	1092.87
664.60	1096.63
664.94	1095.32
665.28	1094.76
665.62	1097.36
665.96	1095.28
666.30	1095.84
666.64	1095.28
666.98	1094.36
667.32	1092.91
667.66	1092.52
668.01	1090.97
668.35	1090.24
668.69	1091.58
669.03	1092.21
669.37	1092.54
669.71	1094.53
670.05	1096.63
670.39	1095.79
670.73	1095.96
671.07	1094.81
671.41	1093.26
671.75	1091.70
672.09	1092.02
672.43	1091.95
672.77	1093.33
673.11	1089.85
673.45	1091.06
673.79	1093.80
674.13	1094.43
674.47	1092.54
674.81	1096.59
675.15	1094.90
675.49	1090.99
675.83	1092.23
676.17	1093.08
676.51	1093.03
676.85	1093.78
677.19	1094.95
677.53	1091.58
677.87	1092.87
678.21	1089.87
678.55	1088.70
678.89	1089.03
679.23	1088.96
679.57	1088.54
679.90	1088.28
680.24	1090.08
680.58	1090.32
680.92	1090.71
681.26	1089.19
681.60	1093.08
681.94	1091.34
682.28	1091.79
682.62	1093.62
682.96	1094.50
683.29	1091.39
683.63	1093.12
683.97	1091.20
684.31	1089.17
684.65	1090.29
684.99	1093.36
685.33	1092.30
685.67	1092.54
686.00	1091.27
686.34	1089.19
686.68	1088.09
687.02	1089.73
687.36	1088.09
687.70	1088.26
688.03	1087.46
688.37	1086.85
688.71	1089.22
689.05	1090.03
689.39	1090.81
689.72	1093.94
690.06	1093.78
690.40	1089.31
690.74	1087.93
691.08	1088.28
691.41	1087.81
691.75	1090.06
692.09	1089.71
692.43	1092.80
692.76	1096.05
693.10	1094.60
693.44	1091.91
693.78	1091.56
694.11	1092.52
694.45	1090.15
694.79	1092.87
695.13	1094.34
695.46	1096.68
695.80	1094.41
696.14	1097.08
696.48	1095.49
696.81	1096.19
697.15	1094.97
697.49	1096.52
697.82	1093.73
698.16	1095.18
698.50	1090.48
698.83	1090.46
699.17	1089.45
699.51	1088.63
699.84	1084.32
700.18	1085.87
700.52	1086.03
700.85	1086.17
701.19	1086.06
701.53	1085.99
701.86	1086.66
702.20	1083.01
702.54	1082.99
702.87	1082.85
703.21	1084.81
703.55	1084.60
703.88	1087.20
704.22	1087.83
704.55	1090.01
704.89	1089.31
705.23	1090.95
705.56	1091.65
705.90	1094.20
706.23	1092.61
706.57	1094.08
706.91	1094.32
707.24	1096.07
707.58	1094.65
707.91	1095.98
708.25	1094.69
708.58	1094.72
708.92	1091.98
709.26	1093.94
709.59	1092.28
709.93	1092.30
710.26	1092.05
710.60	1094.11
710.93	1092.56
711.27	1091.20
711.60	1095.00
711.94	1094.41
712.27	1092.49
712.61	1090.24
712.94	1094.06
713.28	1089.17
713.61	1087.46
713.95	1089.45
714.28	1086.29
714.62	1084.09
714.95	1085.68
715.29	1086.36
715.62	1085.87
715.96	1089.52
716.29	1090.32
716.63	1089.82
716.96	1090.06
717.29	1086.36
717.63	1088.91
717.96	1090.90
718.30	1091.18
718.63	1092.37
718.97	1096.49
719.30	1093.55
719.63	1090.15
719.97	1088.23
720.30	1087.86
720.64	1085.80
720.97	1084.81
721.30	1088.86
721.64	1091.58
721.97	1089.47
722.31	1092.28
722.64	1094.76
722.97	1089.61
723.31	1088.26
723.64	1089.50
723.97	1087.16
724.31	1085.33
724.64	1086.13
724.98	1086.06
725.31	1084.74
725.64	1084.79
725.98	1088.14
726.31	1087.48
726.64	1088.72
726.97	1090.36
727.31	1089.89
727.64	1089.29
727.97	1089.50
728.31	1092.30
728.64	1092.82
728.97	1092.73
729.31	1087.95
729.64	1089.75
729.97	1087.97
730.30	1087.95
730.64	1089.92
730.97	1093.19
731.30	1090.78
731.63	1087.74
731.97	1086.59
732.30	1084.79
732.63	1083.97
732.96	1086.94
733.30	1087.04
733.63	1087.88
733.96	1090.71
734.29	1087.55
734.63	1086.59
734.96	1089.10
735.29	1088.04
735.62	1086.87
735.95	1090.17
736.29	1090.48
736.62	1089.64
736.95	1090.62
737.28	1086.99
737.61	1084.46
737.94	1083.46
738.28	1078.03
738.61	1076.53
738.94	1077.98
739.27	1079.67
739.60	1079.38
739.93	1086.20
740.27	1082.80
740.60	1083.36
740.93	1082.78
741.26	1082.94
741.59	1080.04
741.92	1083.74
742.25	1084.18
742.58	1085.73
742.91	1085.42
743.25	1088.70
743.58	1090.57
743.91	1090.29
744.24	1089.82
744.57	1091.20
744.90	1088.79
745.23	1087.53
745.56	1088.96
745.89	1090.10
746.22	1089.45
746.55	1085.70
746.88	1083.90
747.21	1083.53
747.54	1083.83
747.87	1083.25
748.20	1085.45
748.53	1090.10
748.87	1090.97
749.20	1085.68
749.53	1085.54
749.86	1087.02
750.19	1085.59
750.52	1083.08
750.85	1083.64
751.18	1083.79
751.51	1085.14
751.84	1085.68
752.16	1084.91
752.49	1087.58
752.82	1091.27
753.15	1090.85
753.48	1087.55
753.81	1088.37
754.14	1088.42
754.47	1083.15
754.80	1081.56
755.13	1084.32
755.46	1083.95
755.79	1084.02
756.12	1093.17
756.45	1094.95
756.78	1094.29
757.11	1095.82
757.43	1095.60
757.76	1088.58
758.09	1087.04
758.42	1083.67
758.75	1080.86
759.08	1078.52
759.41	1080.81
759.74	1082.85
760.07	1086.85
760.39	1090.22
760.72	1093.29
761.05	1094.50
761.38	1094.11
761.71	1090.10
762.04	1088.47
762.36	1085.77
762.69	1083.22
763.02	1082.17
763.35	1084.67
