SpectraSuite Data File
++++++++++++++++++++++++++++++++++++
Date: Mon Aug 26 10:26:41 PDT 2019
User: corrico
Dark Spectrum Present: No
Reference Spectrum Present: No
Number of Sampled Component Spectra: 1
Spectrometers: USB2+H06089
Integration Time (usec): 10000 (USB2+H06089)
Spectra Averaged: 20 (USB2+H06089)
Boxcar Smoothing: 2 (USB2+H06089)
Correct for Electrical Dark: No (USB2+H06089)
Strobe/Lamp Enabled: No (USB2+H06089)
Correct for Detector Non-linearity: No (USB2+H06089)
Correct for Stray Light: No (USB2+H06089)
Number of Pixels in Processed Spectrum: 2048
>>>>>Begin Processed Spectral Data<<<<<
339.70	1036.51
340.07	1036.51
340.45	1000.06
340.82	979.35
341.19	953.98
341.57	928.47
341.94	914.70
342.31	907.78
342.69	900.59
343.06	897.55
343.43	897.31
343.81	900.19
344.18	902.65
344.55	907.14
344.93	912.34
345.30	915.95
345.67	923.65
346.04	935.65
346.42	940.61
346.79	951.80
347.16	960.04
347.54	969.29
347.91	972.89
348.28	985.83
348.65	995.45
349.03	1006.22
349.40	1014.20
349.77	1025.97
350.14	1030.56
350.52	1035.99
350.89	1042.57
351.26	1049.61
351.63	1049.50
352.01	1057.92
352.38	1059.94
352.75	1062.93
353.12	1066.79
353.50	1072.08
353.87	1073.86
354.24	1078.47
354.61	1081.94
354.98	1081.37
355.36	1082.71
355.73	1084.86
356.10	1089.52
356.47	1091.65
356.84	1093.36
357.22	1095.35
357.59	1094.39
357.96	1090.29
358.33	1088.02
358.70	1087.51
359.08	1088.70
359.45	1087.74
359.82	1088.86
360.19	1090.24
360.56	1091.67
360.94	1089.64
361.31	1088.58
361.68	1089.10
362.05	1088.77
362.42	1085.66
362.79	1086.78
363.16	1088.23
363.54	1085.38
363.91	1082.03
364.28	1082.50
364.65	1080.02
365.02	1079.17
365.39	1077.16
365.76	1076.48
366.14	1073.93
366.51	1073.77
366.88	1072.88
367.25	1074.21
367.62	1075.22
367.99	1077.18
368.36	1076.69
368.73	1077.44
369.10	1077.09
369.48	1076.90
369.85	1073.93
370.22	1076.62
370.59	1075.69
370.96	1076.01
371.33	1075.31
371.70	1079.74
372.07	1076.95
372.44	1077.47
372.81	1078.64
373.18	1082.57
373.55	1081.70
373.93	1082.73
374.30	1081.40
374.67	1082.36
375.04	1079.48
375.41	1081.40
375.78	1083.41
376.15	1083.71
376.52	1080.60
376.89	1080.20
377.26	1078.26
377.63	1079.31
378.00	1081.21
378.37	1083.13
378.74	1079.62
379.11	1078.40
379.48	1076.72
379.85	1075.03
380.22	1073.93
380.59	1079.36
380.96	1077.37
381.33	1076.41
381.70	1078.24
382.07	1078.85
382.44	1076.51
382.81	1079.88
383.18	1079.69
383.55	1083.41
383.92	1081.07
384.29	1083.53
384.66	1085.45
385.03	1085.10
385.40	1078.68
385.77	1084.70
386.14	1084.79
386.51	1085.84
386.88	1089.24
387.25	1091.06
387.62	1085.75
387.99	1087.02
388.36	1083.79
388.73	1079.92
389.10	1082.17
389.46	1084.11
389.83	1080.34
390.20	1081.66
390.57	1084.67
390.94	1082.15
391.31	1083.81
391.68	1087.44
392.05	1084.93
392.42	1083.15
392.79	1086.27
393.16	1084.39
393.53	1081.40
393.89	1082.69
394.26	1085.38
394.63	1084.77
395.00	1083.06
395.37	1084.42
395.74	1085.47
396.11	1082.38
396.48	1082.71
396.84	1084.74
397.21	1085.00
397.58	1083.95
397.95	1084.93
398.32	1083.76
398.69	1086.43
399.06	1087.88
399.42	1090.76
399.79	1091.86
400.16	1093.24
400.53	1092.84
400.90	1089.05
401.27	1088.77
401.64	1086.87
402.00	1087.46
402.37	1085.10
402.74	1089.43
403.11	1088.75
403.48	1086.01
403.84	1087.60
404.21	1089.29
404.58	1089.40
404.95	1087.79
405.32	1093.36
405.68	1089.99
406.05	1090.20
406.42	1091.49
406.79	1093.76
407.16	1094.53
407.52	1097.15
407.89	1100.08
408.26	1100.52
408.63	1099.19
408.99	1097.80
409.36	1098.55
409.73	1097.59
410.10	1096.03
410.47	1098.67
410.83	1101.64
411.20	1099.28
411.57	1099.02
411.94	1099.77
412.30	1102.65
412.67	1102.63
413.04	1105.04
413.40	1106.75
413.77	1108.20
414.14	1107.19
414.51	1107.96
414.87	1107.49
415.24	1107.85
415.61	1108.06
415.97	1106.70
416.34	1105.04
416.71	1108.27
417.08	1106.14
417.44	1104.29
417.81	1102.11
418.18	1101.01
418.54	1096.80
418.91	1098.46
419.28	1100.10
419.64	1103.45
420.01	1105.93
420.38	1110.87
420.74	1110.28
421.11	1108.31
421.48	1108.13
421.84	1107.52
422.21	1106.18
422.58	1109.02
422.94	1109.69
423.31	1107.00
423.68	1108.15
424.04	1106.89
424.41	1102.88
424.77	1106.09
425.14	1109.04
425.51	1107.35
425.87	1106.28
426.24	1110.63
426.61	1107.56
426.97	1107.80
427.34	1109.30
427.70	1111.19
428.07	1109.39
428.44	1110.89
428.80	1110.75
429.17	1112.55
429.53	1110.47
429.90	1111.52
430.27	1112.34
430.63	1110.98
431.00	1107.45
431.36	1109.30
431.73	1108.17
432.09	1107.10
432.46	1114.05
432.83	1114.80
433.19	1116.34
433.56	1115.83
433.92	1114.91
434.29	1108.88
434.65	1110.28
435.02	1107.35
435.38	1109.81
435.75	1111.43
436.11	1114.61
436.48	1116.39
436.84	1115.20
437.21	1115.50
437.57	1115.03
437.94	1111.01
438.30	1109.09
438.67	1113.65
439.03	1109.74
439.40	1112.11
439.76	1115.03
440.13	1114.61
440.49	1114.75
440.86	1119.20
441.22	1117.07
441.59	1114.42
441.95	1115.20
442.32	1113.88
442.68	1109.02
443.05	1110.37
443.41	1114.14
443.78	1113.60
444.14	1114.17
444.51	1116.90
444.87	1115.80
445.24	1114.56
445.60	1115.45
445.96	1113.28
446.33	1112.64
446.69	1112.43
447.06	1111.03
447.42	1109.44
447.79	1110.87
448.15	1107.31
448.51	1107.21
448.88	1108.57
449.24	1109.65
449.61	1107.42
449.97	1111.59
450.33	1114.12
450.70	1112.04
451.06	1111.33
451.43	1111.19
451.79	1113.84
452.15	1114.98
452.52	1116.88
452.88	1115.05
453.24	1116.74
453.61	1112.69
453.97	1110.47
454.34	1111.22
454.70	1111.17
455.06	1107.19
455.43	1107.38
455.79	1102.98
456.15	1100.82
456.52	1100.64
456.88	1104.62
457.24	1105.01
457.61	1110.87
457.97	1111.26
458.33	1116.83
458.70	1119.50
459.06	1122.26
459.42	1123.71
459.79	1123.71
460.15	1120.09
460.51	1112.15
460.88	1112.83
461.24	1109.48
461.60	1112.99
461.96	1113.25
462.33	1118.14
462.69	1115.69
463.05	1116.74
463.42	1116.18
463.78	1118.31
464.14	1121.94
464.50	1122.38
464.87	1123.74
465.23	1125.03
465.59	1126.50
465.95	1126.34
466.32	1128.91
466.68	1125.61
467.04	1122.03
467.40	1121.56
467.77	1121.80
468.13	1122.08
468.49	1125.66
468.85	1129.54
469.22	1130.69
469.58	1133.19
469.94	1133.64
470.30	1136.03
470.66	1136.19
471.03	1135.58
471.39	1135.56
471.75	1138.13
472.11	1141.13
472.47	1145.11
472.84	1150.65
473.20	1153.28
473.56	1155.99
473.92	1159.78
474.28	1161.72
474.65	1165.40
475.01	1171.30
475.37	1176.12
475.73	1177.20
476.09	1184.03
476.45	1187.40
476.81	1190.51
477.18	1192.36
477.54	1199.10
477.90	1204.58
478.26	1209.85
478.62	1217.62
478.98	1223.75
479.34	1231.94
479.71	1240.02
480.07	1247.53
480.43	1258.11
480.79	1269.51
481.15	1276.95
481.51	1282.87
481.87	1296.07
482.23	1301.24
482.59	1317.28
482.96	1330.24
483.32	1347.84
483.68	1364.35
484.04	1381.27
484.40	1396.60
484.76	1414.67
485.12	1427.17
485.48	1444.09
485.84	1463.33
486.20	1483.69
486.56	1510.11
486.92	1536.61
487.28	1561.54
487.64	1590.91
488.00	1618.39
488.37	1642.07
488.73	1668.38
489.09	1700.49
489.45	1731.81
489.81	1767.53
490.17	1808.32
490.53	1850.57
490.89	1890.94
491.25	1933.87
491.61	1978.88
491.97	2024.03
492.33	2081.74
492.69	2133.66
493.05	2192.26
493.41	2248.79
493.77	2310.93
494.13	2372.46
494.49	2444.32
494.85	2514.95
495.21	2590.43
495.57	2668.35
495.93	2746.53
496.29	2828.09
496.64	2920.24
497.00	3013.44
497.36	3112.84
497.72	3218.77
498.08	3329.15
498.44	3447.87
498.80	3568.97
499.16	3695.68
499.52	3831.48
499.88	3981.49
500.24	4133.78
500.60	4287.91
500.96	4455.84
501.32	4633.61
501.68	4803.32
502.03	4986.86
502.39	5205.02
502.75	5414.83
503.11	5633.48
503.47	5870.51
503.83	6117.18
504.19	6363.43
504.55	6634.95
504.91	6911.53
505.26	7188.39
505.62	7485.67
505.98	7806.46
506.34	8141.39
506.70	8506.37
507.06	8905.95
507.42	9300.96
507.78	9704.82
508.13	10122.11
508.49	10560.45
508.85	11012.36
509.21	11506.26
509.57	12035.57
509.93	12596.15
510.28	13192.01
510.64	13818.76
511.00	14428.30
511.36	15006.41
511.72	15577.76
512.07	16209.78
512.43	16816.12
512.79	17477.01
513.15	18219.03
513.51	18978.33
513.86	19718.31
514.22	20546.81
514.58	21338.38
514.94	22162.02
515.30	22992.00
515.65	23801.40
516.01	24646.87
516.37	25515.87
516.73	26300.30
517.08	27171.54
517.44	28022.32
517.80	28826.86
518.16	29660.44
518.51	30472.37
518.87	31226.96
519.23	32073.91
519.59	32944.51
519.94	33763.68
520.30	34639.11
520.66	35405.92
521.01	36197.60
521.37	36876.01
521.73	37518.79
522.09	38126.55
522.44	38785.23
522.80	39201.91
523.16	39546.96
523.51	39808.23
523.87	40098.76
524.23	40347.54
524.58	40623.86
524.94	41023.27
525.30	41371.82
525.65	41553.45
526.01	41621.51
526.37	41627.69
526.72	41546.78
527.08	41405.41
527.44	41232.68
527.79	41062.26
528.15	40914.86
528.51	40673.76
528.86	40468.28
529.22	40221.05
529.58	39959.15
529.93	39614.20
530.29	39188.36
530.65	38811.25
531.00	38464.60
531.36	38052.01
531.71	37607.12
532.07	37124.76
532.43	36542.60
532.78	35887.86
533.14	35299.33
533.49	34702.98
533.85	34089.55
534.21	33486.23
534.56	32931.90
534.92	32321.53
535.27	31720.46
535.63	31132.10
535.98	30503.01
536.34	29878.74
536.69	29249.53
537.05	28632.38
537.41	28099.32
537.76	27601.00
538.12	27058.18
538.47	26573.81
538.83	26128.78
539.18	25661.84
539.54	25199.75
539.89	24728.37
540.25	24196.53
540.60	23692.56
540.96	23172.68
541.31	22668.25
541.67	22259.15
542.02	21870.22
542.38	21426.69
542.73	20985.52
543.09	20598.84
543.44	20233.98
543.80	19887.63
544.15	19504.88
544.51	19191.81
544.86	18870.80
545.22	18494.66
545.57	18125.86
545.93	17769.84
546.28	17453.14
546.64	17143.21
546.99	16793.04
547.35	16448.61
547.70	16154.54
548.05	15826.49
548.41	15498.63
548.76	15218.96
549.12	14940.25
549.47	14672.56
549.83	14414.91
550.18	14107.91
550.53	13781.10
550.89	13507.93
551.24	13232.59
551.60	12930.20
551.95	12676.55
552.30	12454.04
552.66	12202.01
553.01	11945.16
553.37	11687.91
553.72	11399.70
554.07	11125.62
554.43	10844.87
554.78	10564.05
555.13	10299.22
555.49	10082.49
555.84	9887.52
556.19	9708.75
556.55	9510.88
556.90	9322.00
557.26	9123.97
557.61	8894.90
557.96	8646.41
558.32	8442.24
558.67	8234.17
559.02	8002.81
559.37	7815.80
559.73	7670.40
560.08	7515.46
560.43	7353.26
560.79	7245.32
561.14	7094.19
561.49	6919.63
561.85	6757.59
562.20	6615.13
562.55	6469.76
562.90	6348.73
563.26	6237.32
563.61	6130.33
563.96	6017.75
564.32	5898.15
564.67	5771.92
565.02	5649.98
565.37	5532.39
565.73	5420.17
566.08	5303.09
566.43	5192.74
566.78	5082.87
567.14	4976.49
567.49	4867.66
567.84	4765.52
568.19	4666.70
568.54	4580.36
568.90	4487.95
569.25	4405.36
569.60	4339.47
569.95	4265.46
570.31	4185.86
570.66	4105.46
571.01	4016.31
571.36	3919.84
571.71	3841.26
572.06	3772.48
572.42	3711.83
572.77	3662.26
573.12	3607.84
573.47	3545.35
573.82	3479.46
574.18	3409.72
574.53	3347.79
574.88	3297.23
575.23	3250.75
575.58	3204.45
575.93	3159.28
576.28	3103.90
576.64	3043.09
576.99	2983.69
577.34	2927.71
577.69	2873.41
578.04	2822.78
578.39	2777.05
578.74	2737.14
579.09	2691.36
579.44	2653.54
579.80	2617.12
580.15	2574.87
580.50	2534.24
580.85	2500.72
581.20	2463.55
581.55	2432.28
581.90	2407.64
582.25	2373.19
582.60	2336.70
582.95	2302.13
583.30	2266.11
583.65	2225.15
584.00	2192.94
584.35	2163.47
584.71	2132.42
585.06	2101.54
585.41	2075.31
585.76	2049.42
586.11	2021.71
586.46	2001.86
586.81	1978.06
587.16	1955.07
587.51	1936.44
587.86	1916.50
588.21	1892.77
588.56	1877.04
588.91	1857.89
589.26	1832.90
589.61	1816.42
589.96	1797.60
590.31	1775.98
590.66	1761.96
591.01	1746.98
591.36	1728.18
591.71	1709.97
592.06	1699.14
592.41	1680.27
592.76	1670.42
593.10	1657.80
593.45	1645.86
593.80	1625.64
594.15	1609.56
594.50	1589.72
594.85	1572.98
595.20	1561.82
595.55	1551.31
595.90	1541.45
596.25	1531.88
596.60	1520.76
596.95	1506.70
597.30	1493.66
597.64	1536.02
597.99	1529.07
598.34	1521.09
598.69	1512.55
599.04	1506.88
599.39	1446.31
599.74	1437.60
600.09	1430.11
600.44	1421.69
600.78	1414.41
601.13	1406.33
601.48	1398.77
601.83	1392.03
602.18	1382.81
602.53	1375.70
602.88	1368.96
603.22	1361.72
603.57	1353.95
603.92	1351.61
604.27	1345.36
604.62	1343.40
604.97	1334.57
605.31	1327.32
605.66	1321.05
606.01	1310.70
606.36	1302.93
606.71	1297.12
607.05	1294.15
607.40	1290.17
607.75	1290.22
608.10	1285.75
608.44	1282.43
608.79	1277.23
609.14	1272.88
609.49	1269.32
609.84	1269.58
610.18	1264.83
610.53	1263.75
610.88	1256.12
611.23	1251.79
611.57	1243.01
611.92	1240.48
612.27	1234.75
612.62	1235.01
612.96	1229.18
613.31	1221.76
613.66	1216.73
614.00	1215.07
614.35	1208.89
614.70	1207.06
615.05	1206.43
615.39	1204.67
615.74	1200.25
616.09	1201.47
616.43	1197.54
616.78	1198.40
617.13	1197.82
617.47	1195.90
617.82	1190.77
618.17	1186.46
618.51	1182.04
618.86	1177.76
619.21	1178.27
619.55	1175.93
619.90	1179.26
620.25	1176.73
620.59	1176.80
620.94	1172.19
621.29	1170.85
621.63	1169.36
621.98	1168.02
622.32	1169.17
622.67	1167.20
623.02	1166.83
623.36	1166.66
623.71	1163.60
624.05	1155.15
624.40	1152.90
624.75	1147.73
625.09	1147.17
625.44	1148.69
625.78	1148.52
626.13	1147.49
626.48	1149.13
626.82	1143.42
627.17	1140.40
627.51	1139.93
627.86	1139.23
628.20	1136.45
628.55	1135.58
628.89	1134.64
629.24	1134.55
629.58	1132.61
629.93	1131.44
630.28	1130.97
630.62	1128.23
630.97	1127.58
631.31	1128.65
631.66	1130.69
632.00	1129.10
632.35	1133.54
632.69	1133.57
633.04	1133.19
633.38	1129.92
633.73	1128.98
634.07	1124.53
634.42	1119.36
634.76	1115.50
635.11	1115.99
635.45	1112.22
635.79	1113.28
636.14	1117.00
636.48	1118.99
636.83	1119.10
637.17	1119.53
637.52	1116.83
637.86	1112.90
638.21	1113.84
638.55	1109.84
638.89	1112.88
639.24	1113.49
639.58	1115.97
639.93	1113.98
640.27	1115.45
640.61	1112.57
640.96	1112.43
641.30	1107.47
641.65	1104.62
641.99	1105.55
642.33	1107.59
642.68	1107.78
643.02	1113.84
643.37	1112.08
643.71	1111.94
644.05	1108.59
644.40	1107.00
644.74	1101.67
645.08	1103.84
645.43	1103.26
645.77	1102.79
646.11	1103.82
646.46	1106.09
646.80	1104.90
647.14	1103.94
647.49	1105.53
647.83	1105.39
648.17	1103.54
648.52	1104.62
648.86	1103.45
649.20	1106.39
649.55	1105.86
649.89	1103.21
650.23	1099.49
650.57	1097.31
650.92	1093.85
651.26	1088.96
651.60	1091.44
651.95	1095.25
652.29	1093.26
652.63	1091.70
652.97	1094.43
653.32	1097.76
653.66	1094.46
654.00	1098.90
654.34	1102.13
654.69	1103.12
655.03	1097.57
655.37	1099.07
655.71	1095.58
656.05	1094.06
656.40	1089.47
656.74	1090.27
657.08	1090.90
657.42	1093.03
657.76	1089.94
658.11	1095.21
658.45	1095.84
658.79	1096.42
659.13	1095.28
659.47	1095.96
659.82	1094.97
660.16	1096.82
660.50	1096.56
660.84	1097.22
661.18	1099.65
661.52	1100.05
661.87	1098.69
662.21	1096.31
662.55	1097.41
662.89	1095.39
663.23	1095.93
663.57	1094.95
663.91	1098.06
664.25	1096.00
664.60	1097.20
664.94	1095.89
665.28	1098.16
665.62	1097.03
665.96	1099.26
666.30	1098.34
666.64	1095.84
666.98	1092.96
667.32	1091.20
667.66	1088.19
668.01	1085.80
668.35	1086.36
668.69	1087.34
669.03	1087.97
669.37	1088.72
669.71	1092.07
670.05	1093.03
670.39	1091.60
670.73	1093.17
671.07	1093.76
671.41	1093.66
671.75	1092.77
672.09	1094.04
672.43	1091.70
672.77	1091.79
673.11	1089.87
673.45	1087.09
673.79	1086.31
674.13	1084.42
674.47	1086.85
674.81	1087.37
675.15	1091.16
675.49	1093.12
675.83	1095.42
676.17	1091.70
676.51	1091.70
676.85	1090.41
677.19	1088.72
677.53	1087.06
677.87	1086.15
678.21	1083.60
678.55	1084.46
678.89	1081.54
679.23	1083.83
679.57	1088.40
679.90	1091.20
680.24	1092.28
680.58	1094.43
680.92	1092.61
681.26	1090.03
681.60	1089.52
681.94	1085.42
682.28	1086.59
682.62	1087.88
682.96	1089.61
683.29	1087.34
683.63	1089.61
683.97	1089.22
684.31	1084.16
684.65	1084.21
684.99	1083.71
685.33	1083.46
685.67	1083.79
686.00	1088.02
686.34	1083.69
686.68	1083.64
687.02	1084.81
687.36	1082.76
687.70	1081.28
688.03	1085.77
688.37	1089.07
688.71	1089.00
689.05	1092.42
689.39	1094.08
689.72	1092.91
690.06	1091.56
690.40	1091.42
690.74	1091.58
691.08	1091.37
691.41	1092.05
691.75	1093.52
692.09	1091.79
692.43	1091.74
692.76	1090.69
693.10	1088.91
693.44	1089.24
693.78	1092.23
694.11	1091.30
694.45	1093.31
694.79	1093.33
695.13	1091.88
695.46	1091.16
695.80	1091.30
696.14	1091.81
696.48	1094.25
696.81	1095.09
697.15	1095.18
697.49	1093.26
697.82	1091.11
698.16	1088.40
698.50	1086.17
698.83	1085.03
699.17	1084.14
699.51	1084.60
699.84	1086.52
700.18	1086.57
700.52	1085.40
700.85	1085.94
701.19	1087.62
701.53	1086.94
701.86	1088.19
702.20	1086.43
702.54	1086.80
702.87	1085.89
703.21	1084.81
703.55	1085.42
703.88	1088.44
704.22	1087.37
704.55	1085.59
704.89	1089.57
705.23	1087.46
705.56	1090.03
705.90	1092.00
706.23	1090.34
706.57	1084.98
706.91	1084.72
707.24	1079.99
707.58	1078.50
707.91	1082.64
708.25	1083.90
708.58	1085.73
708.92	1087.93
709.26	1087.27
709.59	1085.07
709.93	1088.40
710.26	1088.79
710.60	1086.10
710.93	1086.29
711.27	1087.30
711.60	1085.45
711.94	1085.42
712.27	1086.52
712.61	1087.32
712.94	1088.75
713.28	1087.48
713.61	1086.57
713.95	1089.50
714.28	1087.13
714.62	1083.57
714.95	1084.16
715.29	1083.57
715.62	1080.60
715.96	1084.02
716.29	1085.12
716.63	1086.50
716.96	1088.37
717.29	1088.93
717.63	1088.89
717.96	1089.40
718.30	1089.99
718.63	1091.32
718.97	1087.69
719.30	1086.73
719.63	1089.26
719.97	1086.59
720.30	1086.36
720.64	1091.58
720.97	1090.71
721.30	1089.61
721.64	1092.26
721.97	1087.90
722.31	1083.43
722.64	1085.28
722.97	1087.04
723.31	1084.46
723.64	1083.79
723.97	1085.94
724.31	1084.98
724.64	1078.24
724.98	1078.94
725.31	1084.58
725.64	1085.10
725.98	1087.30
726.31	1091.81
726.64	1092.89
726.97	1088.82
727.31	1090.22
727.64	1087.48
727.97	1088.14
728.31	1086.03
728.64	1085.94
728.97	1084.51
729.31	1085.10
729.64	1081.56
729.97	1083.36
730.30	1084.93
730.64	1084.42
730.97	1084.02
731.30	1086.76
731.63	1083.76
731.97	1085.73
732.30	1088.96
732.63	1088.42
732.96	1087.76
733.30	1089.12
733.63	1086.31
733.96	1080.67
734.29	1081.14
734.63	1081.54
734.96	1080.37
735.29	1080.27
735.62	1081.70
735.95	1081.68
736.29	1084.16
736.62	1086.48
736.95	1090.99
737.28	1089.96
737.61	1091.18
737.94	1087.37
738.28	1086.43
738.61	1081.98
738.94	1086.13
739.27	1085.54
739.60	1089.07
739.93	1085.10
740.27	1086.01
740.60	1087.09
740.93	1088.00
741.26	1084.70
741.59	1088.28
741.92	1088.42
742.25	1085.54
742.58	1085.68
742.91	1085.31
743.25	1086.69
743.58	1085.42
743.91	1084.42
744.24	1084.98
744.57	1085.28
744.90	1083.46
745.23	1082.85
745.56	1088.30
745.89	1085.26
746.22	1084.28
746.55	1086.38
746.88	1086.08
747.21	1080.18
747.54	1081.51
747.87	1083.97
748.20	1082.01
748.53	1082.59
748.87	1080.58
749.20	1082.01
749.53	1082.33
749.86	1081.77
750.19	1081.68
750.52	1082.61
750.85	1080.88
751.18	1080.37
751.51	1081.63
751.84	1081.75
752.16	1081.09
752.49	1080.88
752.82	1077.63
753.15	1081.02
753.48	1081.84
753.81	1086.06
754.14	1085.19
754.47	1088.98
754.80	1087.30
755.13	1088.47
755.46	1084.58
755.79	1083.88
756.12	1086.55
756.45	1084.53
756.78	1084.04
757.11	1088.70
757.43	1089.89
757.76	1085.54
758.09	1085.24
758.42	1084.25
758.75	1082.87
759.08	1081.12
759.41	1080.16
759.74	1080.48
760.07	1080.98
760.39	1081.09
760.72	1082.71
761.05	1085.89
761.38	1085.05
761.71	1087.81
762.04	1084.70
762.36	1082.94
762.69	1081.82
763.02	1083.04
763.35	1078.45
