SpectraSuite Data File
++++++++++++++++++++++++++++++++++++
Date: Mon Aug 26 10:27:03 PDT 2019
User: corrico
Dark Spectrum Present: No
Reference Spectrum Present: No
Number of Sampled Component Spectra: 1
Spectrometers: USB2+H06089
Integration Time (usec): 10000 (USB2+H06089)
Spectra Averaged: 20 (USB2+H06089)
Boxcar Smoothing: 2 (USB2+H06089)
Correct for Electrical Dark: No (USB2+H06089)
Strobe/Lamp Enabled: No (USB2+H06089)
Correct for Detector Non-linearity: No (USB2+H06089)
Correct for Stray Light: No (USB2+H06089)
Number of Pixels in Processed Spectrum: 2048
>>>>>Begin Processed Spectral Data<<<<<
339.70	1028.31
340.07	1028.31
340.45	993.32
340.82	972.59
341.19	951.57
341.57	927.39
341.94	918.19
342.31	915.27
342.69	910.70
343.06	907.26
343.43	903.66
343.81	903.05
344.18	903.17
344.55	906.96
344.93	910.19
345.30	919.15
345.67	927.23
346.04	938.04
346.42	946.44
346.79	954.17
347.16	961.47
347.54	969.68
347.91	973.05
348.28	979.42
348.65	987.50
349.03	996.39
349.40	1002.99
349.77	1012.98
350.14	1023.19
350.52	1030.82
350.89	1040.13
351.26	1045.66
351.63	1049.96
352.01	1051.37
352.38	1056.59
352.75	1056.56
353.12	1061.43
353.50	1061.08
353.87	1063.84
354.24	1066.93
354.61	1072.50
354.98	1076.06
355.36	1079.29
355.73	1082.36
356.10	1083.25
356.47	1082.15
356.84	1082.94
357.22	1086.36
357.59	1083.69
357.96	1082.03
358.33	1082.40
358.70	1080.88
359.08	1076.58
359.45	1077.77
359.82	1078.05
360.19	1075.97
360.56	1073.58
360.94	1073.72
361.31	1076.25
361.68	1076.04
362.05	1072.95
362.42	1074.80
362.79	1076.01
363.16	1072.76
363.54	1076.62
363.91	1077.47
364.28	1073.18
364.65	1073.30
365.02	1071.99
365.39	1067.68
365.76	1070.02
366.14	1073.79
366.51	1071.22
366.88	1073.39
367.25	1072.01
367.62	1071.85
367.99	1067.07
368.36	1070.05
368.73	1071.22
369.10	1073.00
369.48	1073.14
369.85	1073.44
370.22	1071.36
370.59	1070.16
370.96	1067.61
371.33	1067.35
371.70	1070.05
372.07	1071.12
372.44	1070.75
372.81	1073.09
373.18	1071.50
373.55	1072.15
373.93	1074.80
374.30	1073.30
374.67	1073.02
375.04	1072.41
375.41	1071.19
375.78	1067.17
376.15	1066.54
376.52	1066.07
376.89	1070.19
377.26	1068.64
377.63	1070.96
378.00	1072.48
378.37	1071.90
378.74	1071.54
379.11	1072.60
379.48	1069.77
379.85	1070.44
380.22	1073.46
380.59	1069.04
380.96	1068.76
381.33	1070.80
381.70	1071.10
382.07	1068.83
382.44	1068.22
382.81	1070.09
383.18	1068.62
383.55	1065.90
383.92	1064.83
384.29	1066.84
384.66	1066.14
385.03	1067.17
385.40	1069.13
385.77	1071.94
386.14	1069.74
386.51	1067.73
386.88	1068.43
387.25	1067.57
387.62	1067.59
387.99	1068.22
388.36	1070.19
388.73	1071.66
389.10	1074.82
389.46	1074.94
389.83	1074.91
390.20	1077.54
390.57	1074.96
390.94	1076.41
391.31	1072.74
391.68	1072.85
392.05	1069.39
392.42	1070.58
392.79	1066.93
393.16	1067.47
393.53	1069.44
393.89	1072.95
394.26	1076.04
394.63	1074.00
395.00	1074.14
395.37	1074.63
395.74	1071.33
396.11	1069.09
396.48	1071.71
396.84	1072.48
397.21	1072.36
397.58	1074.42
397.95	1073.04
398.32	1074.33
398.69	1074.59
399.06	1075.08
399.42	1074.38
399.79	1074.03
400.16	1075.45
400.53	1076.93
400.90	1076.37
401.27	1076.67
401.64	1080.06
402.00	1077.02
402.37	1074.05
402.74	1075.24
403.11	1073.32
403.48	1072.43
403.84	1072.39
404.21	1072.36
404.58	1068.03
404.95	1070.80
405.32	1067.78
405.68	1065.79
406.05	1067.68
406.42	1070.56
406.79	1068.62
407.16	1071.73
407.52	1074.31
407.89	1073.81
408.26	1078.05
408.63	1078.50
408.99	1074.96
409.36	1075.97
409.73	1076.32
410.10	1075.41
410.47	1076.51
410.83	1078.12
411.20	1077.30
411.57	1077.65
411.94	1077.33
412.30	1076.39
412.67	1078.82
413.04	1077.07
413.40	1076.58
413.77	1072.64
414.14	1073.21
414.51	1070.21
414.87	1071.78
415.24	1074.00
415.61	1073.74
415.97	1072.85
416.34	1072.50
416.71	1072.27
417.08	1071.87
417.44	1074.52
417.81	1073.51
418.18	1076.04
418.54	1077.11
418.91	1075.76
419.28	1072.13
419.64	1071.45
420.01	1072.27
420.38	1071.66
420.74	1071.82
421.11	1073.58
421.48	1076.23
421.84	1071.61
422.21	1072.95
422.58	1074.75
422.94	1076.15
423.31	1077.65
423.68	1083.93
424.04	1081.77
424.41	1076.97
424.77	1077.86
425.14	1076.48
425.51	1075.64
425.87	1075.50
426.24	1078.71
426.61	1079.83
426.97	1080.06
427.34	1080.39
427.70	1080.67
428.07	1080.56
428.44	1078.36
428.80	1076.11
429.17	1071.78
429.53	1070.19
429.90	1071.40
430.27	1071.26
430.63	1072.92
431.00	1075.99
431.36	1076.72
431.73	1077.63
432.09	1078.21
432.46	1077.25
432.83	1074.94
433.19	1077.91
433.56	1075.64
433.92	1075.78
434.29	1078.05
434.65	1080.86
435.02	1080.25
435.38	1082.45
435.75	1083.86
436.11	1084.93
436.48	1083.55
436.84	1084.11
437.21	1081.56
437.57	1080.95
437.94	1077.54
438.30	1077.84
438.67	1075.66
439.03	1076.97
439.40	1075.57
439.76	1080.70
440.13	1078.00
440.49	1080.86
440.86	1078.38
441.22	1078.12
441.59	1072.27
441.95	1074.66
442.32	1074.96
442.68	1075.59
443.05	1078.38
443.41	1080.98
443.78	1081.05
444.14	1078.50
444.51	1079.34
444.87	1077.11
445.24	1074.84
445.60	1075.78
445.96	1075.27
446.33	1076.13
446.69	1077.65
447.06	1081.54
447.42	1080.48
447.79	1081.94
448.15	1082.31
448.51	1080.67
448.88	1078.59
449.24	1078.94
449.61	1079.71
449.97	1075.10
450.33	1077.44
450.70	1077.79
451.06	1077.21
451.43	1077.16
451.79	1081.70
452.15	1080.51
452.52	1077.58
452.88	1079.13
453.24	1077.75
453.61	1072.92
453.97	1071.52
454.34	1077.91
454.70	1075.52
455.06	1073.42
455.43	1078.21
455.79	1079.10
456.15	1076.48
456.52	1077.23
456.88	1081.68
457.24	1081.73
457.61	1080.25
457.97	1079.85
458.33	1078.94
458.70	1078.28
459.06	1074.12
459.42	1076.08
459.79	1074.59
460.15	1075.94
460.51	1074.40
460.88	1076.65
461.24	1076.93
461.60	1079.64
461.96	1080.91
462.33	1080.27
462.69	1084.39
463.05	1085.59
463.42	1082.47
463.78	1077.44
464.14	1080.46
464.50	1076.83
464.87	1077.68
465.23	1080.56
465.59	1085.91
465.95	1083.86
466.32	1085.56
466.68	1083.88
467.04	1082.22
467.40	1080.51
467.77	1079.95
468.13	1078.78
468.49	1076.69
468.85	1077.35
469.22	1079.55
469.58	1078.71
469.94	1080.39
470.30	1084.37
470.66	1082.40
471.03	1075.99
471.39	1077.70
471.75	1076.95
472.11	1076.13
472.47	1076.18
472.84	1080.02
473.20	1082.08
473.56	1080.48
473.92	1077.91
474.28	1080.04
474.65	1080.60
475.01	1076.44
475.37	1079.38
475.73	1080.34
476.09	1079.97
476.45	1080.13
476.81	1083.41
477.18	1082.94
477.54	1082.80
477.90	1084.21
478.26	1082.76
478.62	1081.40
478.98	1080.13
479.34	1080.84
479.71	1081.54
480.07	1084.11
480.43	1082.94
480.79	1082.69
481.15	1082.45
481.51	1079.27
481.87	1078.38
482.23	1079.38
482.59	1081.51
482.96	1079.38
483.32	1078.80
483.68	1081.49
484.04	1082.45
484.40	1080.56
484.76	1081.42
485.12	1083.79
485.48	1079.43
485.84	1079.62
486.20	1082.33
486.56	1080.77
486.92	1078.73
487.28	1082.17
487.64	1079.67
488.00	1079.78
488.37	1080.98
488.73	1084.37
489.09	1082.33
489.45	1086.99
489.81	1085.05
490.17	1086.17
490.53	1086.64
490.89	1084.98
491.25	1081.47
491.61	1082.99
491.97	1083.97
492.33	1083.57
492.69	1084.35
493.05	1082.52
493.41	1080.60
493.77	1082.01
494.13	1081.77
494.49	1083.48
494.85	1083.57
495.21	1079.92
495.57	1077.63
495.93	1077.79
496.29	1076.53
496.64	1077.35
497.00	1081.47
497.36	1083.01
497.72	1081.68
498.08	1085.28
498.44	1086.08
498.80	1085.07
499.16	1082.01
499.52	1082.64
499.88	1079.13
500.24	1081.54
500.60	1086.29
500.96	1089.22
501.32	1089.12
501.68	1087.58
502.03	1085.63
502.39	1081.75
502.75	1078.87
503.11	1079.90
503.47	1082.90
503.83	1085.19
504.19	1088.63
504.55	1091.13
504.91	1090.17
505.26	1088.51
505.62	1084.16
505.98	1079.99
506.34	1079.13
506.70	1076.23
507.06	1077.82
507.42	1080.70
507.78	1082.24
508.13	1083.08
508.49	1085.61
508.85	1086.31
509.21	1086.20
509.57	1082.61
509.93	1081.63
510.28	1081.89
510.64	1081.09
511.00	1081.77
511.36	1083.41
511.72	1084.51
512.07	1083.62
512.43	1083.95
512.79	1084.02
513.15	1083.67
513.51	1083.50
513.86	1082.69
514.22	1081.63
514.58	1079.74
514.94	1083.95
515.30	1083.90
515.65	1086.10
516.01	1085.42
516.37	1087.53
516.73	1086.27
517.08	1085.77
517.44	1085.21
517.80	1087.51
518.16	1085.28
518.51	1086.43
518.87	1086.01
519.23	1083.74
519.59	1081.80
519.94	1083.81
520.30	1081.26
520.66	1082.61
521.01	1083.69
521.37	1081.98
521.73	1077.09
522.09	1078.45
522.44	1076.34
522.80	1077.18
523.16	1081.68
523.51	1084.98
523.87	1082.80
524.23	1083.20
524.58	1081.66
524.94	1078.47
525.30	1078.99
525.65	1081.66
526.01	1084.02
526.37	1086.24
526.72	1086.85
527.08	1087.48
527.44	1084.42
527.79	1084.39
528.15	1084.39
528.51	1086.10
528.86	1086.76
529.22	1084.67
529.58	1082.40
529.93	1080.09
530.29	1078.10
530.65	1077.86
531.00	1079.92
531.36	1077.44
531.71	1078.73
532.07	1083.86
532.43	1084.72
532.78	1081.75
533.14	1084.77
533.49	1084.46
533.85	1081.26
534.21	1075.69
534.56	1074.54
534.92	1077.02
535.27	1079.27
535.63	1077.23
535.98	1079.20
536.34	1081.23
536.69	1078.82
537.05	1077.84
537.41	1078.57
537.76	1080.72
538.12	1084.35
538.47	1085.63
538.83	1087.20
539.18	1087.53
539.54	1086.48
539.89	1084.96
540.25	1083.86
540.60	1078.28
540.96	1079.83
541.31	1082.99
541.67	1084.91
542.02	1084.79
542.38	1088.19
542.73	1087.39
543.09	1088.04
543.44	1087.74
543.80	1090.17
544.15	1092.37
544.51	1093.03
544.86	1091.30
545.22	1091.77
545.57	1091.13
545.93	1089.14
546.28	1087.51
546.64	1087.69
546.99	1089.22
547.35	1087.81
547.70	1091.84
548.05	1091.56
548.41	1093.62
548.76	1090.22
549.12	1090.36
549.47	1086.06
549.83	1085.61
550.18	1081.56
550.53	1081.66
550.89	1078.36
551.24	1079.34
551.60	1081.00
551.95	1080.30
552.30	1079.85
552.66	1084.51
553.01	1083.55
553.37	1083.46
553.72	1086.64
554.07	1088.51
554.43	1086.29
554.78	1085.00
555.13	1082.71
555.49	1080.56
555.84	1079.15
556.19	1081.16
556.55	1080.60
556.90	1081.02
557.26	1079.29
557.61	1078.31
557.96	1075.87
558.32	1076.83
558.67	1079.29
559.02	1081.26
559.37	1082.10
559.73	1082.10
560.08	1084.02
560.43	1086.10
560.79	1084.56
561.14	1084.28
561.49	1084.09
561.85	1083.39
562.20	1078.71
562.55	1076.18
562.90	1074.61
563.26	1076.41
563.61	1078.33
563.96	1081.23
564.32	1086.59
564.67	1088.98
565.02	1087.04
565.37	1083.04
565.73	1079.99
566.08	1079.27
566.43	1079.20
566.78	1080.11
567.14	1084.49
567.49	1087.04
567.84	1087.25
568.19	1086.34
568.54	1088.75
568.90	1087.76
569.25	1085.42
569.60	1083.69
569.95	1083.32
570.31	1081.16
570.66	1082.45
571.01	1084.79
571.36	1086.27
571.71	1086.57
572.06	1086.38
572.42	1085.12
572.77	1082.85
573.12	1082.94
573.47	1086.55
573.82	1088.14
574.18	1087.18
574.53	1086.87
574.88	1084.93
575.23	1080.81
575.58	1078.68
575.93	1079.03
576.28	1081.49
576.64	1082.03
576.99	1084.86
577.34	1086.59
577.69	1085.17
578.04	1085.42
578.39	1084.00
578.74	1082.54
579.09	1080.98
579.44	1079.97
579.80	1080.67
580.15	1083.29
580.50	1084.23
580.85	1084.56
581.20	1087.13
581.55	1085.35
581.90	1086.10
582.25	1084.44
582.60	1085.77
582.95	1084.96
583.30	1083.50
583.65	1081.54
584.00	1080.95
584.35	1079.97
584.71	1078.80
585.06	1081.35
585.41	1079.69
585.76	1082.87
586.11	1082.78
586.46	1086.31
586.81	1088.68
587.16	1094.48
587.51	1094.22
587.86	1093.83
588.21	1091.09
588.56	1091.04
588.91	1090.06
589.26	1089.05
589.61	1090.64
589.96	1092.12
590.31	1089.71
590.66	1087.53
591.01	1090.22
591.36	1088.44
591.71	1089.43
592.06	1092.61
592.41	1093.87
592.76	1091.70
593.10	1091.95
593.45	1089.17
593.80	1088.58
594.15	1088.70
594.50	1088.96
594.85	1090.99
595.20	1091.86
595.55	1088.44
595.90	1089.31
596.25	1088.09
596.60	1087.46
596.95	1089.99
597.30	1089.85
597.64	1132.94
597.99	1137.20
598.34	1137.01
598.69	1134.76
599.04	1133.36
599.39	1088.54
599.74	1086.71
600.09	1087.60
600.44	1085.33
600.78	1086.31
601.13	1084.11
601.48	1081.44
601.83	1081.51
602.18	1082.36
602.53	1082.83
602.88	1083.97
603.22	1085.24
603.57	1082.80
603.92	1080.88
604.27	1079.06
604.62	1079.81
604.97	1078.52
605.31	1078.96
605.66	1083.90
606.01	1083.39
606.36	1085.10
606.71	1088.91
607.05	1089.12
607.40	1086.50
607.75	1087.60
608.10	1086.92
608.44	1086.94
608.79	1089.75
609.14	1092.96
609.49	1096.96
609.84	1097.43
610.18	1097.01
610.53	1098.02
610.88	1101.06
611.23	1105.69
611.57	1110.33
611.92	1112.32
612.27	1113.51
612.62	1112.01
612.96	1107.89
613.31	1102.67
613.66	1099.30
614.00	1096.03
614.35	1093.43
614.70	1092.89
615.05	1090.27
615.39	1090.22
615.74	1093.33
616.09	1095.39
616.43	1093.71
616.78	1098.09
617.13	1097.24
617.47	1094.13
617.82	1089.29
618.17	1092.96
618.51	1092.61
618.86	1091.70
619.21	1093.15
619.55	1095.58
619.90	1091.16
620.25	1087.76
620.59	1089.50
620.94	1086.10
621.29	1082.78
621.63	1082.03
621.98	1086.27
622.32	1086.94
622.67	1090.29
623.02	1093.08
623.36	1094.67
623.71	1091.56
624.05	1089.38
624.40	1088.12
624.75	1088.89
625.09	1087.48
625.44	1090.76
625.78	1089.94
626.13	1087.20
626.48	1087.39
626.82	1086.55
627.17	1083.88
627.51	1084.44
627.86	1085.45
628.20	1081.40
628.55	1080.74
628.89	1081.63
629.24	1083.50
629.58	1083.20
629.93	1086.45
630.28	1087.16
630.62	1085.07
630.97	1081.12
631.31	1083.27
631.66	1083.81
632.00	1084.44
632.35	1087.32
632.69	1088.82
633.04	1085.84
633.38	1083.76
633.73	1083.11
634.07	1079.62
634.42	1081.19
634.76	1082.76
635.11	1082.69
635.45	1082.36
635.79	1084.02
636.14	1083.41
636.48	1081.47
636.83	1081.19
637.17	1085.40
637.52	1087.39
637.86	1089.03
638.21	1089.89
638.55	1090.92
638.89	1085.89
639.24	1084.21
639.58	1082.80
639.93	1083.88
640.27	1086.10
640.61	1087.65
640.96	1088.26
641.30	1086.13
641.65	1086.85
641.99	1080.91
642.33	1082.17
642.68	1080.58
643.02	1082.59
643.37	1080.63
643.71	1083.53
644.05	1082.17
644.40	1082.54
644.74	1084.67
645.08	1086.50
645.43	1086.15
645.77	1086.80
646.11	1085.91
646.46	1081.19
646.80	1078.40
647.14	1081.91
647.49	1083.57
647.83	1085.87
648.17	1088.37
648.52	1089.66
648.86	1088.02
649.20	1087.74
649.55	1084.98
649.89	1082.80
650.23	1083.50
650.57	1084.77
650.92	1082.24
651.26	1083.57
651.60	1084.39
651.95	1085.82
652.29	1083.36
652.63	1085.87
652.97	1086.85
653.32	1087.76
653.66	1083.13
654.00	1084.14
654.34	1083.34
654.69	1085.75
655.03	1087.90
655.37	1089.05
655.71	1088.49
656.05	1087.90
656.40	1083.60
656.74	1082.90
657.08	1084.51
657.42	1086.17
657.76	1087.02
658.11	1088.33
658.45	1086.76
658.79	1088.65
659.13	1086.34
659.47	1087.83
659.82	1087.53
660.16	1084.77
660.50	1083.50
660.84	1083.93
661.18	1081.73
661.52	1082.15
661.87	1085.19
662.21	1085.94
662.55	1084.63
662.89	1085.66
663.23	1084.39
663.57	1084.49
663.91	1084.89
664.25	1086.71
664.60	1084.14
664.94	1081.77
665.28	1082.05
665.62	1077.79
665.96	1075.83
666.30	1076.65
666.64	1077.89
666.98	1079.20
667.32	1082.31
667.66	1083.46
668.01	1084.84
668.35	1085.99
668.69	1085.75
669.03	1085.05
669.37	1082.78
669.71	1078.71
670.05	1079.64
670.39	1077.96
670.73	1078.33
671.07	1079.08
671.41	1080.77
671.75	1080.23
672.09	1080.48
672.43	1080.27
672.77	1081.54
673.11	1084.18
673.45	1081.66
673.79	1082.52
674.13	1079.67
674.47	1080.37
674.81	1080.32
675.15	1085.12
675.49	1083.48
675.83	1089.22
676.17	1088.61
676.51	1088.19
676.85	1083.93
677.19	1083.97
677.53	1081.82
677.87	1081.42
678.21	1080.06
678.55	1083.22
678.89	1083.74
679.23	1080.63
679.57	1078.54
679.90	1079.34
680.24	1076.48
680.58	1076.90
680.92	1077.47
681.26	1079.06
681.60	1078.45
681.94	1082.03
682.28	1081.19
682.62	1082.97
682.96	1083.29
683.29	1082.71
683.63	1081.98
683.97	1080.95
684.31	1081.51
684.65	1082.08
684.99	1083.22
685.33	1081.77
685.67	1082.08
686.00	1082.87
686.34	1081.47
686.68	1084.49
687.02	1085.73
687.36	1088.04
687.70	1088.02
688.03	1089.89
688.37	1086.97
688.71	1085.89
689.05	1087.23
689.39	1085.80
689.72	1086.17
690.06	1084.65
690.40	1083.13
690.74	1079.85
691.08	1079.38
691.41	1078.92
691.75	1080.60
692.09	1083.95
692.43	1085.12
692.76	1085.87
693.10	1085.91
693.44	1085.68
693.78	1082.69
694.11	1081.16
694.45	1085.19
694.79	1088.00
695.13	1089.33
695.46	1090.22
695.80	1090.08
696.14	1086.13
696.48	1084.14
696.81	1082.10
697.15	1079.81
697.49	1080.77
697.82	1081.91
698.16	1078.24
698.50	1079.29
698.83	1080.18
699.17	1081.47
699.51	1080.65
699.84	1084.67
700.18	1083.67
700.52	1084.00
700.85	1081.51
701.19	1078.73
701.53	1078.14
701.86	1078.07
702.20	1081.68
702.54	1082.57
702.87	1083.69
703.21	1082.24
703.55	1083.53
703.88	1081.70
704.22	1082.36
704.55	1079.53
704.89	1082.47
705.23	1079.41
705.56	1079.88
705.90	1082.12
706.23	1085.54
706.57	1081.80
706.91	1083.04
707.24	1082.22
707.58	1080.81
707.91	1082.52
708.25	1085.33
708.58	1085.19
708.92	1083.29
709.26	1081.21
709.59	1079.03
709.93	1080.44
710.26	1083.13
710.60	1084.16
710.93	1086.50
711.27	1089.36
711.60	1085.63
711.94	1083.74
712.27	1082.90
712.61	1079.62
712.94	1079.10
713.28	1079.95
713.61	1076.04
713.95	1076.32
714.28	1080.44
714.62	1077.58
714.95	1078.40
715.29	1083.27
715.62	1082.71
715.96	1080.60
716.29	1083.57
716.63	1081.19
716.96	1081.73
717.29	1084.86
717.63	1086.41
717.96	1086.06
718.30	1089.40
718.63	1089.50
718.97	1088.02
719.30	1085.94
719.63	1084.21
719.97	1082.31
720.30	1079.22
720.64	1080.98
720.97	1083.04
721.30	1081.26
721.64	1082.73
721.97	1083.62
722.31	1079.15
722.64	1077.35
722.97	1076.95
723.31	1076.51
723.64	1078.50
723.97	1079.46
724.31	1080.25
724.64	1082.50
724.98	1082.29
725.31	1081.30
725.64	1081.82
725.98	1083.62
726.31	1080.86
726.64	1081.00
726.97	1082.12
727.31	1079.06
727.64	1075.43
727.97	1078.28
728.31	1079.67
728.64	1077.02
728.97	1078.87
729.31	1079.15
729.64	1078.19
729.97	1076.53
730.30	1075.31
730.64	1079.60
730.97	1080.91
731.30	1083.06
731.63	1080.67
731.97	1080.88
732.30	1078.59
732.63	1076.93
732.96	1076.13
733.30	1076.62
733.63	1080.44
733.96	1081.40
734.29	1084.91
734.63	1085.28
734.96	1087.16
735.29	1087.44
735.62	1087.13
735.95	1083.86
736.29	1079.64
736.62	1081.75
736.95	1082.73
737.28	1083.71
737.61	1086.52
737.94	1088.28
738.28	1086.08
738.61	1082.57
738.94	1082.54
739.27	1080.37
739.60	1083.06
739.93	1083.83
740.27	1086.59
740.60	1082.85
740.93	1082.19
741.26	1082.17
741.59	1080.93
741.92	1077.11
742.25	1078.75
742.58	1078.80
742.91	1075.87
743.25	1073.67
743.58	1076.11
743.91	1077.00
744.24	1076.15
744.57	1079.78
744.90	1081.58
745.23	1082.19
745.56	1079.60
745.89	1082.36
746.22	1078.50
746.55	1080.34
746.88	1081.02
747.21	1083.60
747.54	1083.18
747.87	1085.26
748.20	1085.00
748.53	1083.01
748.87	1081.54
749.20	1082.10
749.53	1083.34
749.86	1079.17
750.19	1076.37
750.52	1076.44
750.85	1077.35
751.18	1075.45
751.51	1077.47
751.84	1080.60
752.16	1083.83
752.49	1085.75
752.82	1085.63
753.15	1085.42
753.48	1085.45
753.81	1082.45
754.14	1077.61
754.47	1077.42
754.80	1079.55
755.13	1078.14
755.46	1080.56
755.79	1082.33
756.12	1082.80
756.45	1082.26
756.78	1083.90
757.11	1082.73
757.43	1082.90
757.76	1084.58
758.09	1082.15
758.42	1078.19
758.75	1077.18
759.08	1075.62
759.41	1074.87
759.74	1075.43
760.07	1077.51
760.39	1076.67
760.72	1079.55
761.05	1078.82
761.38	1080.02
761.71	1079.85
762.04	1079.78
762.36	1078.00
762.69	1079.60
763.02	1078.78
763.35	1076.30
763.68	1080.65
764.01	1082.43
764.33	1083.18
764.66	1083.15
764.99	1087.06
765.32	1083.74
765.65	1081.37
765.97	1080.58
766.30	1080.77
