SpectraSuite Data File
++++++++++++++++++++++++++++++++++++
Date: Mon Aug 26 10:26:58 PDT 2019
User: corrico
Dark Spectrum Present: No
Reference Spectrum Present: No
Number of Sampled Component Spectra: 1
Spectrometers: USB2+H06089
Integration Time (usec): 10000 (USB2+H06089)
Spectra Averaged: 20 (USB2+H06089)
Boxcar Smoothing: 2 (USB2+H06089)
Correct for Electrical Dark: No (USB2+H06089)
Strobe/Lamp Enabled: No (USB2+H06089)
Correct for Detector Non-linearity: No (USB2+H06089)
Correct for Stray Light: No (USB2+H06089)
Number of Pixels in Processed Spectrum: 2048
>>>>>Begin Processed Spectral Data<<<<<
339.70	1037.09
340.07	1037.09
340.45	1002.69
340.82	978.81
341.19	952.08
341.57	928.94
341.94	918.15
342.31	909.53
342.69	905.44
343.06	905.79
343.43	904.59
343.81	906.11
344.18	908.62
344.55	912.18
344.93	915.13
345.30	919.81
345.67	924.44
346.04	930.69
346.42	941.97
346.79	953.02
347.16	958.82
347.54	967.86
347.91	976.12
348.28	981.88
348.65	989.77
349.03	997.72
349.40	1008.86
349.77	1018.16
350.14	1028.27
350.52	1035.38
350.89	1042.83
351.26	1044.07
351.63	1048.79
352.01	1050.69
352.38	1050.95
352.75	1054.95
353.12	1060.87
353.50	1063.24
353.87	1069.60
354.24	1073.86
354.61	1079.69
354.98	1080.46
355.36	1083.57
355.73	1081.33
356.10	1084.89
356.47	1083.08
356.84	1085.63
357.22	1085.91
357.59	1084.16
357.96	1080.44
358.33	1081.12
358.70	1076.69
359.08	1074.91
359.45	1076.62
359.82	1078.82
360.19	1074.94
360.56	1076.72
360.94	1077.30
361.31	1077.07
361.68	1074.66
362.05	1078.80
362.42	1079.97
362.79	1078.99
363.16	1077.54
363.54	1075.62
363.91	1071.87
364.28	1069.34
364.65	1070.44
365.02	1070.87
365.39	1073.04
365.76	1072.64
366.14	1073.53
366.51	1072.53
366.88	1071.99
367.25	1071.01
367.62	1072.76
367.99	1072.22
368.36	1068.81
368.73	1070.28
369.10	1068.43
369.48	1067.57
369.85	1069.62
370.22	1073.84
370.59	1070.14
370.96	1070.14
371.33	1067.87
371.70	1066.30
372.07	1061.50
372.44	1065.69
372.81	1067.68
373.18	1069.41
373.55	1072.20
373.93	1075.08
374.30	1071.92
374.67	1074.28
375.04	1072.41
375.41	1070.30
375.78	1070.82
376.15	1070.61
376.52	1070.37
376.89	1070.07
377.26	1069.86
377.63	1068.50
378.00	1068.03
378.37	1066.79
378.74	1068.59
379.11	1067.31
379.48	1068.76
379.85	1070.54
380.22	1070.35
380.59	1068.78
380.96	1069.53
381.33	1069.53
381.70	1069.58
382.07	1071.50
382.44	1074.82
382.81	1076.39
383.18	1078.78
383.55	1078.64
383.92	1078.52
384.29	1076.69
384.66	1074.68
385.03	1068.76
385.40	1068.24
385.77	1064.73
386.14	1066.04
386.51	1066.47
386.88	1070.70
387.25	1071.24
387.62	1075.08
387.99	1073.84
388.36	1072.27
388.73	1072.27
389.10	1071.75
389.46	1070.63
389.83	1071.50
390.20	1074.07
390.57	1073.98
390.94	1074.96
391.31	1075.17
391.68	1076.25
392.05	1074.31
392.42	1073.60
392.79	1076.60
393.16	1073.11
393.53	1071.08
393.89	1075.59
394.26	1075.76
394.63	1072.90
395.00	1076.04
395.37	1076.88
395.74	1077.79
396.11	1077.42
396.48	1075.38
396.84	1074.38
397.21	1073.70
397.58	1070.16
397.95	1071.92
398.32	1072.88
398.69	1074.21
399.06	1076.60
399.42	1074.77
399.79	1075.03
400.16	1077.65
400.53	1077.35
400.90	1076.39
401.27	1080.04
401.64	1078.00
402.00	1077.42
402.37	1079.36
402.74	1077.84
403.11	1078.19
403.48	1080.70
403.84	1080.16
404.21	1074.24
404.58	1076.79
404.95	1075.01
405.32	1072.48
405.68	1070.05
406.05	1076.72
406.42	1073.81
406.79	1076.15
407.16	1076.72
407.52	1079.31
407.89	1076.48
408.26	1077.44
408.63	1072.81
408.99	1072.39
409.36	1073.11
409.73	1073.14
410.10	1074.49
410.47	1073.18
410.83	1074.31
411.20	1073.67
411.57	1072.74
411.94	1071.97
412.30	1076.11
412.67	1075.31
413.04	1075.80
413.40	1077.33
413.77	1076.60
414.14	1076.93
414.51	1078.36
414.87	1075.05
415.24	1074.73
415.61	1074.31
415.97	1075.38
416.34	1074.07
416.71	1076.48
417.08	1076.79
417.44	1076.81
417.81	1077.44
418.18	1077.44
418.54	1075.22
418.91	1074.61
419.28	1076.97
419.64	1075.05
420.01	1074.03
420.38	1072.69
420.74	1072.01
421.11	1070.72
421.48	1071.94
421.84	1074.45
422.21	1076.20
422.58	1076.20
422.94	1077.35
423.31	1077.16
423.68	1077.44
424.04	1077.89
424.41	1080.39
424.77	1079.01
425.14	1076.23
425.51	1074.24
425.87	1076.83
426.24	1070.54
426.61	1071.92
426.97	1075.73
427.34	1075.71
427.70	1075.05
428.07	1081.89
428.44	1080.72
428.80	1076.53
429.17	1077.96
429.53	1076.90
429.90	1074.28
430.27	1075.10
430.63	1077.65
431.00	1078.10
431.36	1078.24
431.73	1079.22
432.09	1078.80
432.46	1076.60
432.83	1073.51
433.19	1075.69
433.56	1077.23
433.92	1073.30
434.29	1073.88
434.65	1077.33
435.02	1076.93
435.38	1072.69
435.75	1076.34
436.11	1073.65
436.48	1070.98
436.84	1068.99
437.21	1071.94
437.57	1072.57
437.94	1073.21
438.30	1074.87
438.67	1074.98
439.03	1074.28
439.40	1074.19
439.76	1080.81
440.13	1078.57
440.49	1081.28
440.86	1080.70
441.22	1080.63
441.59	1075.41
441.95	1078.33
442.32	1077.75
442.68	1077.86
443.05	1078.47
443.41	1081.63
443.78	1080.30
444.14	1080.32
444.51	1078.40
444.87	1079.81
445.24	1077.28
445.60	1078.19
445.96	1076.30
446.33	1076.88
446.69	1073.00
447.06	1074.52
447.42	1073.04
447.79	1075.69
448.15	1077.65
448.51	1083.32
448.88	1082.36
449.24	1082.85
449.61	1080.65
449.97	1078.07
450.33	1075.22
450.70	1074.47
451.06	1075.05
451.43	1075.69
451.79	1077.89
452.15	1077.96
452.52	1080.72
452.88	1080.63
453.24	1079.55
453.61	1078.54
453.97	1079.20
454.34	1078.68
454.70	1077.65
455.06	1077.86
455.43	1080.88
455.79	1078.75
456.15	1077.11
456.52	1077.77
456.88	1079.99
457.24	1080.88
457.61	1079.92
457.97	1080.02
458.33	1082.47
458.70	1082.36
459.06	1080.53
459.42	1083.69
459.79	1083.62
460.15	1080.98
460.51	1080.72
460.88	1077.75
461.24	1077.91
461.60	1076.15
461.96	1075.59
462.33	1072.39
462.69	1076.76
463.05	1073.58
463.42	1077.58
463.78	1079.62
464.14	1079.97
464.50	1077.14
464.87	1080.67
465.23	1077.16
465.59	1078.87
465.95	1079.53
466.32	1079.50
466.68	1078.40
467.04	1081.23
467.40	1075.24
467.77	1072.78
468.13	1072.34
468.49	1069.02
468.85	1068.31
469.22	1072.22
469.58	1074.63
469.94	1078.28
470.30	1080.11
470.66	1078.38
471.03	1080.25
471.39	1080.46
471.75	1076.15
472.11	1076.08
472.47	1078.57
472.84	1076.46
473.20	1078.10
473.56	1083.83
473.92	1082.80
474.28	1081.42
474.65	1079.92
475.01	1079.03
475.37	1072.39
475.73	1074.82
476.09	1074.75
476.45	1076.74
476.81	1076.74
477.18	1078.61
477.54	1078.33
477.90	1077.51
478.26	1075.59
478.62	1075.36
478.98	1077.40
479.34	1075.94
479.71	1078.85
480.07	1082.80
480.43	1083.50
480.79	1081.14
481.15	1084.11
481.51	1081.82
481.87	1081.02
482.23	1083.79
482.59	1086.31
482.96	1085.68
483.32	1087.51
483.68	1084.70
484.04	1082.50
484.40	1080.27
484.76	1078.82
485.12	1076.58
485.48	1076.90
485.84	1075.34
486.20	1078.05
486.56	1080.37
486.92	1082.33
487.28	1082.54
487.64	1080.34
488.00	1076.44
488.37	1073.28
488.73	1072.60
489.09	1075.57
489.45	1077.04
489.81	1079.46
490.17	1080.84
490.53	1080.32
490.89	1079.83
491.25	1081.05
491.61	1082.69
491.97	1083.60
492.33	1082.33
492.69	1081.89
493.05	1083.20
493.41	1082.43
493.77	1084.58
494.13	1088.96
494.49	1084.21
494.85	1084.14
495.21	1082.10
495.57	1080.74
495.93	1077.02
496.29	1083.41
496.64	1083.60
497.00	1084.42
497.36	1083.22
497.72	1084.00
498.08	1082.71
498.44	1081.14
498.80	1082.76
499.16	1080.02
499.52	1080.93
499.88	1078.21
500.24	1076.60
500.60	1075.66
500.96	1079.46
501.32	1079.17
501.68	1079.83
502.03	1082.83
502.39	1081.14
502.75	1077.96
503.11	1077.89
503.47	1078.26
503.83	1076.58
504.19	1078.28
504.55	1080.93
504.91	1079.38
505.26	1078.54
505.62	1079.24
505.98	1081.19
506.34	1082.92
506.70	1084.60
507.06	1083.97
507.42	1087.25
507.78	1086.08
508.13	1085.63
508.49	1085.14
508.85	1087.20
509.21	1084.23
509.57	1081.96
509.93	1080.88
510.28	1080.60
510.64	1082.38
511.00	1080.95
511.36	1082.83
511.72	1081.00
512.07	1083.57
512.43	1082.45
512.79	1080.88
513.15	1079.57
513.51	1079.20
513.86	1079.50
514.22	1078.82
514.58	1083.04
514.94	1084.25
515.30	1085.91
515.65	1082.80
516.01	1084.63
516.37	1083.67
516.73	1083.67
517.08	1081.23
517.44	1080.48
517.80	1077.61
518.16	1077.44
518.51	1078.33
518.87	1079.43
519.23	1080.63
519.59	1081.51
519.94	1082.17
520.30	1081.89
520.66	1080.18
521.01	1081.12
521.37	1081.68
521.73	1081.28
522.09	1081.37
522.44	1083.79
522.80	1084.09
523.16	1085.52
523.51	1084.30
523.87	1082.61
524.23	1082.19
524.58	1080.20
524.94	1078.57
525.30	1078.87
525.65	1080.46
526.01	1082.71
526.37	1084.25
526.72	1082.85
527.08	1083.50
527.44	1084.86
527.79	1081.98
528.15	1084.58
528.51	1085.21
528.86	1089.31
529.22	1089.89
529.58	1092.14
529.93	1089.94
530.29	1090.88
530.65	1086.90
531.00	1083.60
531.36	1084.00
531.71	1082.94
532.07	1083.15
532.43	1085.26
532.78	1088.14
533.14	1084.56
533.49	1083.74
533.85	1083.43
534.21	1080.58
534.56	1080.67
534.92	1085.35
535.27	1088.54
535.63	1091.16
535.98	1089.10
536.34	1089.57
536.69	1087.02
537.05	1083.69
537.41	1079.17
537.76	1084.77
538.12	1083.46
538.47	1083.67
538.83	1086.52
539.18	1086.78
539.54	1085.91
539.89	1085.12
540.25	1084.21
540.60	1085.80
540.96	1089.78
541.31	1088.30
541.67	1090.83
542.02	1092.42
542.38	1088.96
542.73	1087.27
543.09	1086.48
543.44	1082.10
543.80	1081.40
544.15	1083.11
544.51	1082.69
544.86	1082.43
545.22	1085.40
545.57	1086.15
545.93	1085.10
546.28	1084.07
546.64	1083.86
546.99	1081.44
547.35	1077.93
547.70	1076.90
548.05	1078.75
548.41	1079.62
548.76	1083.36
549.12	1086.41
549.47	1087.11
549.83	1086.29
550.18	1087.34
550.53	1086.31
550.89	1086.34
551.24	1084.91
551.60	1086.17
551.95	1084.42
552.30	1081.96
552.66	1079.17
553.01	1081.51
553.37	1081.51
553.72	1084.23
554.07	1084.35
554.43	1086.97
554.78	1088.61
555.13	1084.91
555.49	1080.16
555.84	1084.00
556.19	1085.31
556.55	1082.45
556.90	1086.99
557.26	1089.68
557.61	1085.14
557.96	1084.77
558.32	1085.12
558.67	1084.18
559.02	1083.69
559.37	1085.10
559.73	1084.86
560.08	1085.21
560.43	1082.05
560.79	1081.70
561.14	1081.61
561.49	1081.16
561.85	1081.73
562.20	1082.36
562.55	1079.15
562.90	1076.30
563.26	1074.75
563.61	1074.70
563.96	1074.61
564.32	1078.19
564.67	1081.42
565.02	1081.44
565.37	1081.58
565.73	1082.50
566.08	1083.97
566.43	1081.19
566.78	1083.20
567.14	1081.84
567.49	1082.97
567.84	1081.87
568.19	1085.26
568.54	1082.54
568.90	1082.19
569.25	1079.88
569.60	1076.93
569.95	1075.08
570.31	1076.25
570.66	1076.88
571.01	1077.86
571.36	1080.30
571.71	1079.01
572.06	1081.87
572.42	1080.51
572.77	1081.56
573.12	1080.77
573.47	1080.04
573.82	1079.08
574.18	1079.81
574.53	1079.13
574.88	1079.01
575.23	1082.69
575.58	1081.91
575.93	1085.19
576.28	1083.43
576.64	1085.38
576.99	1083.88
577.34	1084.60
577.69	1083.48
578.04	1085.19
578.39	1083.55
578.74	1083.69
579.09	1081.47
579.44	1078.17
579.80	1079.03
580.15	1081.91
580.50	1080.58
580.85	1081.33
581.20	1085.24
581.55	1085.40
581.90	1084.77
582.25	1084.79
582.60	1086.01
582.95	1084.07
583.30	1079.62
583.65	1078.78
584.00	1081.26
584.35	1079.74
584.71	1080.79
585.06	1083.69
585.41	1084.14
585.76	1082.87
586.11	1082.61
586.46	1083.81
586.81	1084.53
587.16	1082.52
587.51	1084.84
587.86	1086.22
588.21	1084.91
588.56	1085.49
588.91	1088.09
589.26	1083.95
589.61	1081.84
589.96	1080.32
590.31	1081.00
590.66	1081.28
591.01	1087.48
591.36	1089.89
591.71	1093.99
592.06	1090.85
592.41	1092.37
592.76	1088.47
593.10	1086.85
593.45	1082.17
593.80	1083.83
594.15	1082.64
594.50	1081.37
594.85	1080.98
595.20	1082.73
595.55	1082.40
595.90	1081.40
596.25	1084.23
596.60	1086.38
596.95	1086.06
597.30	1086.87
597.64	1135.63
597.99	1136.33
598.34	1137.59
598.69	1138.51
599.04	1138.48
599.39	1089.17
599.74	1088.72
600.09	1086.78
600.44	1086.52
600.78	1087.46
601.13	1088.14
601.48	1087.23
601.83	1086.62
602.18	1085.61
602.53	1082.50
602.88	1081.30
603.22	1079.83
603.57	1079.81
603.92	1079.24
604.27	1083.53
604.62	1083.32
604.97	1084.23
605.31	1087.32
605.66	1086.43
606.01	1084.96
606.36	1085.61
606.71	1086.20
607.05	1084.16
607.40	1089.33
607.75	1089.52
608.10	1087.97
608.44	1085.42
608.79	1085.68
609.14	1082.57
609.49	1081.09
609.84	1082.03
610.18	1086.13
610.53	1087.93
610.88	1090.97
611.23	1099.00
611.57	1102.32
611.92	1101.41
612.27	1102.11
612.62	1103.23
612.96	1095.30
613.31	1093.15
613.66	1091.88
614.00	1089.57
614.35	1085.63
614.70	1087.04
615.05	1086.62
615.39	1085.91
615.74	1083.69
616.09	1083.93
616.43	1082.17
616.78	1081.82
617.13	1082.15
617.47	1084.91
617.82	1083.79
618.17	1086.13
618.51	1089.38
618.86	1089.85
619.21	1088.40
619.55	1092.47
619.90	1091.09
620.25	1090.39
620.59	1089.26
620.94	1086.27
621.29	1083.55
621.63	1082.87
621.98	1083.11
622.32	1081.91
622.67	1084.74
623.02	1084.09
623.36	1087.23
623.71	1085.77
624.05	1085.94
624.40	1083.97
624.75	1082.19
625.09	1080.44
625.44	1077.89
625.78	1081.61
626.13	1086.69
626.48	1090.62
626.82	1090.71
627.17	1090.99
627.51	1086.90
627.86	1084.21
628.20	1083.43
628.55	1083.39
628.89	1086.29
629.24	1089.80
629.58	1089.99
629.93	1089.66
630.28	1087.53
630.62	1084.32
630.97	1083.64
631.31	1082.05
631.66	1079.99
632.00	1079.92
632.35	1078.43
632.69	1075.36
633.04	1076.30
633.38	1077.00
633.73	1075.71
634.07	1078.94
634.42	1083.46
634.76	1083.55
635.11	1083.71
635.45	1085.59
635.79	1085.21
636.14	1084.58
636.48	1087.51
636.83	1084.35
637.17	1083.15
637.52	1084.49
637.86	1085.66
638.21	1082.61
638.55	1084.39
638.89	1083.69
639.24	1081.98
639.58	1078.12
639.93	1077.89
640.27	1079.46
640.61	1082.29
640.96	1079.08
641.30	1078.85
641.65	1081.19
641.99	1081.30
642.33	1083.25
642.68	1087.23
643.02	1089.82
643.37	1086.48
643.71	1082.54
644.05	1078.07
644.40	1079.10
644.74	1076.13
645.08	1077.82
645.43	1082.47
645.77	1087.48
646.11	1085.70
646.46	1088.54
646.80	1085.42
647.14	1082.33
647.49	1078.12
647.83	1077.72
648.17	1077.09
648.52	1079.83
648.86	1080.18
649.20	1084.21
649.55	1084.81
649.89	1082.05
650.23	1079.62
650.57	1083.41
650.92	1076.60
651.26	1072.43
651.60	1074.24
651.95	1075.92
652.29	1075.59
652.63	1079.29
652.97	1084.44
653.32	1083.13
653.66	1081.84
654.00	1077.96
654.34	1079.20
654.69	1075.10
655.03	1075.87
655.37	1076.32
655.71	1075.97
656.05	1078.57
656.40	1081.80
656.74	1080.46
657.08	1081.49
657.42	1085.03
657.76	1082.90
658.11	1084.23
658.45	1087.04
658.79	1087.11
659.13	1084.86
659.47	1081.40
659.82	1080.98
660.16	1079.76
660.50	1078.71
660.84	1079.60
661.18	1083.36
661.52	1083.22
661.87	1082.87
662.21	1084.56
662.55	1085.42
662.89	1083.06
663.23	1082.33
663.57	1084.39
663.91	1084.86
664.25	1085.45
664.60	1088.49
664.94	1089.29
665.28	1086.17
665.62	1084.74
665.96	1084.37
666.30	1081.77
666.64	1082.24
666.98	1083.97
667.32	1084.46
667.66	1082.40
668.01	1082.78
668.35	1080.06
668.69	1082.33
669.03	1084.81
669.37	1084.16
669.71	1084.21
670.05	1086.29
670.39	1084.07
670.73	1082.59
671.07	1083.55
671.41	1080.65
671.75	1082.15
672.09	1082.26
672.43	1082.33
672.77	1081.51
673.11	1081.40
673.45	1079.97
673.79	1081.87
674.13	1081.44
674.47	1082.97
674.81	1086.31
675.15	1087.11
675.49	1085.12
675.83	1083.88
676.17	1081.09
676.51	1080.23
676.85	1078.10
677.19	1078.82
677.53	1077.89
677.87	1081.49
678.21	1081.56
678.55	1083.11
678.89	1081.56
679.23	1085.33
679.57	1083.41
679.90	1084.18
680.24	1081.94
680.58	1082.01
680.92	1078.85
681.26	1079.48
681.60	1078.24
681.94	1078.87
682.28	1081.44
682.62	1082.61
682.96	1080.25
683.29	1079.62
683.63	1081.56
683.97	1078.43
684.31	1077.37
684.65	1076.30
684.99	1075.17
685.33	1077.21
685.67	1078.19
686.00	1078.38
686.34	1083.55
686.68	1085.00
687.02	1081.33
687.36	1081.80
687.70	1079.88
688.03	1077.86
688.37	1077.33
688.71	1077.37
689.05	1078.36
689.39	1080.13
689.72	1080.11
690.06	1081.91
690.40	1084.18
690.74	1085.94
691.08	1085.56
691.41	1086.22
691.75	1088.16
692.09	1085.24
692.43	1082.71
692.76	1084.39
693.10	1083.15
693.44	1081.51
693.78	1084.93
694.11	1083.50
694.45	1083.11
694.79	1083.64
695.13	1082.22
695.46	1081.02
695.80	1080.41
696.14	1078.52
696.48	1080.16
696.81	1083.67
697.15	1084.63
697.49	1084.70
697.82	1083.79
698.16	1080.44
698.50	1078.36
698.83	1077.70
699.17	1080.30
699.51	1080.41
699.84	1079.99
700.18	1076.25
700.52	1075.80
700.85	1077.33
701.19	1079.83
701.53	1080.91
701.86	1084.46
702.20	1082.97
702.54	1078.82
702.87	1078.61
703.21	1080.98
703.55	1078.07
703.88	1076.25
704.22	1077.14
704.55	1077.63
704.89	1076.69
705.23	1079.74
705.56	1081.70
705.90	1083.86
706.23	1084.70
706.57	1087.23
706.91	1083.97
707.24	1084.86
707.58	1085.70
707.91	1087.53
708.25	1087.18
708.58	1088.21
708.92	1087.88
709.26	1088.56
709.59	1084.53
709.93	1081.49
710.26	1082.54
710.60	1082.12
710.93	1077.33
711.27	1077.21
711.60	1078.19
711.94	1080.39
712.27	1081.49
712.61	1080.37
712.94	1078.57
713.28	1078.17
713.61	1075.52
713.95	1074.63
714.28	1078.19
714.62	1081.23
714.95	1081.00
715.29	1082.15
715.62	1080.09
715.96	1078.59
716.29	1081.16
716.63	1083.93
716.96	1084.32
717.29	1086.03
717.63	1087.25
717.96	1080.81
718.30	1078.38
718.63	1079.03
718.97	1080.46
719.30	1079.85
719.63	1085.24
719.97	1087.04
720.30	1085.12
720.64	1081.70
720.97	1082.83
721.30	1079.57
721.64	1078.54
721.97	1081.16
722.31	1087.27
722.64	1085.26
722.97	1087.34
723.31	1087.90
723.64	1084.00
723.97	1078.64
724.31	1083.22
724.64	1082.90
724.98	1081.87
725.31	1084.51
725.64	1085.52
725.98	1080.60
726.31	1081.54
726.64	1082.33
726.97	1083.04
727.31	1082.38
727.64	1084.49
727.97	1085.14
728.31	1083.64
728.64	1083.48
728.97	1082.08
729.31	1080.91
729.64	1079.38
729.97	1082.33
730.30	1082.01
730.64	1081.94
730.97	1083.27
731.30	1085.14
731.63	1084.25
731.97	1083.06
732.30	1086.94
732.63	1088.14
732.96	1085.10
733.30	1082.15
733.63	1082.50
733.96	1079.76
734.29	1078.82
734.63	1081.07
734.96	1083.93
735.29	1082.92
735.62	1083.76
735.95	1083.57
736.29	1083.08
736.62	1081.42
736.95	1083.32
737.28	1083.86
737.61	1086.48
737.94	1087.76
738.28	1086.78
738.61	1084.63
738.94	1083.60
739.27	1082.10
739.60	1081.19
739.93	1083.29
740.27	1083.79
740.60	1083.25
740.93	1080.88
741.26	1078.17
741.59	1075.43
741.92	1075.24
742.25	1077.35
742.58	1079.01
742.91	1080.60
743.25	1082.43
743.58	1084.07
743.91	1084.25
744.24	1082.31
744.57	1079.92
744.90	1078.61
745.23	1079.17
745.56	1078.24
745.89	1078.07
746.22	1079.95
746.55	1079.17
746.88	1077.00
747.21	1075.94
747.54	1079.43
747.87	1080.95
748.20	1083.76
748.53	1082.76
748.87	1083.08
749.20	1082.26
749.53	1078.66
749.86	1079.90
750.19	1081.40
750.52	1085.31
750.85	1084.39
751.18	1085.52
751.51	1083.15
751.84	1081.30
752.16	1075.90
752.49	1075.17
752.82	1074.87
753.15	1075.17
753.48	1077.58
753.81	1079.22
754.14	1078.66
754.47	1080.09
754.80	1080.46
755.13	1079.85
755.46	1082.40
755.79	1085.14
756.12	1088.51
756.45	1089.92
756.78	1089.59
757.11	1089.45
757.43	1086.85
757.76	1082.17
758.09	1083.55
758.42	1085.35
758.75	1085.33
759.08	1085.52
759.41	1087.67
759.74	1084.39
760.07	1083.60
760.39	1083.48
760.72	1085.05
761.05	1084.18
761.38	1085.82
761.71	1084.79
762.04	1082.92
762.36	1083.32
762.69	1083.74
763.02	1082.61
763.35	1080.95
763.68	1078.26
764.01	1072.57
764.33	1075.10
764.66	1073.11
764.99	1075.71
765.32	1077.47
765.65	1083.11
765.97	1078.54
766.30	1080.72
