SpectraSuite Data File
++++++++++++++++++++++++++++++++++++
Date: Mon Aug 26 10:27:03 PDT 2019
User: corrico
Dark Spectrum Present: No
Reference Spectrum Present: No
Number of Sampled Component Spectra: 1
Spectrometers: USB2+H06089
Integration Time (usec): 10000 (USB2+H06089)
Spectra Averaged: 20 (USB2+H06089)
Boxcar Smoothing: 2 (USB2+H06089)
Correct for Electrical Dark: No (USB2+H06089)
Strobe/Lamp Enabled: No (USB2+H06089)
Correct for Detector Non-linearity: No (USB2+H06089)
Correct for Stray Light: No (USB2+H06089)
Number of Pixels in Processed Spectrum: 2048
>>>>>Begin Processed Spectral Data<<<<<
339.70	1032.76
340.07	1032.76
340.45	999.50
340.82	979.89
341.19	957.49
341.57	931.93
341.94	923.36
342.31	915.80
342.69	910.35
343.06	907.07
343.43	906.82
343.81	905.44
344.18	906.96
344.55	910.05
344.93	915.27
345.30	923.11
345.67	927.84
346.04	936.61
346.42	942.63
346.79	949.23
347.16	955.29
347.54	965.26
347.91	973.15
348.28	983.63
348.65	993.91
349.03	1005.52
349.40	1012.94
349.77	1022.88
350.14	1028.29
350.52	1034.91
350.89	1038.82
351.26	1045.66
351.63	1048.91
352.01	1056.03
352.38	1061.64
352.75	1063.73
353.12	1065.06
353.50	1069.70
353.87	1070.70
354.24	1073.74
354.61	1078.50
354.98	1080.32
355.36	1080.51
355.73	1083.57
356.10	1080.95
356.47	1079.13
356.84	1080.63
357.22	1082.80
357.59	1081.00
357.96	1079.74
358.33	1080.81
358.70	1081.16
359.08	1080.11
359.45	1078.00
359.82	1078.40
360.19	1076.39
360.56	1075.34
360.94	1074.75
361.31	1075.03
361.68	1075.73
362.05	1075.90
362.42	1076.15
362.79	1075.69
363.16	1074.28
363.54	1074.73
363.91	1072.08
364.28	1071.66
364.65	1068.48
365.02	1069.11
365.39	1064.62
365.76	1065.62
366.14	1063.09
366.51	1065.46
366.88	1067.03
367.25	1066.68
367.62	1067.42
367.99	1069.91
368.36	1066.18
368.73	1065.86
369.10	1065.90
369.48	1065.69
369.85	1066.23
370.22	1065.58
370.59	1064.78
370.96	1067.40
371.33	1068.62
371.70	1064.94
372.07	1066.98
372.44	1069.16
372.81	1067.59
373.18	1066.14
373.55	1070.84
373.93	1072.78
374.30	1068.62
374.67	1067.85
375.04	1066.58
375.41	1063.77
375.78	1063.38
376.15	1064.66
376.52	1068.36
376.89	1073.67
377.26	1076.32
377.63	1076.81
378.00	1079.03
378.37	1074.54
378.74	1070.80
379.11	1070.00
379.48	1070.21
379.85	1070.63
380.22	1074.96
380.59	1077.82
380.96	1078.43
381.33	1074.52
381.70	1075.13
382.07	1070.91
382.44	1067.61
382.81	1063.00
383.18	1067.10
383.55	1067.17
383.92	1073.81
384.29	1077.47
384.66	1080.74
385.03	1078.47
385.40	1081.05
385.77	1077.44
386.14	1077.56
386.51	1076.69
386.88	1078.87
387.25	1075.73
387.62	1076.46
387.99	1073.88
388.36	1076.25
388.73	1074.91
389.10	1075.36
389.46	1076.81
389.83	1076.67
390.20	1076.74
390.57	1076.44
390.94	1077.63
391.31	1074.10
391.68	1074.42
392.05	1074.61
392.42	1073.51
392.79	1071.43
393.16	1074.84
393.53	1076.62
393.89	1079.53
394.26	1085.42
394.63	1085.54
395.00	1085.40
395.37	1084.14
395.74	1079.27
396.11	1075.22
396.48	1075.66
396.84	1077.61
397.21	1077.33
397.58	1077.37
397.95	1076.72
398.32	1076.79
398.69	1075.43
399.06	1076.39
399.42	1075.73
399.79	1074.66
400.16	1073.39
400.53	1072.27
400.90	1072.64
401.27	1074.61
401.64	1078.96
402.00	1079.50
402.37	1079.15
402.74	1077.28
403.11	1076.69
403.48	1074.80
403.84	1070.05
404.21	1068.03
404.58	1068.83
404.95	1069.06
405.32	1066.98
405.68	1070.47
406.05	1073.49
406.42	1072.76
406.79	1071.73
407.16	1076.44
407.52	1078.57
407.89	1078.68
408.26	1081.54
408.63	1082.50
408.99	1080.48
409.36	1079.97
409.73	1079.88
410.10	1080.04
410.47	1080.53
410.83	1078.17
411.20	1078.14
411.57	1078.54
411.94	1076.13
412.30	1078.59
412.67	1077.84
413.04	1079.71
413.40	1078.75
413.77	1078.40
414.14	1074.40
414.51	1075.99
414.87	1073.81
415.24	1074.03
415.61	1075.01
415.97	1076.15
416.34	1074.80
416.71	1079.20
417.08	1080.06
417.44	1078.94
417.81	1077.18
418.18	1080.41
418.54	1075.92
418.91	1073.53
419.28	1075.20
419.64	1075.34
420.01	1076.74
420.38	1076.30
420.74	1080.16
421.11	1079.90
421.48	1081.73
421.84	1077.37
422.21	1076.79
422.58	1076.23
422.94	1076.13
423.31	1075.97
423.68	1077.30
424.04	1079.95
424.41	1075.78
424.77	1074.91
425.14	1076.76
425.51	1076.15
425.87	1075.78
426.24	1078.71
426.61	1081.77
426.97	1082.87
427.34	1083.53
427.70	1081.63
428.07	1078.45
428.44	1073.63
428.80	1069.74
429.17	1069.86
429.53	1070.94
429.90	1071.52
430.27	1072.25
430.63	1072.25
431.00	1074.40
431.36	1077.82
431.73	1083.08
432.09	1083.11
432.46	1085.05
432.83	1084.74
433.19	1079.83
433.56	1076.44
433.92	1079.13
434.29	1076.95
434.65	1074.66
435.02	1073.70
435.38	1074.47
435.75	1075.15
436.11	1076.79
436.48	1084.28
436.84	1087.76
437.21	1087.46
437.57	1085.63
437.94	1086.45
438.30	1079.76
438.67	1078.54
439.03	1077.84
439.40	1075.97
439.76	1074.05
440.13	1073.56
440.49	1074.17
440.86	1074.07
441.22	1078.33
441.59	1076.60
441.95	1077.28
442.32	1077.47
442.68	1076.51
443.05	1075.55
443.41	1079.85
443.78	1081.82
444.14	1082.22
444.51	1082.50
444.87	1085.40
445.24	1083.93
445.60	1081.87
445.96	1082.17
446.33	1083.43
446.69	1080.79
447.06	1081.49
447.42	1081.26
447.79	1080.34
448.15	1075.34
448.51	1072.43
448.88	1069.86
449.24	1069.20
449.61	1070.12
449.97	1076.20
450.33	1079.57
450.70	1082.03
451.06	1084.46
451.43	1083.64
451.79	1084.63
452.15	1084.81
452.52	1084.37
452.88	1080.91
453.24	1081.12
453.61	1078.71
453.97	1076.97
454.34	1073.35
454.70	1074.42
455.06	1072.11
455.43	1070.40
455.79	1069.02
456.15	1071.10
456.52	1074.66
456.88	1076.51
457.24	1077.02
457.61	1080.58
457.97	1084.39
458.33	1082.57
458.70	1081.51
459.06	1083.08
459.42	1080.70
459.79	1079.34
460.15	1079.50
460.51	1082.69
460.88	1082.78
461.24	1085.42
461.60	1083.97
461.96	1081.37
462.33	1078.28
462.69	1075.71
463.05	1072.69
463.42	1072.50
463.78	1073.93
464.14	1072.25
464.50	1075.50
464.87	1080.46
465.23	1082.26
465.59	1084.39
465.95	1085.21
466.32	1084.28
466.68	1080.32
467.04	1081.66
467.40	1078.50
467.77	1076.20
468.13	1074.03
468.49	1072.50
468.85	1069.02
469.22	1072.32
469.58	1077.09
469.94	1079.81
470.30	1079.43
470.66	1077.51
471.03	1077.56
471.39	1076.48
471.75	1079.20
472.11	1084.53
472.47	1084.70
472.84	1084.53
473.20	1087.20
473.56	1083.13
473.92	1080.70
474.28	1086.43
474.65	1085.33
475.01	1086.29
475.37	1088.68
475.73	1089.45
476.09	1088.40
476.45	1088.89
476.81	1085.35
477.18	1082.87
477.54	1079.62
477.90	1076.62
478.26	1073.49
478.62	1076.13
478.98	1080.32
479.34	1081.47
479.71	1082.29
480.07	1082.78
480.43	1081.30
480.79	1077.00
481.15	1080.13
481.51	1081.23
481.87	1083.43
482.23	1081.47
482.59	1082.05
482.96	1077.33
483.32	1075.20
483.68	1076.32
484.04	1079.74
484.40	1082.83
484.76	1083.90
485.12	1084.07
485.48	1084.98
485.84	1082.87
486.20	1081.77
486.56	1083.74
486.92	1086.94
487.28	1079.88
487.64	1080.27
488.00	1080.06
488.37	1081.54
488.73	1079.74
489.09	1087.60
489.45	1085.05
489.81	1085.70
490.17	1084.46
490.53	1084.02
490.89	1081.56
491.25	1084.65
491.61	1084.98
491.97	1083.20
492.33	1083.53
492.69	1082.76
493.05	1080.44
493.41	1080.46
493.77	1080.88
494.13	1079.17
494.49	1081.94
494.85	1084.98
495.21	1085.31
495.57	1086.85
495.93	1089.99
496.29	1088.93
496.64	1085.70
497.00	1082.71
497.36	1079.62
497.72	1078.26
498.08	1076.97
498.44	1076.39
498.80	1078.24
499.16	1080.48
499.52	1079.38
499.88	1080.70
500.24	1085.14
500.60	1084.70
500.96	1084.25
501.32	1086.52
501.68	1086.66
502.03	1085.80
502.39	1087.18
502.75	1086.43
503.11	1081.42
503.47	1080.98
503.83	1082.69
504.19	1082.57
504.55	1082.87
504.91	1086.31
505.26	1087.46
505.62	1085.66
505.98	1080.88
506.34	1083.62
506.70	1084.35
507.06	1083.13
507.42	1078.99
507.78	1084.18
508.13	1084.04
508.49	1085.56
508.85	1085.42
509.21	1086.69
509.57	1083.57
509.93	1081.94
510.28	1082.54
510.64	1081.89
511.00	1084.89
511.36	1086.34
511.72	1087.51
512.07	1083.34
512.43	1082.10
512.79	1079.34
513.15	1080.58
513.51	1081.09
513.86	1082.80
514.22	1086.45
514.58	1089.89
514.94	1089.03
515.30	1086.78
515.65	1086.97
516.01	1083.25
516.37	1082.85
516.73	1084.77
517.08	1083.79
517.44	1081.30
517.80	1081.05
518.16	1080.46
518.51	1077.23
518.87	1076.83
519.23	1079.01
519.59	1080.09
519.94	1078.73
520.30	1080.04
520.66	1080.65
521.01	1080.23
521.37	1080.74
521.73	1081.68
522.09	1079.53
522.44	1077.58
522.80	1077.23
523.16	1075.80
523.51	1075.36
523.87	1075.59
524.23	1077.09
524.58	1075.71
524.94	1077.49
525.30	1078.96
525.65	1079.29
526.01	1080.18
526.37	1080.32
526.72	1079.74
527.08	1078.28
527.44	1080.23
527.79	1079.97
528.15	1086.29
528.51	1086.43
528.86	1087.53
529.22	1083.83
529.58	1085.99
529.93	1082.05
530.29	1079.36
530.65	1078.03
531.00	1079.38
531.36	1079.10
531.71	1083.41
532.07	1087.30
532.43	1087.69
532.78	1091.88
533.14	1090.24
533.49	1085.96
533.85	1085.00
534.21	1085.10
534.56	1079.01
534.92	1078.21
535.27	1077.86
535.63	1077.56
535.98	1078.10
536.34	1083.46
536.69	1083.95
537.05	1083.06
537.41	1083.32
537.76	1083.67
538.12	1081.02
538.47	1080.79
538.83	1081.42
539.18	1082.57
539.54	1082.45
539.89	1083.18
540.25	1082.40
540.60	1084.58
540.96	1082.29
541.31	1082.24
541.67	1082.73
542.02	1084.89
542.38	1084.30
542.73	1086.48
543.09	1087.67
543.44	1086.71
543.80	1084.53
544.15	1086.69
544.51	1087.09
544.86	1085.99
545.22	1088.40
545.57	1090.57
545.93	1085.26
546.28	1082.94
546.64	1083.01
546.99	1079.03
547.35	1077.98
547.70	1082.92
548.05	1084.93
548.41	1085.63
548.76	1088.98
549.12	1090.55
549.47	1087.79
549.83	1084.67
550.18	1082.59
550.53	1079.64
550.89	1081.80
551.24	1081.37
551.60	1083.93
551.95	1084.07
552.30	1083.29
552.66	1081.07
553.01	1085.00
553.37	1084.56
553.72	1086.55
554.07	1089.26
554.43	1086.90
554.78	1083.36
555.13	1079.50
555.49	1078.99
555.84	1080.91
556.19	1081.54
556.55	1078.61
556.90	1082.15
557.26	1079.46
557.61	1076.58
557.96	1076.67
558.32	1080.88
558.67	1079.20
559.02	1081.07
559.37	1082.05
559.73	1081.91
560.08	1082.24
560.43	1082.85
560.79	1078.21
561.14	1076.46
561.49	1076.30
561.85	1075.45
562.20	1076.27
562.55	1079.60
562.90	1082.10
563.26	1084.11
563.61	1082.64
563.96	1083.86
564.32	1086.71
564.67	1085.99
565.02	1084.67
565.37	1085.94
565.73	1084.67
566.08	1083.81
566.43	1082.73
566.78	1083.74
567.14	1085.47
567.49	1086.59
567.84	1084.81
568.19	1087.46
568.54	1086.50
568.90	1082.61
569.25	1082.33
569.60	1083.27
569.95	1079.22
570.31	1081.68
570.66	1084.18
571.01	1083.83
571.36	1085.75
571.71	1085.59
572.06	1083.36
572.42	1081.87
572.77	1081.73
573.12	1080.20
573.47	1080.74
573.82	1080.41
574.18	1084.07
574.53	1085.56
574.88	1088.35
575.23	1090.08
575.58	1088.65
575.93	1086.10
576.28	1084.81
576.64	1079.55
576.99	1076.34
577.34	1077.79
577.69	1074.75
578.04	1073.56
578.39	1077.35
578.74	1079.85
579.09	1079.78
579.44	1083.13
579.80	1083.25
580.15	1079.03
580.50	1079.67
580.85	1081.91
581.20	1083.01
581.55	1085.63
581.90	1089.22
582.25	1090.43
582.60	1086.36
582.95	1084.18
583.30	1083.13
583.65	1081.66
584.00	1080.58
584.35	1085.99
584.71	1085.77
585.06	1085.49
585.41	1088.56
585.76	1088.75
586.11	1086.48
586.46	1086.08
586.81	1084.07
587.16	1080.86
587.51	1080.27
587.86	1082.19
588.21	1085.40
588.56	1086.94
588.91	1086.45
589.26	1086.80
589.61	1084.49
589.96	1081.28
590.31	1083.18
590.66	1082.78
591.01	1082.73
591.36	1080.98
591.71	1082.22
592.06	1079.83
592.41	1081.89
592.76	1082.47
593.10	1084.86
593.45	1083.25
593.80	1084.18
594.15	1085.56
594.50	1088.07
594.85	1085.87
595.20	1088.49
595.55	1086.76
595.90	1085.96
596.25	1084.23
596.60	1083.95
596.95	1081.26
597.30	1084.25
597.64	1133.50
597.99	1135.84
598.34	1137.43
598.69	1137.85
599.04	1136.40
599.39	1087.53
599.74	1088.16
600.09	1085.40
600.44	1086.71
600.78	1088.12
601.13	1085.75
601.48	1083.67
601.83	1086.13
602.18	1088.09
602.53	1088.28
602.88	1088.61
603.22	1088.09
603.57	1088.84
603.92	1084.25
604.27	1083.62
604.62	1083.83
604.97	1079.71
605.31	1080.18
605.66	1084.07
606.01	1081.35
606.36	1081.12
606.71	1084.96
607.05	1084.84
607.40	1085.26
607.75	1086.62
608.10	1090.57
608.44	1091.16
608.79	1092.87
609.14	1094.13
609.49	1100.85
609.84	1100.80
610.18	1102.77
610.53	1107.61
610.88	1113.30
611.23	1116.44
611.57	1120.41
611.92	1121.05
612.27	1116.08
612.62	1109.30
612.96	1104.52
613.31	1096.63
613.66	1092.68
614.00	1093.71
614.35	1093.80
614.70	1092.66
615.05	1096.49
615.39	1097.17
615.74	1092.61
616.09	1091.27
616.43	1086.38
616.78	1082.12
617.13	1079.41
617.47	1079.46
617.82	1079.27
618.17	1080.27
618.51	1082.59
618.86	1085.87
619.21	1086.17
619.55	1088.79
619.90	1092.82
620.25	1091.37
620.59	1090.60
620.94	1095.30
621.29	1093.22
621.63	1091.67
621.98	1091.34
622.32	1092.30
622.67	1086.62
623.02	1086.45
623.36	1085.03
623.71	1084.81
624.05	1083.67
624.40	1082.64
624.75	1083.97
625.09	1083.11
625.44	1083.50
625.78	1084.53
626.13	1087.97
626.48	1086.78
626.82	1085.56
627.17	1089.14
627.51	1088.04
627.86	1087.58
628.20	1085.28
628.55	1086.78
628.89	1086.87
629.24	1085.87
629.58	1086.50
629.93	1088.70
630.28	1089.45
630.62	1084.39
630.97	1085.38
631.31	1087.02
631.66	1084.53
632.00	1084.58
632.35	1083.69
632.69	1082.73
633.04	1081.44
633.38	1082.59
633.73	1083.25
634.07	1085.73
634.42	1088.72
634.76	1087.72
635.11	1087.65
635.45	1083.22
635.79	1082.85
636.14	1082.33
636.48	1083.83
636.83	1083.62
637.17	1088.16
637.52	1087.51
637.86	1086.55
638.21	1086.94
638.55	1087.95
638.89	1092.45
639.24	1093.71
639.58	1091.93
639.93	1089.10
640.27	1087.25
640.61	1078.19
640.96	1075.52
641.30	1076.27
641.65	1073.30
641.99	1077.42
642.33	1080.18
642.68	1081.89
643.02	1084.14
643.37	1083.79
643.71	1079.71
644.05	1082.03
644.40	1083.95
644.74	1080.58
645.08	1085.82
645.43	1086.22
645.77	1085.12
646.11	1081.70
646.46	1081.02
646.80	1080.86
647.14	1082.80
647.49	1083.83
647.83	1085.70
648.17	1089.94
648.52	1089.22
648.86	1088.79
649.20	1084.46
649.55	1086.80
649.89	1083.39
650.23	1083.34
650.57	1081.42
650.92	1084.58
651.26	1081.54
651.60	1085.99
651.95	1084.39
652.29	1082.57
652.63	1078.87
652.97	1079.92
653.32	1078.96
653.66	1079.74
654.00	1082.38
654.34	1085.35
654.69	1086.50
655.03	1085.17
655.37	1086.92
655.71	1085.38
656.05	1082.31
656.40	1079.67
656.74	1078.47
657.08	1078.82
657.42	1078.64
657.76	1081.73
658.11	1083.11
658.45	1082.73
658.79	1079.38
659.13	1078.14
659.47	1077.42
659.82	1077.68
660.16	1079.48
660.50	1078.45
660.84	1082.12
661.18	1081.82
661.52	1082.08
661.87	1080.30
662.21	1080.58
662.55	1077.96
662.89	1077.18
663.23	1074.52
663.57	1076.93
663.91	1077.77
664.25	1079.57
664.60	1080.37
664.94	1080.20
665.28	1076.13
665.62	1079.55
665.96	1081.51
666.30	1079.74
666.64	1080.44
666.98	1081.49
667.32	1078.52
667.66	1075.36
668.01	1078.00
668.35	1080.51
668.69	1079.17
669.03	1079.53
669.37	1080.51
669.71	1081.89
670.05	1080.04
670.39	1083.57
670.73	1083.48
671.07	1085.56
671.41	1084.14
671.75	1087.65
672.09	1086.73
672.43	1088.63
672.77	1087.83
673.11	1087.37
673.45	1082.92
673.79	1084.21
674.13	1084.65
674.47	1081.12
674.81	1081.28
675.15	1081.35
675.49	1081.30
675.83	1079.60
676.17	1081.00
676.51	1082.01
676.85	1084.51
677.19	1083.20
677.53	1082.94
677.87	1083.43
678.21	1082.66
678.55	1081.68
678.89	1081.16
679.23	1082.92
679.57	1085.35
679.90	1085.35
680.24	1084.74
680.58	1085.40
680.92	1083.06
681.26	1080.11
681.60	1078.43
681.94	1077.23
682.28	1076.08
682.62	1080.63
682.96	1082.78
683.29	1082.01
683.63	1080.77
683.97	1080.95
684.31	1075.85
684.65	1073.51
684.99	1072.67
685.33	1075.41
685.67	1074.24
686.00	1073.07
686.34	1073.51
686.68	1078.38
687.02	1080.27
687.36	1081.28
687.70	1085.24
688.03	1087.11
688.37	1089.36
688.71	1086.78
689.05	1085.52
689.39	1085.52
689.72	1084.63
690.06	1081.12
690.40	1084.35
690.74	1086.64
691.08	1088.07
691.41	1088.07
691.75	1089.40
692.09	1085.33
692.43	1088.56
692.76	1086.08
693.10	1086.38
693.44	1084.18
693.78	1084.16
694.11	1081.33
694.45	1081.56
694.79	1080.44
695.13	1078.71
695.46	1079.36
695.80	1077.91
696.14	1075.17
696.48	1076.41
696.81	1077.91
697.15	1078.12
697.49	1078.99
697.82	1080.84
698.16	1080.30
698.50	1082.15
698.83	1085.21
699.17	1087.39
699.51	1087.20
699.84	1083.20
700.18	1079.95
700.52	1076.39
700.85	1070.91
701.19	1070.02
701.53	1072.88
701.86	1076.13
702.20	1080.46
702.54	1082.90
702.87	1083.57
703.21	1086.71
703.55	1085.45
703.88	1082.78
704.22	1083.34
704.55	1084.28
704.89	1083.25
705.23	1083.22
705.56	1083.36
705.90	1083.62
706.23	1082.66
706.57	1085.31
706.91	1085.80
707.24	1089.05
707.58	1087.72
707.91	1089.17
708.25	1085.68
708.58	1084.37
708.92	1080.11
709.26	1079.85
709.59	1078.57
709.93	1078.64
710.26	1081.80
710.60	1082.97
710.93	1083.48
711.27	1083.69
711.60	1084.30
711.94	1082.29
712.27	1082.22
712.61	1085.77
712.94	1088.54
713.28	1087.39
713.61	1088.00
713.95	1087.93
714.28	1082.76
714.62	1079.50
714.95	1077.96
715.29	1076.65
715.62	1074.84
715.96	1078.87
716.29	1078.28
716.63	1077.54
716.96	1076.81
717.29	1077.40
717.63	1075.97
717.96	1078.78
718.30	1079.31
718.63	1079.24
718.97	1078.31
719.30	1078.94
719.63	1076.53
719.97	1079.95
720.30	1083.53
720.64	1087.67
720.97	1087.04
721.30	1089.94
721.64	1089.92
721.97	1088.16
722.31	1087.93
722.64	1087.02
722.97	1088.58
723.31	1089.64
723.64	1087.81
723.97	1087.58
724.31	1089.14
724.64	1083.97
724.98	1080.91
725.31	1080.20
725.64	1079.29
725.98	1075.83
726.31	1077.42
726.64	1079.20
726.97	1082.26
727.31	1081.61
727.64	1084.02
727.97	1085.21
728.31	1084.67
728.64	1081.44
728.97	1078.17
729.31	1075.62
729.64	1075.52
729.97	1075.38
730.30	1076.51
730.64	1079.38
730.97	1084.28
731.30	1083.25
731.63	1083.71
731.97	1084.11
732.30	1086.27
732.63	1084.32
732.96	1082.80
733.30	1079.92
733.63	1079.22
733.96	1075.20
734.29	1075.52
734.63	1074.96
734.96	1079.46
735.29	1082.71
735.62	1085.33
735.95	1086.27
736.29	1089.68
736.62	1084.67
736.95	1082.15
737.28	1082.33
737.61	1083.74
737.94	1081.44
738.28	1083.90
738.61	1084.04
738.94	1084.00
739.27	1080.74
739.60	1080.79
739.93	1083.04
740.27	1083.60
740.60	1083.93
740.93	1082.50
741.26	1082.31
741.59	1076.32
741.92	1075.38
742.25	1072.25
742.58	1074.00
742.91	1076.76
743.25	1082.29
743.58	1083.04
743.91	1083.93
744.24	1083.69
744.57	1081.40
744.90	1078.96
745.23	1080.04
745.56	1080.46
745.89	1080.65
746.22	1078.40
746.55	1081.14
746.88	1079.53
747.21	1080.06
747.54	1079.24
747.87	1080.27
748.20	1078.26
748.53	1078.61
748.87	1079.53
749.20	1079.95
749.53	1081.80
749.86	1082.80
750.19	1081.19
750.52	1079.76
750.85	1078.89
751.18	1076.37
751.51	1078.00
751.84	1080.37
752.16	1081.54
752.49	1085.17
752.82	1086.27
753.15	1082.69
753.48	1080.91
753.81	1080.58
754.14	1078.64
754.47	1080.02
754.80	1079.57
755.13	1079.57
755.46	1075.69
755.79	1075.13
756.12	1077.75
756.45	1079.29
756.78	1084.07
757.11	1088.09
757.43	1086.20
757.76	1081.12
758.09	1081.49
758.42	1076.20
758.75	1075.45
759.08	1078.92
759.41	1080.37
759.74	1080.56
760.07	1081.61
760.39	1082.29
760.72	1082.01
761.05	1081.42
761.38	1080.58
761.71	1079.24
762.04	1076.74
762.36	1075.73
762.69	1077.77
763.02	1076.55
763.35	1074.59
763.68	1076.04
764.01	1076.46
764.33	1074.21
764.66	1075.99
764.99	1081.87
765.32	1081.14
765.65	1081.77
765.97	1084.81
766.30	1083.76
