SpectraSuite Data File
++++++++++++++++++++++++++++++++++++
Date: Mon Aug 26 10:26:48 PDT 2019
User: corrico
Dark Spectrum Present: No
Reference Spectrum Present: No
Number of Sampled Component Spectra: 1
Spectrometers: USB2+H06089
Integration Time (usec): 10000 (USB2+H06089)
Spectra Averaged: 20 (USB2+H06089)
Boxcar Smoothing: 2 (USB2+H06089)
Correct for Electrical Dark: No (USB2+H06089)
Strobe/Lamp Enabled: No (USB2+H06089)
Correct for Detector Non-linearity: No (USB2+H06089)
Correct for Stray Light: No (USB2+H06089)
Number of Pixels in Processed Spectrum: 2048
>>>>>Begin Processed Spectral Data<<<<<
339.70	1031.01
340.07	1031.01
340.45	999.43
340.82	976.94
341.19	953.53
341.57	927.06
341.94	915.92
342.31	904.76
342.69	903.17
343.06	900.10
343.43	901.95
343.81	900.26
344.18	903.14
344.55	906.30
344.93	911.38
345.30	914.05
345.67	924.51
346.04	931.63
346.42	939.30
346.79	946.11
347.16	956.81
347.54	962.99
347.91	972.35
348.28	980.94
348.65	990.68
349.03	1001.63
349.40	1014.62
349.77	1026.04
350.14	1032.71
350.52	1040.77
350.89	1046.13
351.26	1052.38
351.63	1056.40
352.01	1062.14
352.38	1064.90
352.75	1069.09
353.12	1071.26
353.50	1075.34
353.87	1078.64
354.24	1082.01
354.61	1085.68
354.98	1088.26
355.36	1090.20
355.73	1090.43
356.10	1094.57
356.47	1094.13
356.84	1095.16
357.22	1095.02
357.59	1097.10
357.96	1096.10
358.33	1092.94
358.70	1090.34
359.08	1089.05
359.45	1087.34
359.82	1086.59
360.19	1088.79
360.56	1085.87
360.94	1085.17
361.31	1083.74
361.68	1084.14
362.05	1080.98
362.42	1082.36
362.79	1082.94
363.16	1082.80
363.54	1082.01
363.91	1083.74
364.28	1087.81
364.65	1085.89
365.02	1086.90
365.39	1085.80
365.76	1086.03
366.14	1079.50
366.51	1082.01
366.88	1081.14
367.25	1078.96
367.62	1076.48
367.99	1079.62
368.36	1077.77
368.73	1079.76
369.10	1081.75
369.48	1084.18
369.85	1082.40
370.22	1082.66
370.59	1080.25
370.96	1079.74
371.33	1077.47
371.70	1079.03
372.07	1078.66
372.44	1080.06
372.81	1080.98
373.18	1083.86
373.55	1083.46
373.93	1082.29
374.30	1082.61
374.67	1083.79
375.04	1085.89
375.41	1086.55
375.78	1088.33
376.15	1086.01
376.52	1084.35
376.89	1080.37
377.26	1080.67
377.63	1080.84
378.00	1083.76
378.37	1083.57
378.74	1083.48
379.11	1083.15
379.48	1084.28
379.85	1084.42
380.22	1083.62
380.59	1081.80
380.96	1083.22
381.33	1082.26
381.70	1083.25
382.07	1087.86
382.44	1093.03
382.81	1090.10
383.18	1090.92
383.55	1088.42
383.92	1082.80
384.29	1082.26
384.66	1085.42
385.03	1082.59
385.40	1083.69
385.77	1086.50
386.14	1086.29
386.51	1085.28
386.88	1087.09
387.25	1084.14
387.62	1083.60
387.99	1082.90
388.36	1083.11
388.73	1084.65
389.10	1085.31
389.46	1083.95
389.83	1083.43
390.20	1084.44
390.57	1084.86
390.94	1086.41
391.31	1089.99
391.68	1091.37
392.05	1090.67
392.42	1089.12
392.79	1088.30
393.16	1085.96
393.53	1086.94
393.89	1086.83
394.26	1088.40
394.63	1091.53
395.00	1095.28
395.37	1091.95
395.74	1092.56
396.11	1092.61
396.48	1090.41
396.84	1087.60
397.21	1089.71
397.58	1088.84
397.95	1086.50
398.32	1084.70
398.69	1087.62
399.06	1086.27
399.42	1087.39
399.79	1090.88
400.16	1092.75
400.53	1093.47
400.90	1097.88
401.27	1097.29
401.64	1098.11
402.00	1097.52
402.37	1094.74
402.74	1091.65
403.11	1093.31
403.48	1090.53
403.84	1092.54
404.21	1093.19
404.58	1092.45
404.95	1090.64
405.32	1088.51
405.68	1087.23
406.05	1086.15
406.42	1086.01
406.79	1088.40
407.16	1093.57
407.52	1091.65
407.89	1092.00
408.26	1092.40
408.63	1091.13
408.99	1092.37
409.36	1096.14
409.73	1095.82
410.10	1096.66
410.47	1097.36
410.83	1093.73
411.20	1094.15
411.57	1097.66
411.94	1100.12
412.30	1100.78
412.67	1103.31
413.04	1104.87
413.40	1101.97
413.77	1104.55
414.14	1100.59
414.51	1102.02
414.87	1102.44
415.24	1102.35
415.61	1099.28
415.97	1099.91
416.34	1099.12
416.71	1096.17
417.08	1096.75
417.44	1097.78
417.81	1102.37
418.18	1105.15
418.54	1105.58
418.91	1111.26
419.28	1112.57
419.64	1111.64
420.01	1106.44
420.38	1109.25
420.74	1106.04
421.11	1108.31
421.48	1109.44
421.84	1111.40
422.21	1111.12
422.58	1110.75
422.94	1108.06
423.31	1107.99
423.68	1108.13
424.04	1108.85
424.41	1106.93
424.77	1108.66
425.14	1110.23
425.51	1109.11
425.87	1106.91
426.24	1113.32
426.61	1109.81
426.97	1110.91
427.34	1114.73
427.70	1112.92
428.07	1108.71
428.44	1109.06
428.80	1105.29
429.17	1102.28
429.53	1107.05
429.90	1108.52
430.27	1109.18
430.63	1110.33
431.00	1111.08
431.36	1111.85
431.73	1111.38
432.09	1113.91
432.46	1114.77
432.83	1112.97
433.19	1111.80
433.56	1114.12
433.92	1114.68
434.29	1112.74
434.65	1113.39
435.02	1113.04
435.38	1110.05
435.75	1108.71
436.11	1110.26
436.48	1112.32
436.84	1114.12
437.21	1115.34
437.57	1116.34
437.94	1116.32
438.30	1116.15
438.67	1114.63
439.03	1112.39
439.40	1113.02
439.76	1114.77
440.13	1114.14
440.49	1114.84
440.86	1117.30
441.22	1113.16
441.59	1111.19
441.95	1110.30
442.32	1108.55
442.68	1107.89
443.05	1109.72
443.41	1110.89
443.78	1110.58
444.14	1110.54
444.51	1112.34
444.87	1114.17
445.24	1113.18
445.60	1112.04
445.96	1112.32
446.33	1107.28
446.69	1106.11
447.06	1106.63
447.42	1108.31
447.79	1107.33
448.15	1108.17
448.51	1109.30
448.88	1107.03
449.24	1107.71
449.61	1112.18
449.97	1114.94
450.33	1113.53
450.70	1114.52
451.06	1114.82
451.43	1111.99
451.79	1111.87
452.15	1110.82
452.52	1111.10
452.88	1112.50
453.24	1110.33
453.61	1111.10
453.97	1112.27
454.34	1110.87
454.70	1108.22
455.06	1111.36
455.43	1114.68
455.79	1111.19
456.15	1111.61
456.52	1116.83
456.88	1117.04
457.24	1112.20
457.61	1116.48
457.97	1119.69
458.33	1112.76
458.70	1112.25
459.06	1113.81
459.42	1116.01
459.79	1116.79
460.15	1119.01
460.51	1117.98
460.88	1118.82
461.24	1117.14
461.60	1116.34
461.96	1120.09
462.33	1120.30
462.69	1119.01
463.05	1118.73
463.42	1121.23
463.78	1118.40
464.14	1119.08
464.50	1118.40
464.87	1118.61
465.23	1116.39
465.59	1117.44
465.95	1117.02
466.32	1120.74
466.68	1124.21
467.04	1128.00
467.40	1131.20
467.77	1135.63
468.13	1134.79
468.49	1135.35
468.85	1132.35
469.22	1131.46
469.58	1133.10
469.94	1135.23
470.30	1138.46
470.66	1143.16
471.03	1146.37
471.39	1146.35
471.75	1145.90
472.11	1146.96
472.47	1149.72
472.84	1150.42
473.20	1151.40
473.56	1159.43
473.92	1160.16
474.28	1162.29
474.65	1167.76
475.01	1173.83
475.37	1175.23
475.73	1178.46
476.09	1181.24
476.45	1185.50
476.81	1190.23
477.18	1197.21
477.54	1203.64
477.90	1207.41
478.26	1212.40
478.62	1218.72
478.98	1220.50
479.34	1228.66
479.71	1240.32
480.07	1250.55
480.43	1257.24
480.79	1269.83
481.15	1279.50
481.51	1286.05
481.87	1296.26
482.23	1311.50
482.59	1319.71
482.96	1330.92
483.32	1348.20
483.68	1362.94
484.04	1378.74
484.40	1399.90
484.76	1418.74
485.12	1435.47
485.48	1448.25
485.84	1460.68
486.20	1479.27
486.56	1498.65
486.92	1521.23
487.28	1548.87
487.64	1577.97
488.00	1606.92
488.37	1635.38
488.73	1667.94
489.09	1703.40
489.45	1734.15
489.81	1765.61
490.17	1805.54
490.53	1843.27
490.89	1878.96
491.25	1924.60
491.61	1972.91
491.97	2021.94
492.33	2073.22
492.69	2126.87
493.05	2181.85
493.41	2242.40
493.77	2300.77
494.13	2363.54
494.49	2435.26
494.85	2510.95
495.21	2577.68
495.57	2652.97
495.93	2730.87
496.29	2810.00
496.64	2900.35
497.00	2995.96
497.36	3090.79
497.72	3196.28
498.08	3304.91
498.44	3414.16
498.80	3538.63
499.16	3672.32
499.52	3812.85
499.88	3965.41
500.24	4122.81
500.60	4270.75
500.96	4429.16
501.32	4593.75
501.68	4761.28
502.03	4936.92
502.39	5153.70
502.75	5369.38
503.11	5594.79
503.47	5820.89
503.83	6073.64
504.19	6313.95
504.55	6587.70
504.91	6860.95
505.26	7144.02
505.62	7433.42
505.98	7750.59
506.34	8066.96
506.70	8418.18
507.06	8806.69
507.42	9199.57
507.78	9602.35
508.13	10023.63
508.49	10473.41
508.85	10933.34
509.21	11411.31
509.57	11934.46
509.93	12475.01
510.28	13043.69
510.64	13656.39
511.00	14251.26
511.36	14816.97
511.72	15399.41
512.07	16050.01
512.43	16642.19
512.79	17320.78
513.15	18064.91
513.51	18822.03
513.86	19543.12
514.22	20393.74
514.58	21193.13
514.94	22017.79
515.30	22867.27
515.65	23667.50
516.01	24470.28
516.37	25312.10
516.73	26088.10
517.08	26948.62
517.44	27804.91
517.80	28622.13
518.16	29472.07
518.51	30283.00
518.87	31007.07
519.23	31875.15
519.59	32726.10
519.94	33545.19
520.30	34440.98
520.66	35236.67
521.01	36026.30
521.37	36725.63
521.73	37367.50
522.09	37939.92
522.44	38585.56
522.80	38957.68
523.16	39301.97
523.51	39565.07
523.87	39861.90
524.23	40119.75
524.58	40399.14
524.94	40775.32
525.30	41120.75
525.65	41305.33
526.01	41348.09
526.37	41364.92
526.72	41317.85
527.08	41176.86
527.44	41007.12
527.79	40839.35
528.15	40726.35
528.51	40480.15
528.86	40256.96
529.22	40032.20
529.58	39783.40
529.93	39406.15
530.29	38970.25
530.65	38607.25
531.00	38240.80
531.36	37810.39
531.71	37364.12
532.07	36892.32
532.43	36314.72
532.78	35669.67
533.14	35111.76
533.49	34548.20
533.85	33938.63
534.21	33326.37
534.56	32761.65
534.92	32134.67
535.27	31500.59
535.63	30910.36
535.98	30280.12
536.34	29642.49
536.69	28989.71
537.05	28386.72
537.41	27849.66
537.76	27380.22
538.12	26859.10
538.47	26400.10
538.83	25944.67
539.18	25474.25
539.54	24977.28
539.89	24512.20
540.25	24001.05
540.60	23524.61
540.96	23047.26
541.31	22574.96
541.67	22165.60
542.02	21767.10
542.38	21348.14
542.73	20896.35
543.09	20506.09
543.44	20122.12
543.80	19770.29
544.15	19361.52
544.51	19046.83
544.86	18730.42
545.22	18376.11
545.57	17999.70
545.93	17643.15
546.28	17308.66
546.64	16972.51
546.99	16636.11
547.35	16321.26
547.70	16035.76
548.05	15739.47
548.41	15431.62
548.76	15146.52
549.12	14854.94
549.47	14579.62
549.83	14299.76
550.18	13978.33
550.53	13648.20
550.89	13379.39
551.24	13100.66
551.60	12803.90
551.95	12565.19
552.30	12344.08
552.66	12109.09
553.01	11859.52
553.37	11601.92
553.72	11323.02
554.07	11058.38
554.43	10765.76
554.78	10486.54
555.13	10234.44
555.49	10009.82
555.84	9812.25
556.19	9626.65
556.55	9434.82
556.90	9234.89
557.26	9038.73
557.61	8806.99
557.96	8561.14
558.32	8360.91
558.67	8153.42
559.02	7941.58
559.37	7758.95
559.73	7613.39
560.08	7454.09
560.43	7303.85
560.79	7172.15
561.14	7027.95
561.49	6859.53
561.85	6708.23
562.20	6565.44
562.55	6429.36
562.90	6300.14
563.26	6189.52
563.61	6066.62
563.96	5950.74
564.32	5834.77
564.67	5712.97
565.02	5581.17
565.37	5470.65
565.73	5358.17
566.08	5250.03
566.43	5139.18
566.78	5038.78
567.14	4930.32
567.49	4827.47
567.84	4725.64
568.19	4631.94
568.54	4545.44
568.90	4456.50
569.25	4374.02
569.60	4303.87
569.95	4227.80
570.31	4147.05
570.66	4065.28
571.01	3977.48
571.36	3884.05
571.71	3806.65
572.06	3735.52
572.42	3679.11
572.77	3627.83
573.12	3575.87
573.47	3518.13
573.82	3461.39
574.18	3394.01
574.53	3335.38
574.88	3275.32
575.23	3218.28
575.58	3168.87
575.93	3122.91
576.28	3071.06
576.64	3020.77
576.99	2971.38
577.34	2918.91
577.69	2862.83
578.04	2807.80
578.39	2756.89
578.74	2716.99
579.09	2675.00
579.44	2636.40
579.80	2599.59
580.15	2561.08
580.50	2518.70
580.85	2482.21
581.20	2452.39
581.55	2421.71
581.90	2392.92
582.25	2358.30
582.60	2326.68
582.95	2287.83
583.30	2250.21
583.65	2215.83
584.00	2182.76
584.35	2153.13
584.71	2123.50
585.06	2095.74
585.41	2066.32
585.76	2044.06
586.11	2016.72
586.46	1996.20
586.81	1973.24
587.16	1951.14
587.51	1929.98
587.86	1908.94
588.21	1886.03
588.56	1867.02
588.91	1847.62
589.26	1822.69
589.61	1803.50
589.96	1784.54
590.31	1766.43
590.66	1748.33
591.01	1737.43
591.36	1719.47
591.71	1701.48
592.06	1686.85
592.41	1671.80
592.76	1656.02
593.10	1640.25
593.45	1626.51
593.80	1609.09
594.15	1596.76
594.50	1583.75
594.85	1572.58
595.20	1565.00
595.55	1554.49
595.90	1542.62
596.25	1526.94
596.60	1515.45
596.95	1502.95
597.30	1492.16
597.64	1532.23
597.99	1528.23
598.34	1523.08
598.69	1515.89
599.04	1510.07
599.39	1449.82
599.74	1441.18
600.09	1431.35
600.44	1422.69
600.78	1412.75
601.13	1405.26
601.48	1394.68
601.83	1390.61
602.18	1383.09
602.53	1374.85
602.88	1370.62
603.22	1367.50
603.57	1356.53
603.92	1351.71
604.27	1347.42
604.62	1340.71
604.97	1335.39
605.31	1332.65
605.66	1323.20
606.01	1315.64
606.36	1307.82
606.71	1298.04
607.05	1290.22
607.40	1287.88
607.75	1286.36
608.10	1283.03
608.44	1282.99
608.79	1277.04
609.14	1272.22
609.49	1267.19
609.84	1263.05
610.18	1257.83
610.53	1258.46
610.88	1255.46
611.23	1254.15
611.57	1254.20
611.92	1251.62
612.27	1247.51
612.62	1244.70
612.96	1235.36
613.31	1227.70
613.66	1220.47
614.00	1215.21
614.35	1207.01
614.70	1206.03
615.05	1204.49
615.39	1201.05
615.74	1197.91
616.09	1198.73
616.43	1197.61
616.78	1192.76
617.13	1195.10
617.47	1197.04
617.82	1192.39
618.17	1190.35
618.51	1190.84
618.86	1184.83
619.21	1180.64
619.55	1180.85
619.90	1179.42
620.25	1175.49
620.59	1176.00
620.94	1172.96
621.29	1170.38
621.63	1169.03
621.98	1169.33
622.32	1164.63
622.67	1161.00
623.02	1160.30
623.36	1158.19
623.71	1154.47
624.05	1154.66
624.40	1157.16
624.75	1155.01
625.09	1152.90
625.44	1152.29
625.78	1149.39
626.13	1143.49
626.48	1144.69
626.82	1143.28
627.17	1142.13
627.51	1143.91
627.86	1143.61
628.20	1139.26
628.55	1137.38
628.89	1136.42
629.24	1131.51
629.58	1131.09
629.93	1130.29
630.28	1131.18
630.62	1129.85
630.97	1130.27
631.31	1127.93
631.66	1127.76
632.00	1125.91
632.35	1124.58
632.69	1125.47
633.04	1124.74
633.38	1124.02
633.73	1121.91
634.07	1119.57
634.42	1118.14
634.76	1119.74
635.11	1119.29
635.45	1122.17
635.79	1124.79
636.14	1124.49
636.48	1123.29
636.83	1122.57
637.17	1118.42
637.52	1116.69
637.86	1117.72
638.21	1118.57
638.55	1117.51
638.89	1117.56
639.24	1118.66
639.58	1117.32
639.93	1115.66
640.27	1117.28
640.61	1114.42
640.96	1110.37
641.30	1107.71
641.65	1105.79
641.99	1103.16
642.33	1102.35
642.68	1105.06
643.02	1107.33
643.37	1108.13
643.71	1109.81
644.05	1112.69
644.40	1112.48
644.74	1110.72
645.08	1107.61
645.43	1104.78
645.77	1101.88
646.11	1101.41
646.46	1099.05
646.80	1099.84
647.14	1100.78
647.49	1101.32
647.83	1102.04
648.17	1103.14
648.52	1100.96
648.86	1098.69
649.20	1102.32
649.55	1100.87
649.89	1101.71
650.23	1106.63
650.57	1109.18
650.92	1106.89
651.26	1106.02
651.60	1103.56
651.95	1102.35
652.29	1099.65
652.63	1099.19
652.97	1098.60
653.32	1097.83
653.66	1096.78
654.00	1097.66
654.34	1097.90
654.69	1098.88
655.03	1101.25
655.37	1101.18
655.71	1102.18
656.05	1100.24
656.40	1099.05
656.74	1097.90
657.08	1095.09
657.42	1093.12
657.76	1091.93
658.11	1091.74
658.45	1091.04
658.79	1096.21
659.13	1097.06
659.47	1099.44
659.82	1098.88
660.16	1101.41
660.50	1098.76
660.84	1098.37
661.18	1097.43
661.52	1099.09
661.87	1095.98
662.21	1095.96
662.55	1094.81
662.89	1092.82
663.23	1091.30
663.57	1095.07
663.91	1093.22
664.25	1094.50
664.60	1095.67
664.94	1097.38
665.28	1096.52
665.62	1096.68
665.96	1095.65
666.30	1099.65
666.64	1099.84
666.98	1098.72
667.32	1102.49
667.66	1100.71
668.01	1093.01
668.35	1090.08
668.69	1084.98
669.03	1081.26
669.37	1084.04
669.71	1090.10
670.05	1089.78
670.39	1097.01
670.73	1102.09
671.07	1103.56
671.41	1098.06
671.75	1099.09
672.09	1091.34
672.43	1090.10
672.77	1089.45
673.11	1093.71
673.45	1093.36
673.79	1097.10
674.13	1094.20
674.47	1090.03
674.81	1089.12
675.15	1090.10
675.49	1090.39
675.83	1091.23
676.17	1093.29
676.51	1094.01
676.85	1092.42
677.19	1089.36
677.53	1086.73
677.87	1086.13
678.21	1086.17
678.55	1084.44
678.89	1087.18
679.23	1088.23
679.57	1088.72
679.90	1085.91
680.24	1088.19
680.58	1090.36
680.92	1091.93
681.26	1091.16
681.60	1095.07
681.94	1094.76
682.28	1093.76
682.62	1091.32
682.96	1090.39
683.29	1089.40
683.63	1088.26
683.97	1085.89
684.31	1088.14
684.65	1091.06
684.99	1091.65
685.33	1092.61
685.67	1094.67
686.00	1092.45
686.34	1092.09
686.68	1088.84
687.02	1091.18
687.36	1090.92
687.70	1091.86
688.03	1090.01
688.37	1092.75
688.71	1093.19
689.05	1093.92
689.39	1094.90
689.72	1097.73
690.06	1098.20
690.40	1097.78
690.74	1098.06
691.08	1097.36
691.41	1096.78
691.75	1092.42
692.09	1089.00
692.43	1088.58
692.76	1086.69
693.10	1084.28
693.44	1088.12
693.78	1086.17
694.11	1084.81
694.45	1085.12
694.79	1085.03
695.13	1084.79
695.46	1087.86
695.80	1087.74
696.14	1087.13
696.48	1091.18
696.81	1089.94
697.15	1089.64
697.49	1090.83
697.82	1088.96
698.16	1088.16
698.50	1088.14
698.83	1089.03
699.17	1087.20
699.51	1093.33
699.84	1090.57
700.18	1092.91
700.52	1092.47
700.85	1095.51
701.19	1095.30
701.53	1094.06
701.86	1091.32
702.20	1090.36
702.54	1088.30
702.87	1083.71
703.21	1085.96
703.55	1090.29
703.88	1090.64
704.22	1090.83
704.55	1090.64
704.89	1091.13
705.23	1089.05
705.56	1087.23
705.90	1086.78
706.23	1088.93
706.57	1087.11
706.91	1083.93
707.24	1087.30
707.58	1087.09
707.91	1086.13
708.25	1088.30
708.58	1090.76
708.92	1091.09
709.26	1091.51
709.59	1091.56
709.93	1090.34
710.26	1090.60
710.60	1089.31
710.93	1086.64
711.27	1087.02
711.60	1085.56
711.94	1083.69
712.27	1085.19
712.61	1088.54
712.94	1091.86
713.28	1092.70
713.61	1094.97
713.95	1094.41
714.28	1096.28
714.62	1093.90
714.95	1092.12
715.29	1091.06
715.62	1088.37
715.96	1085.45
716.29	1083.06
716.63	1085.14
716.96	1084.60
717.29	1085.28
717.63	1084.39
717.96	1087.44
718.30	1088.89
718.63	1088.42
718.97	1087.90
719.30	1089.54
719.63	1086.92
719.97	1086.80
720.30	1085.07
720.64	1085.38
720.97	1086.83
721.30	1087.32
721.64	1086.69
721.97	1087.39
722.31	1088.28
722.64	1086.85
722.97	1087.69
723.31	1086.43
723.64	1091.13
723.97	1091.18
724.31	1088.96
724.64	1085.84
724.98	1082.17
725.31	1079.24
725.64	1080.74
725.98	1080.72
726.31	1083.15
726.64	1087.53
726.97	1087.39
727.31	1086.92
727.64	1088.84
727.97	1092.19
728.31	1094.04
728.64	1098.48
728.97	1099.56
729.31	1097.48
729.64	1095.00
729.97	1093.24
730.30	1089.73
730.64	1088.26
730.97	1090.69
731.30	1087.41
731.63	1085.99
731.97	1088.09
732.30	1087.69
732.63	1085.94
732.96	1090.06
733.30	1092.33
733.63	1087.90
733.96	1086.08
734.29	1087.76
734.63	1086.31
734.96	1086.76
735.29	1089.36
735.62	1091.42
735.95	1090.10
736.29	1090.81
736.62	1089.10
736.95	1086.62
737.28	1089.54
737.61	1090.32
737.94	1091.67
738.28	1091.32
738.61	1092.33
738.94	1091.11
739.27	1091.58
739.60	1093.22
739.93	1094.69
740.27	1091.91
740.60	1088.30
740.93	1085.56
741.26	1084.70
741.59	1085.00
741.92	1086.08
742.25	1085.80
742.58	1085.66
742.91	1083.46
743.25	1082.29
743.58	1081.87
743.91	1084.56
744.24	1085.24
744.57	1082.29
744.90	1083.79
745.23	1083.27
745.56	1081.61
745.89	1083.71
746.22	1087.60
746.55	1084.44
746.88	1087.32
747.21	1086.85
747.54	1088.86
747.87	1088.16
748.20	1093.50
748.53	1091.74
748.87	1095.49
749.20	1093.62
749.53	1095.28
749.86	1090.90
750.19	1093.12
750.52	1090.55
750.85	1092.09
751.18	1090.64
751.51	1090.90
751.84	1086.38
752.16	1089.19
752.49	1088.07
752.82	1087.48
753.15	1086.43
753.48	1086.43
753.81	1084.58
754.14	1083.57
754.47	1084.89
754.80	1084.21
755.13	1089.71
755.46	1088.12
755.79	1086.45
756.12	1084.63
756.45	1085.07
756.78	1083.32
757.11	1083.64
757.43	1086.76
757.76	1086.92
758.09	1086.17
758.42	1085.56
758.75	1084.79
759.08	1080.48
759.41	1078.52
759.74	1080.27
760.07	1079.76
760.39	1078.54
760.72	1081.75
761.05	1080.84
761.38	1079.60
761.71	1083.46
762.04	1085.17
762.36	1084.65
762.69	1089.24
763.02	1089.31
763.35	1084.74
