SpectraSuite Data File
++++++++++++++++++++++++++++++++++++
Date: Mon Aug 26 10:26:41 PDT 2019
User: corrico
Dark Spectrum Present: No
Reference Spectrum Present: No
Number of Sampled Component Spectra: 1
Spectrometers: USB2+H06089
Integration Time (usec): 10000 (USB2+H06089)
Spectra Averaged: 20 (USB2+H06089)
Boxcar Smoothing: 2 (USB2+H06089)
Correct for Electrical Dark: No (USB2+H06089)
Strobe/Lamp Enabled: No (USB2+H06089)
Correct for Detector Non-linearity: No (USB2+H06089)
Correct for Stray Light: No (USB2+H06089)
Number of Pixels in Processed Spectrum: 2048
>>>>>Begin Processed Spectral Data<<<<<
339.70	1036.16
340.07	1036.16
340.45	998.03
340.82	975.37
341.19	951.01
341.57	925.33
341.94	914.24
342.31	908.34
342.69	906.07
343.06	901.36
343.43	899.80
343.81	901.81
344.18	907.00
344.55	910.35
344.93	917.84
345.30	925.17
345.67	930.27
346.04	937.31
346.42	943.35
346.79	952.15
347.16	958.29
347.54	966.50
347.91	974.29
348.28	984.87
348.65	992.64
349.03	1006.15
349.40	1015.82
349.77	1024.20
350.14	1030.37
350.52	1037.35
350.89	1043.60
351.26	1049.59
351.63	1055.93
352.01	1061.41
352.38	1062.11
352.75	1062.11
353.12	1062.53
353.50	1066.09
353.87	1070.00
354.24	1076.88
354.61	1079.99
354.98	1084.96
355.36	1086.69
355.73	1087.93
356.10	1090.90
356.47	1090.20
356.84	1090.24
357.22	1088.12
357.59	1088.79
357.96	1088.00
358.33	1088.19
358.70	1088.02
359.08	1089.24
359.45	1087.34
359.82	1085.21
360.19	1085.89
360.56	1083.79
360.94	1082.26
361.31	1081.98
361.68	1080.81
362.05	1081.91
362.42	1082.78
362.79	1082.97
363.16	1081.35
363.54	1077.84
363.91	1075.87
364.28	1075.48
364.65	1074.38
365.02	1074.28
365.39	1079.10
365.76	1079.27
366.14	1076.48
366.51	1077.51
366.88	1076.97
367.25	1077.07
367.62	1074.54
367.99	1077.77
368.36	1078.36
368.73	1076.06
369.10	1075.15
369.48	1078.54
369.85	1076.67
370.22	1075.66
370.59	1078.03
370.96	1076.37
371.33	1074.75
371.70	1076.90
372.07	1076.32
372.44	1078.52
372.81	1078.82
373.18	1077.42
373.55	1075.05
373.93	1077.65
374.30	1078.14
374.67	1081.54
375.04	1083.88
375.41	1084.14
375.78	1085.28
376.15	1081.33
376.52	1080.81
376.89	1081.40
377.26	1081.37
377.63	1076.55
378.00	1081.91
378.37	1077.54
378.74	1073.35
379.11	1077.61
379.48	1079.50
379.85	1077.49
380.22	1078.87
380.59	1083.04
380.96	1080.98
381.33	1081.61
381.70	1080.53
382.07	1083.43
382.44	1084.02
382.81	1083.90
383.18	1084.67
383.55	1084.07
383.92	1084.32
384.29	1086.20
384.66	1084.93
385.03	1085.45
385.40	1086.20
385.77	1083.86
386.14	1081.82
386.51	1085.91
386.88	1085.91
387.25	1087.18
387.62	1087.20
387.99	1088.82
388.36	1084.84
388.73	1085.42
389.10	1083.39
389.46	1082.76
389.83	1083.67
390.20	1085.49
390.57	1085.61
390.94	1084.98
391.31	1088.84
391.68	1086.78
392.05	1085.45
392.42	1085.91
392.79	1087.02
393.16	1084.46
393.53	1086.38
393.89	1090.34
394.26	1090.83
394.63	1092.21
395.00	1094.15
395.37	1094.29
395.74	1090.17
396.11	1088.44
396.48	1088.51
396.84	1092.28
397.21	1090.01
397.58	1090.64
397.95	1090.88
398.32	1092.75
398.69	1089.17
399.06	1090.53
399.42	1091.42
399.79	1092.49
400.16	1093.71
400.53	1092.94
400.90	1092.61
401.27	1092.61
401.64	1091.95
402.00	1090.99
402.37	1092.02
402.74	1093.17
403.11	1094.06
403.48	1095.60
403.84	1093.22
404.21	1092.82
404.58	1089.87
404.95	1091.37
405.32	1091.95
405.68	1093.10
406.05	1093.97
406.42	1096.54
406.79	1097.03
407.16	1097.57
407.52	1096.80
407.89	1097.41
408.26	1096.33
408.63	1095.49
408.99	1092.77
409.36	1095.63
409.73	1096.78
410.10	1098.34
410.47	1097.45
410.83	1097.55
411.20	1098.27
411.57	1097.36
411.94	1096.12
412.30	1100.31
412.67	1104.15
413.04	1103.61
413.40	1105.22
413.77	1108.43
414.14	1104.57
414.51	1102.91
414.87	1099.91
415.24	1099.96
415.61	1101.06
415.97	1102.35
416.34	1103.09
416.71	1107.56
417.08	1106.75
417.44	1105.15
417.81	1106.32
418.18	1107.52
418.54	1106.44
418.91	1107.73
419.28	1108.90
419.64	1107.73
420.01	1108.99
420.38	1108.22
420.74	1105.86
421.11	1106.21
421.48	1107.68
421.84	1104.92
422.21	1107.73
422.58	1108.95
422.94	1107.71
423.31	1109.09
423.68	1111.54
424.04	1112.08
424.41	1115.73
424.77	1114.80
425.14	1117.32
425.51	1115.71
425.87	1114.59
426.24	1110.98
426.61	1112.13
426.97	1109.32
427.34	1109.41
427.70	1110.30
428.07	1113.28
428.44	1116.11
428.80	1113.21
429.17	1112.81
429.53	1110.63
429.90	1109.69
430.27	1109.48
430.63	1112.92
431.00	1115.36
431.36	1116.48
431.73	1115.62
432.09	1113.98
432.46	1112.50
432.83	1112.34
433.19	1111.52
433.56	1114.17
433.92	1113.21
434.29	1115.62
434.65	1116.15
435.02	1115.57
435.38	1113.56
435.75	1114.47
436.11	1113.44
436.48	1114.19
436.84	1113.81
437.21	1115.45
437.57	1113.53
437.94	1114.70
438.30	1112.36
438.67	1113.44
439.03	1112.76
439.40	1114.91
439.76	1112.74
440.13	1109.81
440.49	1112.41
440.86	1110.61
441.22	1110.16
441.59	1110.61
441.95	1114.12
442.32	1107.80
442.68	1110.91
443.05	1109.30
443.41	1110.30
443.78	1108.81
444.14	1114.00
444.51	1112.20
444.87	1112.18
445.24	1110.28
445.60	1111.89
445.96	1112.11
446.33	1110.54
446.69	1110.91
447.06	1108.62
447.42	1108.90
447.79	1109.30
448.15	1111.64
448.51	1111.31
448.88	1113.44
449.24	1111.64
449.61	1112.20
449.97	1112.22
450.33	1114.09
450.70	1114.42
451.06	1115.50
451.43	1115.05
451.79	1113.79
452.15	1113.30
452.52	1114.56
452.88	1113.58
453.24	1113.44
453.61	1112.39
453.97	1113.02
454.34	1111.08
454.70	1112.11
455.06	1107.68
455.43	1109.23
455.79	1110.16
456.15	1109.88
456.52	1109.37
456.88	1113.28
457.24	1109.95
457.61	1106.23
457.97	1109.23
458.33	1108.17
458.70	1106.89
459.06	1108.10
459.42	1111.52
459.79	1111.45
460.15	1117.23
460.51	1115.69
460.88	1118.89
461.24	1119.67
461.60	1120.58
461.96	1117.65
462.33	1122.31
462.69	1121.33
463.05	1121.00
463.42	1118.92
463.78	1116.81
464.14	1116.06
464.50	1114.12
464.87	1115.38
465.23	1114.05
465.59	1118.35
465.95	1119.57
466.32	1125.75
466.68	1126.48
467.04	1127.90
467.40	1126.73
467.77	1129.26
468.13	1129.14
468.49	1130.20
468.85	1135.56
469.22	1139.75
469.58	1138.76
469.94	1139.23
470.30	1140.82
470.66	1140.89
471.03	1138.41
471.39	1139.54
471.75	1141.64
472.11	1140.85
472.47	1143.38
472.84	1145.88
473.20	1151.78
473.56	1155.69
473.92	1161.63
474.28	1163.95
474.65	1170.08
475.01	1174.04
475.37	1177.66
475.73	1179.65
476.09	1183.45
476.45	1191.36
476.81	1193.74
477.18	1199.08
477.54	1203.60
477.90	1210.10
478.26	1212.44
478.62	1218.01
478.98	1226.09
479.34	1235.64
479.71	1243.36
480.07	1250.10
480.43	1260.17
480.79	1266.30
481.15	1274.66
481.51	1284.37
481.87	1298.25
482.23	1309.34
482.59	1323.06
482.96	1337.08
483.32	1351.14
483.68	1363.41
484.04	1378.11
484.40	1391.26
484.76	1409.73
485.12	1428.17
485.48	1448.16
485.84	1469.39
486.20	1489.77
486.56	1510.21
486.92	1531.62
487.28	1555.54
487.64	1576.75
488.00	1604.37
488.37	1633.93
488.73	1666.46
489.09	1695.74
489.45	1734.10
489.81	1774.10
490.17	1811.88
490.53	1853.87
490.89	1900.68
491.25	1943.30
491.61	1984.52
491.97	2029.71
492.33	2078.14
492.69	2127.36
493.05	2179.83
493.41	2240.06
493.77	2300.35
494.13	2366.52
494.49	2435.94
494.85	2513.08
495.21	2588.23
495.57	2667.44
495.93	2748.61
496.29	2833.90
496.64	2926.70
497.00	3017.98
497.36	3118.46
497.72	3217.02
498.08	3327.19
498.44	3435.72
498.80	3560.10
499.16	3695.17
499.52	3838.20
499.88	3987.27
500.24	4149.96
500.60	4301.55
500.96	4459.28
501.32	4628.99
501.68	4801.00
502.03	4980.43
502.39	5191.12
502.75	5402.03
503.11	5623.89
503.47	5853.42
503.83	6097.66
504.19	6352.64
504.55	6629.24
504.91	6906.20
505.26	7185.37
505.62	7487.30
505.98	7806.22
506.34	8126.29
506.70	8487.93
507.06	8875.33
507.42	9275.12
507.78	9677.69
508.13	10105.54
508.49	10548.42
508.85	11018.19
509.21	11508.06
509.57	12023.94
509.93	12570.15
510.28	13149.90
510.64	13749.34
511.00	14340.32
511.36	14920.47
511.72	15513.91
512.07	16165.21
512.43	16780.96
512.79	17452.70
513.15	18189.31
513.51	18926.74
513.86	19630.87
514.22	20464.24
514.58	21256.65
514.94	22061.00
515.30	22899.66
515.65	23712.04
516.01	24544.66
516.37	25371.95
516.73	26159.02
517.08	27003.39
517.44	27857.27
517.80	28637.02
518.16	29497.12
518.51	30324.47
518.87	31082.15
519.23	31942.16
519.59	32819.55
519.94	33646.56
520.30	34524.87
520.66	35309.44
521.01	36089.35
521.37	36763.47
521.73	37400.19
522.09	37978.89
522.44	38596.23
522.80	38992.67
523.16	39359.08
523.51	39596.29
523.87	39894.20
524.23	40168.41
524.58	40437.74
524.94	40820.82
525.30	41175.48
525.65	41351.93
526.01	41395.07
526.37	41419.13
526.72	41315.09
527.08	41194.01
527.44	41036.24
527.79	40893.72
528.15	40773.72
528.51	40554.28
528.86	40325.96
529.22	40105.03
529.58	39833.86
529.93	39459.96
530.29	39022.49
530.65	38649.99
531.00	38291.98
531.36	37863.03
531.71	37404.38
532.07	36934.99
532.43	36356.43
532.78	35682.96
533.14	35127.46
533.49	34562.36
533.85	33960.94
534.21	33352.66
534.56	32811.97
534.92	32187.68
535.27	31575.37
535.63	30988.65
535.98	30370.02
536.34	29731.33
536.69	29100.02
537.05	28459.23
537.41	27930.60
537.76	27434.03
538.12	26904.83
538.47	26411.63
538.83	25993.15
539.18	25531.66
539.54	25061.96
539.89	24606.29
540.25	24099.16
540.60	23615.77
540.96	23092.47
541.31	22602.04
541.67	22176.65
542.02	21796.05
542.38	21353.81
542.73	20907.70
543.09	20517.35
543.44	20147.78
543.80	19782.75
544.15	19387.13
544.51	19066.71
544.86	18753.85
545.22	18382.99
545.57	18031.30
545.93	17684.22
546.28	17380.42
546.64	17058.71
546.99	16725.40
547.35	16394.52
547.70	16109.11
548.05	15778.28
548.41	15461.95
548.76	15164.78
549.12	14868.23
549.47	14574.84
549.83	14329.79
550.18	14031.70
550.53	13713.22
550.89	13444.93
551.24	13184.92
551.60	12882.82
551.95	12619.51
552.30	12402.24
552.66	12165.54
553.01	11905.51
553.37	11634.99
553.72	11359.46
554.07	11082.44
554.43	10793.83
554.78	10510.08
555.13	10252.90
555.49	10028.33
555.84	9832.22
556.19	9648.58
556.55	9458.90
556.90	9271.31
557.26	9074.33
557.61	8850.43
557.96	8598.73
558.32	8393.68
558.67	8184.71
559.02	7960.84
559.37	7783.47
559.73	7643.28
560.08	7489.50
560.43	7345.19
560.79	7229.84
561.14	7072.72
561.49	6903.57
561.85	6750.92
562.20	6601.29
562.55	6454.85
562.90	6324.74
563.26	6206.47
563.61	6084.67
563.96	5966.00
564.32	5837.74
564.67	5714.44
565.02	5596.99
565.37	5486.82
565.73	5380.31
566.08	5282.19
566.43	5178.81
566.78	5075.10
567.14	4969.24
567.49	4853.97
567.84	4752.90
568.19	4651.72
568.54	4557.47
568.90	4469.30
569.25	4399.53
569.60	4327.98
569.95	4255.12
570.31	4176.78
570.66	4101.30
571.01	4011.63
571.36	3909.89
571.71	3832.35
572.06	3760.14
572.42	3694.09
572.77	3644.28
573.12	3594.92
573.47	3534.21
573.82	3477.52
574.18	3411.26
574.53	3342.68
574.88	3293.63
575.23	3244.61
575.58	3198.62
575.93	3151.20
576.28	3101.56
576.64	3039.84
576.99	2982.92
577.34	2919.42
577.69	2863.81
578.04	2808.20
578.39	2764.90
578.74	2721.08
579.09	2677.81
579.44	2634.04
579.80	2599.31
580.15	2555.30
580.50	2519.05
580.85	2487.59
581.20	2458.10
581.55	2430.23
581.90	2405.79
582.25	2376.72
582.60	2343.74
582.95	2310.20
583.30	2269.69
583.65	2236.69
584.00	2197.11
584.35	2165.70
584.71	2132.86
585.06	2101.68
585.41	2065.83
585.76	2040.10
586.11	2011.99
586.46	1986.41
586.81	1964.86
587.16	1947.44
587.51	1929.65
587.86	1912.22
588.21	1893.45
588.56	1874.09
588.91	1854.73
589.26	1829.64
589.61	1806.31
589.96	1789.83
590.31	1770.76
590.66	1752.64
591.01	1738.85
591.36	1724.16
591.71	1704.14
592.06	1691.01
592.41	1672.78
592.76	1660.96
593.10	1646.45
593.45	1635.54
593.80	1616.54
594.15	1600.18
594.50	1582.72
594.85	1568.25
595.20	1561.28
595.55	1556.03
595.90	1550.14
596.25	1542.18
596.60	1531.11
596.95	1511.19
597.30	1497.31
597.64	1536.00
597.99	1525.63
598.34	1519.08
598.69	1512.08
599.04	1504.94
599.39	1447.34
599.74	1433.46
600.09	1425.55
600.44	1416.84
600.78	1407.74
601.13	1395.90
601.48	1394.19
601.83	1389.30
602.18	1384.92
602.53	1379.82
602.88	1377.10
603.22	1371.16
603.57	1360.32
603.92	1353.18
604.27	1346.58
604.62	1339.42
604.97	1335.53
605.31	1329.26
605.66	1325.89
606.01	1321.68
606.36	1316.01
606.71	1303.84
607.05	1298.74
607.40	1290.83
607.75	1287.34
608.10	1283.46
608.44	1278.35
608.79	1275.43
609.14	1270.37
609.49	1264.87
609.84	1260.54
610.18	1260.14
610.53	1257.85
610.88	1257.15
611.23	1254.78
611.57	1254.01
611.92	1252.87
612.27	1250.69
612.62	1246.50
612.96	1240.30
613.31	1234.84
613.66	1230.65
614.00	1223.09
614.35	1219.58
614.70	1215.98
615.05	1212.94
615.39	1208.14
615.74	1204.14
616.09	1199.59
616.43	1196.22
616.78	1190.82
617.13	1187.73
617.47	1189.69
617.82	1187.89
618.17	1185.83
618.51	1185.76
618.86	1183.23
619.21	1179.19
619.55	1176.31
619.90	1174.04
620.25	1171.39
620.59	1172.35
620.94	1167.67
621.29	1164.91
621.63	1166.73
621.98	1165.52
622.32	1162.97
622.67	1163.25
623.02	1162.82
623.36	1157.82
623.71	1156.39
624.05	1152.99
624.40	1152.15
624.75	1148.69
625.09	1147.45
625.44	1145.95
625.78	1146.46
626.13	1148.03
626.48	1150.42
626.82	1151.99
627.17	1149.91
627.51	1150.33
627.86	1142.72
628.20	1140.78
628.55	1137.76
628.89	1133.54
629.24	1128.44
629.58	1129.78
629.93	1130.08
630.28	1130.20
630.62	1129.05
630.97	1131.51
631.31	1131.77
631.66	1130.83
632.00	1129.45
632.35	1133.99
632.69	1129.00
633.04	1127.06
633.38	1123.57
633.73	1122.29
634.07	1121.94
634.42	1120.37
634.76	1119.41
635.11	1118.33
635.45	1119.83
635.79	1115.71
636.14	1116.41
636.48	1115.22
636.83	1114.94
637.17	1111.22
637.52	1109.34
637.86	1109.09
638.21	1111.08
638.55	1111.87
638.89	1111.92
639.24	1112.76
639.58	1112.71
639.93	1112.50
640.27	1112.97
640.61	1111.78
640.96	1110.54
641.30	1107.07
641.65	1102.72
641.99	1102.42
642.33	1103.63
642.68	1104.99
643.02	1107.49
643.37	1109.72
643.71	1108.59
644.05	1104.94
644.40	1105.51
644.74	1103.07
645.08	1102.13
645.43	1101.69
645.77	1104.12
646.11	1102.23
646.46	1104.66
646.80	1107.05
647.14	1106.93
647.49	1109.81
647.83	1109.44
648.17	1108.27
648.52	1104.71
648.86	1105.06
649.20	1101.41
649.55	1103.26
649.89	1103.82
650.23	1103.33
650.57	1103.33
650.92	1104.92
651.26	1102.84
651.60	1101.22
651.95	1102.37
652.29	1099.96
652.63	1100.03
652.97	1099.56
653.32	1100.17
653.66	1099.28
654.00	1101.03
654.34	1097.99
654.69	1098.39
655.03	1097.43
655.37	1094.83
655.71	1093.43
656.05	1092.91
656.40	1093.78
656.74	1093.29
657.08	1095.93
657.42	1097.73
657.76	1099.86
658.11	1099.21
658.45	1100.36
658.79	1101.03
659.13	1097.73
659.47	1097.59
659.82	1095.44
660.16	1096.07
660.50	1094.08
660.84	1097.88
661.18	1096.40
661.52	1095.28
661.87	1095.28
662.21	1097.83
662.55	1096.24
662.89	1097.59
663.23	1095.04
663.57	1098.44
663.91	1095.42
664.25	1092.00
664.60	1092.73
664.94	1098.67
665.28	1092.91
665.62	1092.96
665.96	1095.39
666.30	1093.73
666.64	1091.25
666.98	1094.60
667.32	1097.20
667.66	1096.78
668.01	1096.59
668.35	1094.81
668.69	1091.88
669.03	1087.69
669.37	1087.18
669.71	1083.64
670.05	1085.84
670.39	1081.91
670.73	1084.84
671.07	1085.87
671.41	1086.69
671.75	1088.84
672.09	1093.99
672.43	1093.59
672.77	1094.06
673.11	1095.07
673.45	1093.85
673.79	1093.64
674.13	1092.73
674.47	1089.94
674.81	1092.19
675.15	1092.87
675.49	1093.50
675.83	1094.34
676.17	1093.97
676.51	1092.52
676.85	1090.60
677.19	1091.74
677.53	1091.16
677.87	1093.38
678.21	1092.87
678.55	1095.23
678.89	1091.53
679.23	1090.97
679.57	1091.09
679.90	1088.65
680.24	1087.20
680.58	1087.16
680.92	1087.97
681.26	1090.90
681.60	1091.60
681.94	1091.49
682.28	1094.81
682.62	1093.40
682.96	1088.82
683.29	1092.40
683.63	1091.70
683.97	1088.70
684.31	1090.60
684.65	1091.23
684.99	1090.01
685.33	1093.71
685.67	1094.43
686.00	1093.57
686.34	1093.17
686.68	1092.82
687.02	1090.39
687.36	1093.59
687.70	1093.62
688.03	1095.39
688.37	1094.72
688.71	1090.81
689.05	1086.66
689.39	1083.93
689.72	1084.63
690.06	1085.26
690.40	1087.81
690.74	1089.78
691.08	1094.08
691.41	1091.25
691.75	1092.09
692.09	1094.88
692.43	1096.03
692.76	1092.37
693.10	1097.03
693.44	1096.49
693.78	1094.20
694.11	1092.94
694.45	1096.59
694.79	1090.99
695.13	1089.40
695.46	1088.68
695.80	1086.87
696.14	1088.72
696.48	1092.19
696.81	1092.45
697.15	1092.59
697.49	1092.47
697.82	1090.74
698.16	1089.96
698.50	1093.26
698.83	1094.62
699.17	1096.68
699.51	1095.89
699.84	1094.74
700.18	1090.69
700.52	1090.81
700.85	1090.10
701.19	1090.78
701.53	1090.41
701.86	1090.20
702.20	1087.53
702.54	1085.91
702.87	1086.41
703.21	1086.24
703.55	1087.69
703.88	1087.86
704.22	1087.55
704.55	1086.43
704.89	1087.65
705.23	1086.38
705.56	1087.86
705.90	1090.41
706.23	1088.56
706.57	1087.55
706.91	1089.31
707.24	1089.57
707.58	1087.60
707.91	1090.27
708.25	1092.02
708.58	1091.42
708.92	1091.86
709.26	1092.40
709.59	1088.28
709.93	1086.03
710.26	1086.92
710.60	1085.68
710.93	1083.62
711.27	1086.22
711.60	1088.79
711.94	1088.68
712.27	1088.82
712.61	1089.50
712.94	1086.06
713.28	1084.35
713.61	1083.90
713.95	1082.83
714.28	1082.73
714.62	1083.64
714.95	1084.63
715.29	1083.95
715.62	1086.03
715.96	1087.34
716.29	1088.37
716.63	1088.19
716.96	1089.89
717.29	1089.03
717.63	1089.54
717.96	1091.81
718.30	1091.02
718.63	1088.51
718.97	1093.12
719.30	1094.83
719.63	1094.27
719.97	1092.49
720.30	1096.54
720.64	1092.68
720.97	1090.62
721.30	1090.71
721.64	1091.88
721.97	1090.13
722.31	1091.58
722.64	1090.57
722.97	1090.69
723.31	1090.74
723.64	1087.46
723.97	1086.34
724.31	1086.50
724.64	1086.83
724.98	1086.69
725.31	1087.30
725.64	1087.11
725.98	1086.76
726.31	1084.91
726.64	1088.89
726.97	1089.10
727.31	1085.00
727.64	1087.72
727.97	1088.98
728.31	1085.49
728.64	1088.28
728.97	1092.09
729.31	1092.49
729.64	1092.59
729.97	1090.22
730.30	1087.16
730.64	1084.74
730.97	1081.49
731.30	1080.70
731.63	1084.37
731.97	1084.09
732.30	1086.50
732.63	1086.78
732.96	1088.75
733.30	1085.68
733.63	1085.66
733.96	1085.38
734.29	1088.28
734.63	1086.38
734.96	1089.85
735.29	1091.86
735.62	1091.27
735.95	1089.31
736.29	1090.34
736.62	1088.26
736.95	1088.58
737.28	1089.89
737.61	1088.82
737.94	1087.83
738.28	1089.12
738.61	1090.69
738.94	1090.62
739.27	1089.94
739.60	1089.03
739.93	1085.26
740.27	1082.26
740.60	1081.87
740.93	1084.96
741.26	1086.57
741.59	1088.58
741.92	1090.71
742.25	1088.82
742.58	1088.65
742.91	1087.44
743.25	1089.73
743.58	1090.39
743.91	1090.60
744.24	1088.30
744.57	1090.17
744.90	1088.26
745.23	1085.12
745.56	1086.52
745.89	1088.12
746.22	1084.30
746.55	1085.73
746.88	1086.69
747.21	1086.36
747.54	1086.97
747.87	1090.22
748.20	1088.61
748.53	1089.87
748.87	1088.07
749.20	1088.54
749.53	1085.75
749.86	1088.02
750.19	1085.87
750.52	1087.30
750.85	1084.98
751.18	1087.67
751.51	1085.59
751.84	1085.66
752.16	1086.24
752.49	1085.21
752.82	1084.72
753.15	1087.65
753.48	1088.82
753.81	1087.83
754.14	1090.60
754.47	1091.60
754.80	1089.29
755.13	1089.73
755.46	1087.55
755.79	1088.23
756.12	1088.07
756.45	1086.27
756.78	1086.57
757.11	1088.51
757.43	1086.55
757.76	1086.29
758.09	1088.82
758.42	1085.75
758.75	1084.04
759.08	1085.05
759.41	1084.04
759.74	1083.86
760.07	1086.45
760.39	1088.98
760.72	1090.08
761.05	1088.79
761.38	1087.76
761.71	1084.93
762.04	1084.56
762.36	1080.70
762.69	1081.37
763.02	1077.98
763.35	1081.00
