SpectraSuite Data File
++++++++++++++++++++++++++++++++++++
Date: Mon Aug 26 10:26:52 PDT 2019
User: corrico
Dark Spectrum Present: No
Reference Spectrum Present: No
Number of Sampled Component Spectra: 1
Spectrometers: USB2+H06089
Integration Time (usec): 10000 (USB2+H06089)
Spectra Averaged: 20 (USB2+H06089)
Boxcar Smoothing: 2 (USB2+H06089)
Correct for Electrical Dark: No (USB2+H06089)
Strobe/Lamp Enabled: No (USB2+H06089)
Correct for Detector Non-linearity: No (USB2+H06089)
Correct for Stray Light: No (USB2+H06089)
Number of Pixels in Processed Spectrum: 2048
>>>>>Begin Processed Spectral Data<<<<<
339.70	1041.19
340.07	1041.19
340.45	1003.90
340.82	981.69
341.19	957.07
341.57	930.78
341.94	918.61
342.31	910.16
342.69	902.30
343.06	898.95
343.43	897.99
343.81	902.23
344.18	902.70
344.55	909.34
344.93	914.24
345.30	920.65
345.67	927.16
346.04	938.41
346.42	945.08
346.79	954.33
347.16	963.46
347.54	972.26
347.91	979.23
348.28	989.63
348.65	1000.23
349.03	1007.69
349.40	1016.94
349.77	1028.48
350.14	1038.12
350.52	1046.66
350.89	1054.53
351.26	1055.63
351.63	1058.53
352.01	1063.45
352.38	1065.22
352.75	1069.79
353.12	1076.58
353.50	1082.40
353.87	1081.23
354.24	1084.56
354.61	1086.87
354.98	1086.38
355.36	1084.39
355.73	1087.86
356.10	1087.58
356.47	1087.88
356.84	1089.82
357.22	1089.87
357.59	1087.86
357.96	1088.91
358.33	1090.50
358.70	1092.82
359.08	1096.10
359.45	1098.06
359.82	1097.27
360.19	1092.09
360.56	1088.28
360.94	1086.76
361.31	1086.87
361.68	1083.43
362.05	1087.04
362.42	1090.32
362.79	1087.53
363.16	1086.66
363.54	1089.36
363.91	1083.62
364.28	1080.95
364.65	1081.87
365.02	1081.21
365.39	1081.09
365.76	1083.41
366.14	1083.83
366.51	1081.42
366.88	1076.81
367.25	1072.48
367.62	1072.06
367.99	1068.57
368.36	1070.94
368.73	1074.49
369.10	1076.32
369.48	1077.84
369.85	1078.61
370.22	1077.84
370.59	1074.82
370.96	1073.32
371.33	1071.45
371.70	1074.59
372.07	1075.05
372.44	1077.40
372.81	1080.67
373.18	1082.71
373.55	1084.96
373.93	1083.95
374.30	1083.50
374.67	1082.71
375.04	1080.98
375.41	1076.81
375.78	1076.88
376.15	1082.52
376.52	1082.50
376.89	1081.30
377.26	1083.32
377.63	1086.59
378.00	1080.74
378.37	1081.28
378.74	1081.98
379.11	1082.78
379.48	1081.58
379.85	1083.06
380.22	1084.00
380.59	1081.49
380.96	1080.18
381.33	1080.37
381.70	1080.46
382.07	1078.80
382.44	1083.01
382.81	1083.41
383.18	1084.89
383.55	1083.93
383.92	1085.96
384.29	1087.39
384.66	1088.49
385.03	1085.70
385.40	1089.99
385.77	1090.34
386.14	1090.55
386.51	1088.68
386.88	1090.62
387.25	1087.06
387.62	1081.94
387.99	1082.43
388.36	1083.97
388.73	1082.08
389.10	1085.38
389.46	1089.68
389.83	1088.77
390.20	1085.54
390.57	1087.41
390.94	1087.44
391.31	1088.04
391.68	1088.16
392.05	1091.37
392.42	1090.24
392.79	1088.40
393.16	1089.52
393.53	1090.64
393.89	1090.85
394.26	1091.84
394.63	1093.55
395.00	1094.74
395.37	1092.73
395.74	1087.86
396.11	1087.48
396.48	1085.84
396.84	1086.29
397.21	1088.47
397.58	1093.26
397.95	1091.51
398.32	1093.94
398.69	1090.69
399.06	1090.32
399.42	1088.61
399.79	1090.67
400.16	1091.39
400.53	1092.05
400.90	1090.78
401.27	1090.36
401.64	1089.00
402.00	1086.31
402.37	1087.76
402.74	1090.27
403.11	1095.35
403.48	1096.59
403.84	1096.78
404.21	1098.53
404.58	1097.10
404.95	1096.42
405.32	1099.23
405.68	1099.56
406.05	1097.71
406.42	1097.06
406.79	1094.79
407.16	1094.95
407.52	1095.23
407.89	1095.07
408.26	1098.18
408.63	1098.16
408.99	1097.20
409.36	1096.63
409.73	1095.46
410.10	1093.26
410.47	1095.23
410.83	1096.45
411.20	1097.55
411.57	1098.30
411.94	1097.36
412.30	1098.09
412.67	1097.29
413.04	1098.44
413.40	1098.04
413.77	1099.82
414.14	1099.33
414.51	1099.19
414.87	1097.03
415.24	1099.70
415.61	1100.29
415.97	1101.25
416.34	1103.68
416.71	1104.48
417.08	1101.62
417.44	1098.62
417.81	1097.76
418.18	1097.10
418.54	1098.06
418.91	1102.25
419.28	1106.32
419.64	1109.62
420.01	1109.60
420.38	1111.92
420.74	1110.14
421.11	1111.33
421.48	1113.56
421.84	1111.15
422.21	1110.87
422.58	1112.69
422.94	1113.25
423.31	1107.17
423.68	1111.22
424.04	1111.64
424.41	1108.43
424.77	1107.12
425.14	1110.89
425.51	1112.92
425.87	1113.81
426.24	1117.32
426.61	1116.81
426.97	1117.28
427.34	1111.82
427.70	1110.49
428.07	1109.91
428.44	1110.23
428.80	1107.75
429.17	1110.21
429.53	1110.02
429.90	1111.50
430.27	1112.95
430.63	1115.92
431.00	1115.36
431.36	1117.54
431.73	1115.85
432.09	1118.03
432.46	1115.94
432.83	1117.32
433.19	1116.11
433.56	1114.49
433.92	1112.06
434.29	1113.28
434.65	1115.12
435.02	1114.82
435.38	1117.18
435.75	1116.53
436.11	1119.45
436.48	1119.48
436.84	1117.75
437.21	1117.09
437.57	1116.32
437.94	1112.62
438.30	1109.74
438.67	1110.65
439.03	1112.08
439.40	1114.91
439.76	1113.95
440.13	1113.11
440.49	1113.63
440.86	1109.88
441.22	1107.66
441.59	1106.35
441.95	1106.89
442.32	1107.05
442.68	1107.87
443.05	1110.61
443.41	1115.29
443.78	1115.71
444.14	1113.56
444.51	1115.83
444.87	1113.39
445.24	1110.33
445.60	1109.55
445.96	1109.79
446.33	1106.23
446.69	1105.76
447.06	1106.32
447.42	1107.64
447.79	1109.06
448.15	1110.47
448.51	1112.88
448.88	1112.97
449.24	1113.65
449.61	1113.67
449.97	1115.99
450.33	1115.10
450.70	1114.05
451.06	1112.64
451.43	1113.53
451.79	1111.45
452.15	1111.68
452.52	1111.24
452.88	1114.73
453.24	1115.92
453.61	1116.44
453.97	1116.44
454.34	1116.25
454.70	1114.45
455.06	1109.77
455.43	1111.24
455.79	1111.68
456.15	1112.11
456.52	1111.45
456.88	1115.50
457.24	1114.77
457.61	1113.88
457.97	1115.15
458.33	1114.49
458.70	1110.61
459.06	1111.75
459.42	1112.60
459.79	1112.74
460.15	1113.32
460.51	1114.45
460.88	1113.98
461.24	1110.49
461.60	1113.77
461.96	1114.82
462.33	1117.35
462.69	1116.39
463.05	1121.16
463.42	1118.78
463.78	1119.67
464.14	1119.83
464.50	1119.67
464.87	1118.19
465.23	1120.02
465.59	1120.58
465.95	1122.36
466.32	1125.07
466.68	1127.55
467.04	1126.59
467.40	1127.16
467.77	1128.11
468.13	1131.04
468.49	1132.89
468.85	1135.02
469.22	1136.61
469.58	1135.77
469.94	1135.51
470.30	1135.77
470.66	1138.37
471.03	1138.02
471.39	1143.70
471.75	1147.56
472.11	1148.69
472.47	1150.30
472.84	1153.72
473.20	1156.53
473.56	1157.49
473.92	1162.57
474.28	1166.17
474.65	1169.61
475.01	1171.11
475.37	1173.61
475.73	1175.65
476.09	1179.44
476.45	1185.13
476.81	1191.50
477.18	1194.31
477.54	1199.13
477.90	1202.87
478.26	1208.49
478.62	1212.26
478.98	1219.54
479.34	1227.35
479.71	1236.04
480.07	1241.51
480.43	1249.82
480.79	1260.43
481.15	1270.86
481.51	1278.31
481.87	1291.11
482.23	1305.25
482.59	1319.92
482.96	1332.82
483.32	1349.93
483.68	1363.69
484.04	1378.11
484.40	1392.36
484.76	1409.31
485.12	1427.52
485.48	1446.80
485.84	1465.92
486.20	1489.91
486.56	1510.72
486.92	1533.78
487.28	1559.69
487.64	1584.80
488.00	1613.75
488.37	1643.71
488.73	1676.67
489.09	1711.19
489.45	1744.42
489.81	1777.33
490.17	1813.73
490.53	1850.19
490.89	1888.53
491.25	1934.90
491.61	1979.65
491.97	2027.70
492.33	2078.42
492.69	2127.34
493.05	2178.50
493.41	2233.27
493.77	2295.46
494.13	2360.66
494.49	2432.99
494.85	2507.56
495.21	2580.56
495.57	2658.47
495.93	2738.94
496.29	2822.48
496.64	2916.52
497.00	3008.08
497.36	3101.68
497.72	3204.97
498.08	3312.68
498.44	3421.09
498.80	3552.44
499.16	3684.28
499.52	3820.81
499.88	3972.29
500.24	4123.16
500.60	4275.83
500.96	4437.21
501.32	4607.41
501.68	4771.91
502.03	4954.75
502.39	5161.05
502.75	5377.08
503.11	5606.00
503.47	5841.79
503.83	6093.40
504.19	6340.79
504.55	6610.00
504.91	6885.81
505.26	7164.10
505.62	7462.42
505.98	7782.23
506.34	8111.27
506.70	8464.01
507.06	8849.33
507.42	9251.95
507.78	9651.36
508.13	10058.55
508.49	10495.27
508.85	10958.69
509.21	11431.71
509.57	11961.21
509.93	12513.91
510.28	13096.37
510.64	13714.53
511.00	14317.95
511.36	14875.37
511.72	15469.82
512.07	16104.83
512.43	16699.91
512.79	17371.99
513.15	18122.53
513.51	18860.18
513.86	19582.89
514.22	20409.52
514.58	21198.89
514.94	22021.23
515.30	22890.53
515.65	23704.15
516.01	24548.59
516.37	25389.01
516.73	26153.10
517.08	26969.92
517.44	27802.08
517.80	28585.57
518.16	29439.87
518.51	30271.20
518.87	31019.10
519.23	31881.49
519.59	32762.54
519.94	33579.08
520.30	34474.73
520.66	35247.37
521.01	36062.32
521.37	36731.27
521.73	37356.80
522.09	37916.30
522.44	38582.00
522.80	38958.83
523.16	39305.04
523.51	39562.29
523.87	39853.54
524.23	40087.67
524.58	40355.68
524.94	40740.35
525.30	41070.85
525.65	41251.68
526.01	41311.56
526.37	41319.37
526.72	41240.10
527.08	41123.33
527.44	40956.57
527.79	40794.44
528.15	40705.26
528.51	40505.12
528.86	40303.88
529.22	40078.35
529.58	39835.92
529.93	39438.28
530.29	38980.12
530.65	38567.23
531.00	38208.10
531.36	37757.50
531.71	37294.07
532.07	36812.53
532.43	36264.10
532.78	35623.30
533.14	35054.06
533.49	34494.75
533.85	33884.90
534.21	33269.05
534.56	32702.20
534.92	32111.92
535.27	31501.67
535.63	30920.28
535.98	30303.64
536.34	29663.65
536.69	29034.46
537.05	28428.92
537.41	27922.33
537.76	27441.45
538.12	26921.33
538.47	26428.25
538.83	25978.99
539.18	25508.02
539.54	25046.82
539.89	24594.77
540.25	24081.56
540.60	23611.56
540.96	23098.07
541.31	22596.12
541.67	22169.02
542.02	21794.95
542.38	21356.57
542.73	20904.78
543.09	20517.49
543.44	20161.44
543.80	19794.19
544.15	19391.78
544.51	19080.42
544.86	18752.72
545.22	18368.62
545.57	18013.47
545.93	17661.99
546.28	17342.81
546.64	17038.59
546.99	16710.37
547.35	16359.67
547.70	16080.93
548.05	15782.72
548.41	15447.61
548.76	15159.51
549.12	14891.12
549.47	14602.79
549.83	14318.74
550.18	14010.59
550.53	13679.40
550.89	13404.93
551.24	13126.17
551.60	12829.13
551.95	12592.60
552.30	12370.48
552.66	12115.62
553.01	11864.01
553.37	11599.23
553.72	11309.35
554.07	11038.97
554.43	10761.71
554.78	10490.37
555.13	10225.22
555.49	10000.03
555.84	9804.25
556.19	9611.78
556.55	9414.59
556.90	9235.59
557.26	9036.50
557.61	8810.15
557.96	8573.20
558.32	8366.29
558.67	8165.22
559.02	7950.75
559.37	7771.05
559.73	7618.21
560.08	7462.24
560.43	7296.99
560.79	7179.13
561.14	7024.86
561.49	6864.02
561.85	6703.65
562.20	6561.08
562.55	6419.95
562.90	6298.03
563.26	6175.32
563.61	6064.00
563.96	5960.15
564.32	5840.39
564.67	5714.56
565.02	5601.93
565.37	5489.70
565.73	5374.43
566.08	5272.71
566.43	5168.37
566.78	5058.27
567.14	4950.49
567.49	4838.45
567.84	4727.06
568.19	4622.21
568.54	4529.19
568.90	4443.39
569.25	4375.68
569.60	4309.61
569.95	4247.51
570.31	4180.22
570.66	4107.06
571.01	4010.53
571.36	3910.26
571.71	3832.30
572.06	3759.79
572.42	3692.52
572.77	3637.66
573.12	3593.47
573.47	3529.25
573.82	3462.07
574.18	3394.71
574.53	3331.57
574.88	3269.75
575.23	3220.86
575.58	3177.35
575.93	3130.42
576.28	3080.00
576.64	3024.77
576.99	2962.28
577.34	2899.74
577.69	2844.27
578.04	2796.61
578.39	2750.34
578.74	2715.21
579.09	2679.38
579.44	2636.82
579.80	2594.72
580.15	2551.70
580.50	2509.92
580.85	2470.22
581.20	2446.16
581.55	2413.93
581.90	2388.61
582.25	2359.94
582.60	2329.39
582.95	2292.58
583.30	2257.52
583.65	2222.13
584.00	2183.37
584.35	2150.30
584.71	2118.54
585.06	2094.15
585.41	2063.84
585.76	2035.26
586.11	2011.97
586.46	1989.60
586.81	1964.46
587.16	1946.72
587.51	1928.16
587.86	1908.99
588.21	1886.82
588.56	1869.69
588.91	1850.64
589.26	1833.13
589.61	1810.97
589.96	1791.21
590.31	1771.57
590.66	1754.91
591.01	1740.21
591.36	1727.76
591.71	1709.50
592.06	1691.34
592.41	1672.52
592.76	1652.86
593.10	1634.21
593.45	1623.70
593.80	1609.05
594.15	1596.83
594.50	1589.25
594.85	1574.64
595.20	1561.44
595.55	1553.27
595.90	1545.97
596.25	1530.48
596.60	1522.96
596.95	1512.85
597.30	1499.93
597.64	1536.56
597.99	1530.06
598.34	1522.03
598.69	1515.92
599.04	1509.53
599.39	1451.97
599.74	1440.39
600.09	1430.54
600.44	1417.73
600.78	1410.22
601.13	1402.36
601.48	1394.87
601.83	1388.15
602.18	1381.74
602.53	1372.33
602.88	1365.45
603.22	1361.86
603.57	1352.69
603.92	1346.21
604.27	1342.18
604.62	1334.50
604.97	1327.72
605.31	1324.88
605.66	1322.29
606.01	1313.81
606.36	1308.59
606.71	1302.74
607.05	1297.66
607.40	1290.83
607.75	1290.10
608.10	1284.46
608.44	1281.65
608.79	1276.93
609.14	1273.11
609.49	1268.97
609.84	1267.77
610.18	1266.39
610.53	1260.52
610.88	1259.40
611.23	1255.58
611.57	1250.01
611.92	1244.63
612.27	1244.32
612.62	1237.39
612.96	1233.65
613.31	1230.23
613.66	1224.38
614.00	1219.96
614.35	1216.73
614.70	1211.44
615.05	1208.61
615.39	1207.65
615.74	1205.14
616.09	1203.60
616.43	1202.36
616.78	1202.47
617.13	1200.39
617.47	1195.38
617.82	1193.70
618.17	1190.35
618.51	1184.24
618.86	1179.65
619.21	1179.21
619.55	1177.78
619.90	1175.23
620.25	1175.39
620.59	1176.42
620.94	1171.91
621.29	1168.54
621.63	1169.07
621.98	1169.19
622.32	1167.46
622.67	1167.90
623.02	1166.78
623.36	1164.84
623.71	1159.43
624.05	1155.29
624.40	1156.65
624.75	1155.38
625.09	1156.76
625.44	1156.15
625.78	1154.68
626.13	1149.11
626.48	1147.96
626.82	1144.62
627.17	1143.84
627.51	1145.67
627.86	1143.98
628.20	1142.79
628.55	1139.14
628.89	1136.31
629.24	1132.89
629.58	1133.31
629.93	1128.79
630.28	1130.60
630.62	1129.82
630.97	1129.82
631.31	1127.37
631.66	1131.02
632.00	1126.48
632.35	1126.99
632.69	1126.78
633.04	1126.90
633.38	1124.65
633.73	1125.10
634.07	1123.86
634.42	1118.85
634.76	1121.14
635.11	1120.86
635.45	1119.03
635.79	1117.37
636.14	1120.79
636.48	1116.76
636.83	1111.61
637.17	1113.32
637.52	1112.50
637.86	1109.95
638.21	1111.89
638.55	1116.04
638.89	1114.59
639.24	1115.59
639.58	1116.39
639.93	1114.63
640.27	1113.65
640.61	1115.03
640.96	1113.21
641.30	1112.48
641.65	1111.24
641.99	1108.88
642.33	1105.25
642.68	1103.45
643.02	1102.91
643.37	1104.57
643.71	1104.87
644.05	1106.72
644.40	1106.35
644.74	1105.51
645.08	1104.83
645.43	1106.21
645.77	1104.19
646.11	1106.28
646.46	1104.69
646.80	1104.92
647.14	1106.35
647.49	1107.59
647.83	1108.17
648.17	1109.48
648.52	1109.34
648.86	1106.61
649.20	1108.24
649.55	1109.39
649.89	1111.43
650.23	1111.50
650.57	1108.88
650.92	1107.38
651.26	1106.56
651.60	1099.98
651.95	1099.16
652.29	1099.19
652.63	1096.56
652.97	1095.75
653.32	1100.12
653.66	1100.36
654.00	1100.64
654.34	1102.32
654.69	1101.43
655.03	1101.34
655.37	1098.67
655.71	1098.44
656.05	1098.11
656.40	1099.28
656.74	1097.62
657.08	1099.35
657.42	1103.14
657.76	1100.71
658.11	1098.06
658.45	1098.06
658.79	1097.06
659.13	1094.46
659.47	1096.33
659.82	1096.21
660.16	1095.91
660.50	1094.72
660.84	1095.28
661.18	1093.66
661.52	1095.56
661.87	1092.45
662.21	1093.69
662.55	1092.59
662.89	1092.19
663.23	1091.25
663.57	1095.42
663.91	1096.82
664.25	1096.54
664.60	1099.30
664.94	1098.62
665.28	1096.99
665.62	1096.38
665.96	1096.73
666.30	1094.13
666.64	1093.64
666.98	1092.94
667.32	1090.71
667.66	1093.19
668.01	1093.85
668.35	1094.36
668.69	1092.19
669.03	1090.60
669.37	1087.13
669.71	1087.74
670.05	1085.70
670.39	1088.07
670.73	1087.55
671.07	1086.27
671.41	1087.95
671.75	1090.74
672.09	1090.22
672.43	1090.62
672.77	1096.47
673.11	1095.60
673.45	1096.33
673.79	1094.36
674.13	1095.56
674.47	1091.09
674.81	1090.50
675.15	1088.86
675.49	1090.64
675.83	1090.17
676.17	1088.82
676.51	1088.61
676.85	1088.89
677.19	1091.23
677.53	1092.94
677.87	1097.15
678.21	1097.03
678.55	1098.69
678.89	1096.38
679.23	1095.53
679.57	1092.98
679.90	1092.42
680.24	1087.41
680.58	1087.55
680.92	1089.52
681.26	1090.57
681.60	1090.64
681.94	1095.72
682.28	1097.83
682.62	1097.43
682.96	1096.12
683.29	1094.79
683.63	1090.90
683.97	1090.71
684.31	1088.16
684.65	1086.80
684.99	1085.82
685.33	1086.43
685.67	1082.45
686.00	1083.74
686.34	1084.77
686.68	1089.43
687.02	1091.49
687.36	1094.15
687.70	1091.39
688.03	1091.37
688.37	1088.98
688.71	1087.39
689.05	1087.90
689.39	1090.22
689.72	1090.10
690.06	1089.73
690.40	1088.56
690.74	1090.08
691.08	1092.45
691.41	1094.60
691.75	1094.18
692.09	1096.85
692.43	1097.03
692.76	1096.10
693.10	1097.15
693.44	1098.67
693.78	1097.17
694.11	1095.37
694.45	1093.66
694.79	1090.62
695.13	1088.40
695.46	1088.82
695.80	1089.29
696.14	1087.51
696.48	1086.52
696.81	1088.79
697.15	1087.23
697.49	1087.09
697.82	1090.60
698.16	1092.56
698.50	1092.23
698.83	1093.38
699.17	1092.00
699.51	1091.23
699.84	1090.85
700.18	1090.60
700.52	1089.85
700.85	1090.76
701.19	1091.67
701.53	1092.19
701.86	1091.67
702.20	1091.09
702.54	1090.29
702.87	1087.88
703.21	1086.45
703.55	1089.24
703.88	1090.41
704.22	1089.71
704.55	1088.91
704.89	1088.44
705.23	1089.07
705.56	1086.06
705.90	1086.10
706.23	1088.09
706.57	1087.30
706.91	1084.60
707.24	1088.68
707.58	1090.53
707.91	1088.40
708.25	1088.35
708.58	1089.40
708.92	1088.30
709.26	1086.71
709.59	1087.74
709.93	1089.66
710.26	1087.23
710.60	1088.33
710.93	1088.93
711.27	1087.83
711.60	1087.32
711.94	1084.53
712.27	1082.80
712.61	1080.88
712.94	1082.85
713.28	1082.59
713.61	1086.76
713.95	1089.52
714.28	1092.12
714.62	1092.37
714.95	1093.33
715.29	1089.59
715.62	1087.95
715.96	1087.79
716.29	1086.01
716.63	1084.00
716.96	1087.58
717.29	1086.73
717.63	1088.91
717.96	1091.56
718.30	1089.36
718.63	1088.93
718.97	1089.50
719.30	1085.91
719.63	1085.24
719.97	1087.69
720.30	1084.18
720.64	1083.39
720.97	1083.27
721.30	1079.97
721.64	1079.08
721.97	1082.36
722.31	1082.01
722.64	1083.08
722.97	1088.00
723.31	1090.78
723.64	1091.32
723.97	1093.31
724.31	1094.67
724.64	1092.66
724.98	1092.28
725.31	1091.16
725.64	1092.66
725.98	1093.08
726.31	1090.83
726.64	1088.00
726.97	1090.46
727.31	1088.86
727.64	1085.03
727.97	1086.31
728.31	1087.74
728.64	1084.86
728.97	1083.67
729.31	1088.19
729.64	1089.68
729.97	1092.16
730.30	1092.47
730.64	1095.70
730.97	1096.49
731.30	1096.96
731.63	1094.36
731.97	1094.72
732.30	1087.18
732.63	1082.47
732.96	1078.12
733.30	1080.63
733.63	1082.08
733.96	1085.68
734.29	1083.67
734.63	1088.86
734.96	1085.07
735.29	1086.85
735.62	1085.94
735.95	1090.76
736.29	1086.57
736.62	1086.73
736.95	1082.19
737.28	1085.89
737.61	1084.96
737.94	1087.90
738.28	1090.10
738.61	1092.40
738.94	1091.04
739.27	1090.13
739.60	1091.30
739.93	1093.73
740.27	1093.17
740.60	1094.34
740.93	1096.12
741.26	1092.94
741.59	1089.33
741.92	1091.27
742.25	1089.17
742.58	1085.38
742.91	1087.11
743.25	1087.53
743.58	1087.06
743.91	1087.76
744.24	1088.26
744.57	1086.64
744.90	1086.64
745.23	1085.66
745.56	1086.15
745.89	1088.33
746.22	1088.42
746.55	1086.36
746.88	1086.03
747.21	1085.99
747.54	1088.00
747.87	1088.68
748.20	1090.13
748.53	1087.32
748.87	1090.97
749.20	1089.92
749.53	1090.03
749.86	1091.53
750.19	1095.04
750.52	1090.81
750.85	1089.61
751.18	1088.75
751.51	1089.33
751.84	1086.73
752.16	1085.40
752.49	1084.14
752.82	1085.54
753.15	1086.85
753.48	1084.91
753.81	1087.53
754.14	1087.16
754.47	1087.25
754.80	1082.40
755.13	1086.52
755.46	1083.60
755.79	1088.61
756.12	1086.31
756.45	1090.41
756.78	1089.40
757.11	1089.64
757.43	1087.58
757.76	1089.12
758.09	1088.84
758.42	1089.96
758.75	1091.53
759.08	1089.26
759.41	1088.00
759.74	1085.24
760.07	1086.45
760.39	1088.37
760.72	1090.43
761.05	1092.80
761.38	1094.48
761.71	1091.91
762.04	1089.96
762.36	1088.14
762.69	1089.07
763.02	1089.64
763.35	1090.67
