SpectraSuite Data File
++++++++++++++++++++++++++++++++++++
Date: Mon Aug 26 10:26:52 PDT 2019
User: corrico
Dark Spectrum Present: No
Reference Spectrum Present: No
Number of Sampled Component Spectra: 1
Spectrometers: USB2+H06089
Integration Time (usec): 10000 (USB2+H06089)
Spectra Averaged: 20 (USB2+H06089)
Boxcar Smoothing: 2 (USB2+H06089)
Correct for Electrical Dark: No (USB2+H06089)
Strobe/Lamp Enabled: No (USB2+H06089)
Correct for Detector Non-linearity: No (USB2+H06089)
Correct for Stray Light: No (USB2+H06089)
Number of Pixels in Processed Spectrum: 2048
>>>>>Begin Processed Spectral Data<<<<<
339.70	1036.27
340.07	1036.27
340.45	1002.76
340.82	981.41
341.19	958.03
341.57	928.84
341.94	922.12
342.31	911.36
342.69	901.93
343.06	899.44
343.43	903.26
343.81	902.04
344.18	909.95
344.55	918.87
344.93	922.97
345.30	927.13
345.67	934.34
346.04	938.70
346.42	946.42
346.79	953.84
347.16	963.27
347.54	969.68
347.91	974.97
348.28	982.58
348.65	994.05
349.03	1003.74
349.40	1012.91
349.77	1025.58
350.14	1034.12
350.52	1040.81
350.89	1046.95
351.26	1051.04
351.63	1054.04
352.01	1061.69
352.38	1063.70
352.75	1067.07
353.12	1071.73
353.50	1074.75
353.87	1075.05
354.24	1078.99
354.61	1082.10
354.98	1086.29
355.36	1089.38
355.73	1091.67
356.10	1093.05
356.47	1095.72
356.84	1095.39
357.22	1097.17
357.59	1099.00
357.96	1100.59
358.33	1099.68
358.70	1099.00
359.08	1096.35
359.45	1090.69
359.82	1088.19
360.19	1084.51
360.56	1082.85
360.94	1081.98
361.31	1083.48
361.68	1082.78
362.05	1083.48
362.42	1083.13
362.79	1081.37
363.16	1081.09
363.54	1081.49
363.91	1080.16
364.28	1079.99
364.65	1079.99
365.02	1080.25
365.39	1080.25
365.76	1081.19
366.14	1080.81
366.51	1080.81
366.88	1079.36
367.25	1077.25
367.62	1075.43
367.99	1078.12
368.36	1078.50
368.73	1080.39
369.10	1080.67
369.48	1081.23
369.85	1079.57
370.22	1077.54
370.59	1076.27
370.96	1078.05
371.33	1077.96
371.70	1078.82
372.07	1080.81
372.44	1079.95
372.81	1077.47
373.18	1079.46
373.55	1073.93
373.93	1074.66
374.30	1077.91
374.67	1080.60
375.04	1082.31
375.41	1086.97
375.78	1086.66
376.15	1084.23
376.52	1084.07
376.89	1081.70
377.26	1083.01
377.63	1084.04
378.00	1084.67
378.37	1083.20
378.74	1085.35
379.11	1083.13
379.48	1080.30
379.85	1079.31
380.22	1080.93
380.59	1079.22
380.96	1079.50
381.33	1079.74
381.70	1083.53
382.07	1083.76
382.44	1086.94
382.81	1087.74
383.18	1089.40
383.55	1087.06
383.92	1088.26
384.29	1085.54
384.66	1084.53
385.03	1087.88
385.40	1083.86
385.77	1081.77
386.14	1079.55
386.51	1080.30
386.88	1078.87
387.25	1080.81
387.62	1081.89
387.99	1082.90
388.36	1083.67
388.73	1080.98
389.10	1080.77
389.46	1079.90
389.83	1082.17
390.20	1082.71
390.57	1083.83
390.94	1083.71
391.31	1083.46
391.68	1083.25
392.05	1083.83
392.42	1084.86
392.79	1088.28
393.16	1089.10
393.53	1088.02
393.89	1088.51
394.26	1090.27
394.63	1090.39
395.00	1089.17
395.37	1090.69
395.74	1086.59
396.11	1085.75
396.48	1084.51
396.84	1086.80
397.21	1084.51
397.58	1085.35
397.95	1086.83
398.32	1088.40
398.69	1088.21
399.06	1089.47
399.42	1091.77
399.79	1091.30
400.16	1091.25
400.53	1090.92
400.90	1089.59
401.27	1090.39
401.64	1085.75
402.00	1082.19
402.37	1083.25
402.74	1088.77
403.11	1088.40
403.48	1091.25
403.84	1095.89
404.21	1095.30
404.58	1094.22
404.95	1095.00
405.32	1096.56
405.68	1094.18
406.05	1096.94
406.42	1096.75
406.79	1097.22
407.16	1099.96
407.52	1101.08
407.89	1095.89
408.26	1097.01
408.63	1099.40
408.99	1094.93
409.36	1095.91
409.73	1099.82
410.10	1099.79
410.47	1098.74
410.83	1099.28
411.20	1098.76
411.57	1099.23
411.94	1099.09
412.30	1098.02
412.67	1098.16
413.04	1101.06
413.40	1100.22
413.77	1101.29
414.14	1103.61
414.51	1106.75
414.87	1108.24
415.24	1109.95
415.61	1107.49
415.97	1105.60
416.34	1105.46
416.71	1100.68
417.08	1098.69
417.44	1100.40
417.81	1101.08
418.18	1099.47
418.54	1102.93
418.91	1107.71
419.28	1104.78
419.64	1104.01
420.01	1106.00
420.38	1104.69
420.74	1099.65
421.11	1097.88
421.48	1099.65
421.84	1101.76
422.21	1101.25
422.58	1104.66
422.94	1108.66
423.31	1109.62
423.68	1108.76
424.04	1108.76
424.41	1106.35
424.77	1104.87
425.14	1102.28
425.51	1100.50
425.87	1102.44
426.24	1109.11
426.61	1114.00
426.97	1117.79
427.34	1119.31
427.70	1119.88
428.07	1112.50
428.44	1110.23
428.80	1106.39
429.17	1106.51
429.53	1105.22
429.90	1106.93
430.27	1109.34
430.63	1112.27
431.00	1110.91
431.36	1112.69
431.73	1113.28
432.09	1112.29
432.46	1109.91
432.83	1112.18
433.19	1113.18
433.56	1116.83
433.92	1114.77
434.29	1116.90
434.65	1116.60
435.02	1118.07
435.38	1116.01
435.75	1116.20
436.11	1117.32
436.48	1117.72
436.84	1114.49
437.21	1113.28
437.57	1113.98
437.94	1115.66
438.30	1113.65
438.67	1112.83
439.03	1110.35
439.40	1109.60
439.76	1107.03
440.13	1106.93
440.49	1107.80
440.86	1111.94
441.22	1109.81
441.59	1112.53
441.95	1113.70
442.32	1113.35
442.68	1108.50
443.05	1111.75
443.41	1108.78
443.78	1107.10
444.14	1105.39
444.51	1109.98
444.87	1110.54
445.24	1108.55
445.60	1108.22
445.96	1112.20
446.33	1109.60
446.69	1108.20
447.06	1110.82
447.42	1110.28
447.79	1109.60
448.15	1112.78
448.51	1113.63
448.88	1111.38
449.24	1113.07
449.61	1111.92
449.97	1108.66
450.33	1107.56
450.70	1108.22
451.06	1108.92
451.43	1106.04
451.79	1108.13
452.15	1109.25
452.52	1109.53
452.88	1110.49
453.24	1113.70
453.61	1113.09
453.97	1109.95
454.34	1111.89
454.70	1111.08
455.06	1110.68
455.43	1109.44
455.79	1113.04
456.15	1112.69
456.52	1113.14
456.88	1112.85
457.24	1114.40
457.61	1114.10
457.97	1113.70
458.33	1111.45
458.70	1108.64
459.06	1108.78
459.42	1107.49
459.79	1107.49
460.15	1110.21
460.51	1114.91
460.88	1113.51
461.24	1116.55
461.60	1119.36
461.96	1119.24
462.33	1118.96
462.69	1123.01
463.05	1124.18
463.42	1121.12
463.78	1122.59
464.14	1123.93
464.50	1122.68
464.87	1118.78
465.23	1122.15
465.59	1125.87
465.95	1125.24
466.32	1127.44
466.68	1133.05
467.04	1133.71
467.40	1131.02
467.77	1130.10
468.13	1131.18
468.49	1129.31
468.85	1127.16
469.22	1128.65
469.58	1134.27
469.94	1131.63
470.30	1135.37
470.66	1140.24
471.03	1139.35
471.39	1137.50
471.75	1140.66
472.11	1141.76
472.47	1141.81
472.84	1147.94
473.20	1152.64
473.56	1155.64
473.92	1156.65
474.28	1162.38
474.65	1165.40
475.01	1167.79
475.37	1174.43
475.73	1180.68
476.09	1180.96
476.45	1183.37
476.81	1187.75
477.18	1189.90
477.54	1192.11
477.90	1200.20
478.26	1207.18
478.62	1215.65
478.98	1224.78
479.34	1234.59
479.71	1242.73
480.07	1249.89
480.43	1260.40
480.79	1269.69
481.15	1278.31
481.51	1289.42
481.87	1303.84
482.23	1312.13
482.59	1323.92
482.96	1340.14
483.32	1350.07
483.68	1358.26
484.04	1371.39
484.40	1385.92
484.76	1400.69
485.12	1420.78
485.48	1441.37
485.84	1462.39
486.20	1483.29
486.56	1505.92
486.92	1532.79
487.28	1558.61
487.64	1586.30
488.00	1616.12
488.37	1643.64
488.73	1669.64
489.09	1706.60
489.45	1741.73
489.81	1777.33
490.17	1814.01
490.53	1856.68
490.89	1891.53
491.25	1933.35
491.61	1979.27
491.97	2024.56
492.33	2074.56
492.69	2126.33
493.05	2179.67
493.41	2233.46
493.77	2300.84
494.13	2365.16
494.49	2434.67
494.85	2504.28
495.21	2580.00
495.57	2653.47
495.93	2733.79
496.29	2818.52
496.64	2911.46
497.00	2997.90
497.36	3092.83
497.72	3192.84
498.08	3304.77
498.44	3419.27
498.80	3551.32
499.16	3688.29
499.52	3823.24
499.88	3963.04
500.24	4115.25
500.60	4268.34
500.96	4423.96
501.32	4603.20
501.68	4775.75
502.03	4964.96
502.39	5168.07
502.75	5382.76
503.11	5602.87
503.47	5841.63
503.83	6081.88
504.19	6330.49
504.55	6603.75
504.91	6874.27
505.26	7145.77
505.62	7441.71
505.98	7757.17
506.34	8076.67
506.70	8434.92
507.06	8826.82
507.42	9231.28
507.78	9638.44
508.13	10055.57
508.49	10484.76
508.85	10938.61
509.21	11412.57
509.57	11932.71
509.93	12478.00
510.28	13066.58
510.64	13671.79
511.00	14272.26
511.36	14855.82
511.72	15445.62
512.07	16088.80
512.43	16704.05
512.79	17372.23
513.15	18110.08
513.51	18852.36
513.86	19588.36
514.22	20404.18
514.58	21191.94
514.94	21985.21
515.30	22846.06
515.65	23642.20
516.01	24475.05
516.37	25322.00
516.73	26102.17
517.08	26937.06
517.44	27781.01
517.80	28585.74
518.16	29418.61
518.51	30237.03
518.87	30986.84
519.23	31832.85
519.59	32691.74
519.94	33530.09
520.30	34398.39
520.66	35165.07
521.01	35947.63
521.37	36622.03
521.73	37233.85
522.09	37821.04
522.44	38448.42
522.80	38865.93
523.16	39223.96
523.51	39502.25
523.87	39820.61
524.23	40102.55
524.58	40360.13
524.94	40736.60
525.30	41058.73
525.65	41239.28
526.01	41264.70
526.37	41266.06
526.72	41188.77
527.08	41082.56
527.44	40898.68
527.79	40741.96
528.15	40639.38
528.51	40430.13
528.86	40203.41
529.22	39962.82
529.58	39708.99
529.93	39320.79
530.29	38854.27
530.65	38462.37
531.00	38117.08
531.36	37681.62
531.71	37214.68
532.07	36756.03
532.43	36183.11
532.78	35540.82
533.14	35000.98
533.49	34462.49
533.85	33861.54
534.21	33281.60
534.56	32727.45
534.92	32107.09
535.27	31493.36
535.63	30902.84
535.98	30275.88
536.34	29646.16
536.69	29001.81
537.05	28385.01
537.41	27866.21
537.76	27369.22
538.12	26835.37
538.47	26378.33
538.83	25937.82
539.18	25468.59
539.54	25002.87
539.89	24545.85
540.25	24021.18
540.60	23540.22
540.96	23035.60
541.31	22554.06
541.67	22137.04
542.02	21743.23
542.38	21311.77
542.73	20879.08
543.09	20475.69
543.44	20098.70
543.80	19751.24
544.15	19346.68
544.51	19007.19
544.86	18690.86
545.22	18339.01
545.57	17977.23
545.93	17637.67
546.28	17331.22
546.64	17014.48
546.99	16678.33
547.35	16350.05
547.70	16067.47
548.05	15757.80
548.41	15446.48
548.76	15139.85
549.12	14851.96
549.47	14559.86
549.83	14297.70
550.18	13974.47
550.53	13657.66
550.89	13381.76
551.24	13103.16
551.60	12793.46
551.95	12560.02
552.30	12334.18
552.66	12097.27
553.01	11851.05
553.37	11590.03
553.72	11308.16
554.07	11038.08
554.43	10751.60
554.78	10472.66
555.13	10223.88
555.49	9997.43
555.84	9804.53
556.19	9619.02
556.55	9425.24
556.90	9225.99
557.26	9022.06
557.61	8798.57
557.96	8555.45
558.32	8350.42
558.67	8151.64
559.02	7933.13
559.37	7753.61
559.73	7605.22
560.08	7451.94
560.43	7299.94
560.79	7183.15
561.14	7031.04
561.49	6860.77
561.85	6704.11
562.20	6553.83
562.55	6416.18
562.90	6280.78
563.26	6164.41
563.61	6061.14
563.96	5953.97
564.32	5834.56
564.67	5715.38
565.02	5602.47
565.37	5486.08
565.73	5374.71
566.08	5265.11
566.43	5163.71
566.78	5048.86
567.14	4937.31
567.49	4827.66
567.84	4728.44
568.19	4623.66
568.54	4536.66
568.90	4448.12
569.25	4374.51
569.60	4299.26
569.95	4226.38
570.31	4152.46
570.66	4075.60
571.01	3980.67
571.36	3883.72
571.71	3810.25
572.06	3743.34
572.42	3676.75
572.77	3621.21
573.12	3576.15
573.47	3517.05
573.82	3449.60
574.18	3382.28
574.53	3322.86
574.88	3264.25
575.23	3210.98
575.58	3162.79
575.93	3117.17
576.28	3057.63
576.64	3004.36
576.99	2949.45
577.34	2898.12
577.69	2847.24
578.04	2806.98
578.39	2756.57
578.74	2715.33
579.09	2675.42
579.44	2637.62
579.80	2597.78
580.15	2558.35
580.50	2519.07
580.85	2475.63
581.20	2444.13
581.55	2411.52
581.90	2385.03
582.25	2355.16
582.60	2323.31
582.95	2283.85
583.30	2247.34
583.65	2211.03
584.00	2175.76
584.35	2148.75
584.71	2117.60
585.06	2097.82
585.41	2069.10
585.76	2041.67
586.11	2013.45
586.46	1992.94
586.81	1963.62
587.16	1945.15
587.51	1927.08
587.86	1910.81
588.21	1892.42
588.56	1869.88
588.91	1846.75
589.26	1826.88
589.61	1809.30
589.96	1787.82
590.31	1772.82
590.66	1754.63
591.01	1741.22
591.36	1722.47
591.71	1705.27
592.06	1689.40
592.41	1677.06
592.76	1656.72
593.10	1641.79
593.45	1628.26
593.80	1610.83
594.15	1597.79
594.50	1586.49
594.85	1572.84
595.20	1560.36
595.55	1556.32
595.90	1544.36
596.25	1531.62
596.60	1521.89
596.95	1512.38
597.30	1497.80
597.64	1536.91
597.99	1534.78
598.34	1524.27
598.69	1512.34
599.04	1506.51
599.39	1450.10
599.74	1435.73
600.09	1425.81
600.44	1420.35
600.78	1410.13
601.13	1402.43
601.48	1396.62
601.83	1394.19
602.18	1388.57
602.53	1383.33
602.88	1376.28
603.22	1369.31
603.57	1357.35
603.92	1349.55
604.27	1340.21
604.62	1333.08
604.97	1324.74
605.31	1321.07
605.66	1317.98
606.01	1315.36
606.36	1308.59
606.71	1301.41
607.05	1297.55
607.40	1292.54
607.75	1284.77
608.10	1282.22
608.44	1282.94
608.79	1276.72
609.14	1272.62
609.49	1271.43
609.84	1264.69
610.18	1259.07
610.53	1260.17
610.88	1260.54
611.23	1257.29
611.57	1259.02
611.92	1256.89
612.27	1252.07
612.62	1241.89
612.96	1237.44
613.31	1232.39
613.66	1226.07
614.00	1221.20
614.35	1221.10
614.70	1214.46
615.05	1209.85
615.39	1205.17
615.74	1203.43
616.09	1197.98
616.43	1195.24
616.78	1192.06
617.13	1190.51
617.47	1185.18
617.82	1184.12
618.17	1184.45
618.51	1183.82
618.86	1185.04
619.21	1184.33
619.55	1182.30
619.90	1178.58
620.25	1175.58
620.59	1171.44
620.94	1167.20
621.29	1163.36
621.63	1162.26
621.98	1160.48
622.32	1159.83
622.67	1162.40
623.02	1163.08
623.36	1160.44
623.71	1157.58
624.05	1155.92
624.40	1151.36
624.75	1150.89
625.09	1154.82
625.44	1155.45
625.78	1155.15
626.13	1155.34
626.48	1154.63
626.82	1149.93
627.17	1150.23
627.51	1145.72
627.86	1143.05
628.20	1139.40
628.55	1138.02
628.89	1133.62
629.24	1134.50
629.58	1134.72
629.93	1133.33
630.28	1133.59
630.62	1134.22
630.97	1133.29
631.31	1134.69
631.66	1133.80
632.00	1131.98
632.35	1131.58
632.69	1132.02
633.04	1125.59
633.38	1123.81
633.73	1124.51
634.07	1122.85
634.42	1124.28
634.76	1127.48
635.11	1126.50
635.45	1124.81
635.79	1124.49
636.14	1120.93
636.48	1118.92
636.83	1118.28
637.17	1114.17
637.52	1111.75
637.86	1111.22
638.21	1110.94
638.55	1110.30
638.89	1114.96
639.24	1114.10
639.58	1112.71
639.93	1113.63
640.27	1115.20
640.61	1111.01
640.96	1114.05
641.30	1112.85
641.65	1109.20
641.99	1104.15
642.33	1106.07
642.68	1105.25
643.02	1106.86
643.37	1107.85
643.71	1109.65
644.05	1107.59
644.40	1105.29
644.74	1101.29
645.08	1100.54
645.43	1099.40
645.77	1097.45
646.11	1093.78
646.46	1097.24
646.80	1099.09
647.14	1101.11
647.49	1101.69
647.83	1104.22
648.17	1102.32
648.52	1102.21
648.86	1102.39
649.20	1107.05
649.55	1109.11
649.89	1111.66
650.23	1110.05
650.57	1110.79
650.92	1109.20
651.26	1107.52
651.60	1104.90
651.95	1103.45
652.29	1103.59
652.63	1100.85
652.97	1101.67
653.32	1101.53
653.66	1102.02
654.00	1101.11
654.34	1100.40
654.69	1097.13
655.03	1095.70
655.37	1097.27
655.71	1094.81
656.05	1094.46
656.40	1094.69
656.74	1093.66
657.08	1091.88
657.42	1091.04
657.76	1092.82
658.11	1095.18
658.45	1097.31
658.79	1098.67
659.13	1101.95
659.47	1100.31
659.82	1099.79
660.16	1101.32
660.50	1101.46
660.84	1102.18
661.18	1101.99
661.52	1103.94
661.87	1100.54
662.21	1098.51
662.55	1095.14
662.89	1095.25
663.23	1094.48
663.57	1096.12
663.91	1097.10
664.25	1096.35
664.60	1093.22
664.94	1088.86
665.28	1088.33
665.62	1088.14
665.96	1093.15
666.30	1096.85
666.64	1102.21
666.98	1102.86
667.32	1101.43
667.66	1096.61
668.01	1093.92
668.35	1091.27
668.69	1091.74
669.03	1091.18
669.37	1092.77
669.71	1096.21
670.05	1094.81
670.39	1094.36
670.73	1094.57
671.07	1094.93
671.41	1096.56
671.75	1097.48
672.09	1094.34
672.43	1095.89
672.77	1094.11
673.11	1091.09
673.45	1090.88
673.79	1091.86
674.13	1088.47
674.47	1088.61
674.81	1086.27
675.15	1085.54
675.49	1085.99
675.83	1088.02
676.17	1089.22
676.51	1092.23
676.85	1092.28
677.19	1089.75
677.53	1091.65
677.87	1090.57
678.21	1086.50
678.55	1089.38
678.89	1092.02
679.23	1092.75
679.57	1093.62
679.90	1096.96
680.24	1094.95
680.58	1095.14
680.92	1093.64
681.26	1091.79
681.60	1090.53
681.94	1089.14
682.28	1088.42
682.62	1088.84
682.96	1088.84
683.29	1091.77
683.63	1092.07
683.97	1092.82
684.31	1091.53
684.65	1094.65
684.99	1093.64
685.33	1092.40
685.67	1093.22
686.00	1094.04
686.34	1092.75
686.68	1091.02
687.02	1093.15
687.36	1095.49
687.70	1095.63
688.03	1094.13
688.37	1091.84
688.71	1089.78
689.05	1086.69
689.39	1085.07
689.72	1087.76
690.06	1090.85
690.40	1093.76
690.74	1094.90
691.08	1095.49
691.41	1096.17
691.75	1094.04
692.09	1090.06
692.43	1088.98
692.76	1090.76
693.10	1088.16
693.44	1090.06
693.78	1092.89
694.11	1091.20
694.45	1089.03
694.79	1088.58
695.13	1088.21
695.46	1089.22
695.80	1088.07
696.14	1086.92
696.48	1088.21
696.81	1088.96
697.15	1087.97
697.49	1090.64
697.82	1089.78
698.16	1088.47
698.50	1088.12
698.83	1087.79
699.17	1086.69
699.51	1087.16
699.84	1088.58
700.18	1089.03
700.52	1092.00
700.85	1092.82
701.19	1094.46
701.53	1093.24
701.86	1092.49
702.20	1090.74
702.54	1093.17
702.87	1093.29
703.21	1092.80
703.55	1095.02
703.88	1094.50
704.22	1088.70
704.55	1091.09
704.89	1092.68
705.23	1088.77
705.56	1086.36
705.90	1088.26
706.23	1085.59
706.57	1084.67
706.91	1086.50
707.24	1087.83
707.58	1091.11
707.91	1091.65
708.25	1089.92
708.58	1088.63
708.92	1089.26
709.26	1088.26
709.59	1089.50
709.93	1091.86
710.26	1093.12
710.60	1092.00
710.93	1093.80
711.27	1091.95
711.60	1090.10
711.94	1092.14
712.27	1092.66
712.61	1091.16
712.94	1092.23
713.28	1092.96
713.61	1088.09
713.95	1086.22
714.28	1081.63
714.62	1081.23
714.95	1081.14
715.29	1084.74
715.62	1087.02
715.96	1089.29
716.29	1087.23
716.63	1085.59
716.96	1087.09
717.29	1086.66
717.63	1086.29
717.96	1085.38
718.30	1087.20
718.63	1082.90
718.97	1081.82
719.30	1081.21
719.63	1084.39
719.97	1087.69
720.30	1089.03
720.64	1089.22
720.97	1091.88
721.30	1091.56
721.64	1086.92
721.97	1088.37
722.31	1089.05
722.64	1089.12
722.97	1087.41
723.31	1089.00
723.64	1086.34
723.97	1084.21
724.31	1082.97
724.64	1085.70
724.98	1084.23
725.31	1085.68
725.64	1087.53
725.98	1088.68
726.31	1089.71
726.64	1088.07
726.97	1088.98
727.31	1087.60
727.64	1082.45
727.97	1080.58
728.31	1083.90
728.64	1083.15
728.97	1086.52
729.31	1089.40
729.64	1086.45
729.97	1083.53
730.30	1085.03
730.64	1084.18
730.97	1087.16
731.30	1088.04
731.63	1088.21
731.97	1086.48
732.30	1087.81
732.63	1085.59
732.96	1086.43
733.30	1088.07
733.63	1088.21
733.96	1085.03
734.29	1086.48
734.63	1085.70
734.96	1086.73
735.29	1086.57
735.62	1087.88
735.95	1087.97
736.29	1090.74
736.62	1089.75
736.95	1087.93
737.28	1087.34
737.61	1086.97
737.94	1085.59
738.28	1083.29
738.61	1083.29
738.94	1086.20
739.27	1086.64
739.60	1086.24
739.93	1089.73
740.27	1090.24
740.60	1087.67
740.93	1084.86
741.26	1086.99
741.59	1083.32
741.92	1086.48
742.25	1088.04
742.58	1088.75
742.91	1088.07
743.25	1088.26
743.58	1085.54
743.91	1083.67
744.24	1082.92
744.57	1082.01
744.90	1085.87
745.23	1089.22
745.56	1089.29
745.89	1089.00
746.22	1089.73
746.55	1090.92
746.88	1088.98
747.21	1090.41
747.54	1090.46
747.87	1090.50
748.20	1089.85
748.53	1087.90
748.87	1083.95
749.20	1085.68
749.53	1084.35
749.86	1082.92
750.19	1088.61
750.52	1090.55
750.85	1089.26
751.18	1088.84
751.51	1087.32
751.84	1083.27
752.16	1085.17
752.49	1086.10
752.82	1084.35
753.15	1085.75
753.48	1086.73
753.81	1082.97
754.14	1084.25
754.47	1085.54
754.80	1084.11
755.13	1082.38
755.46	1085.47
755.79	1086.62
756.12	1089.33
756.45	1093.22
756.78	1094.34
757.11	1093.24
757.43	1088.28
757.76	1087.51
758.09	1084.84
758.42	1084.58
758.75	1084.28
759.08	1086.50
759.41	1086.17
759.74	1085.21
760.07	1083.32
760.39	1083.41
760.72	1084.65
761.05	1084.42
761.38	1087.79
761.71	1087.83
762.04	1091.32
762.36	1090.85
762.69	1090.62
763.02	1088.58
763.35	1087.90
