SpectraSuite Data File
++++++++++++++++++++++++++++++++++++
Date: Mon Aug 26 10:26:41 PDT 2019
User: corrico
Dark Spectrum Present: No
Reference Spectrum Present: No
Number of Sampled Component Spectra: 1
Spectrometers: USB2+H06089
Integration Time (usec): 10000 (USB2+H06089)
Spectra Averaged: 20 (USB2+H06089)
Boxcar Smoothing: 2 (USB2+H06089)
Correct for Electrical Dark: No (USB2+H06089)
Strobe/Lamp Enabled: No (USB2+H06089)
Correct for Detector Non-linearity: No (USB2+H06089)
Correct for Stray Light: No (USB2+H06089)
Number of Pixels in Processed Spectrum: 2048
>>>>>Begin Processed Spectral Data<<<<<
339.70	1021.88
340.07	1021.88
340.45	990.09
340.82	970.83
341.19	950.61
341.57	925.78
341.94	915.85
342.31	910.98
342.69	903.68
343.06	897.95
343.43	900.52
343.81	902.70
344.18	907.50
344.55	915.80
344.93	923.95
345.30	926.92
345.67	930.67
346.04	935.49
346.42	941.90
346.79	946.77
347.16	959.20
347.54	969.64
347.91	977.41
348.28	986.25
348.65	998.29
349.03	1004.53
349.40	1014.74
349.77	1024.10
350.14	1032.25
350.52	1036.20
350.89	1044.35
351.26	1047.51
351.63	1052.63
352.01	1057.13
352.38	1064.80
352.75	1068.13
353.12	1074.89
353.50	1077.00
353.87	1079.50
354.24	1079.48
354.61	1079.34
354.98	1079.53
355.36	1080.79
355.73	1078.26
356.10	1081.05
356.47	1084.79
356.84	1086.59
357.22	1088.58
357.59	1092.28
357.96	1092.73
358.33	1091.11
358.70	1088.79
359.08	1086.24
359.45	1087.53
359.82	1086.69
360.19	1088.35
360.56	1089.38
360.94	1090.53
361.31	1088.16
361.68	1085.19
362.05	1085.07
362.42	1082.57
362.79	1083.36
363.16	1084.46
363.54	1087.76
363.91	1085.00
364.28	1082.90
364.65	1081.28
365.02	1079.92
365.39	1074.07
365.76	1073.39
366.14	1071.85
366.51	1071.57
366.88	1073.25
367.25	1077.28
367.62	1078.38
367.99	1081.21
368.36	1081.30
368.73	1081.96
369.10	1081.02
369.48	1081.09
369.85	1082.19
370.22	1082.69
370.59	1080.95
370.96	1081.96
371.33	1079.27
371.70	1079.69
372.07	1076.39
372.44	1076.30
372.81	1077.28
373.18	1080.70
373.55	1080.58
373.93	1081.07
374.30	1079.38
374.67	1080.06
375.04	1077.91
375.41	1079.57
375.78	1082.78
376.15	1084.65
376.52	1081.77
376.89	1083.25
377.26	1080.34
377.63	1080.93
378.00	1081.51
378.37	1081.21
378.74	1081.73
379.11	1081.02
379.48	1076.51
379.85	1078.19
380.22	1081.80
380.59	1081.56
380.96	1081.77
381.33	1083.57
381.70	1082.17
382.07	1080.11
382.44	1079.13
382.81	1080.06
383.18	1081.73
383.55	1078.14
383.92	1079.90
384.29	1081.96
384.66	1084.32
385.03	1083.29
385.40	1085.10
385.77	1082.66
386.14	1081.14
386.51	1080.11
386.88	1080.53
387.25	1080.11
387.62	1084.39
387.99	1080.79
388.36	1080.91
388.73	1081.16
389.10	1081.05
389.46	1082.45
389.83	1085.40
390.20	1084.60
390.57	1083.64
390.94	1085.26
391.31	1082.05
391.68	1084.25
392.05	1085.42
392.42	1087.06
392.79	1087.18
393.16	1087.86
393.53	1086.50
393.89	1083.46
394.26	1084.11
394.63	1085.00
395.00	1085.12
395.37	1087.46
395.74	1089.92
396.11	1091.91
396.48	1094.86
396.84	1095.37
397.21	1094.20
397.58	1095.14
397.95	1093.47
398.32	1088.16
398.69	1086.62
399.06	1087.88
399.42	1088.84
399.79	1089.59
400.16	1091.16
400.53	1090.48
400.90	1090.32
401.27	1091.86
401.64	1092.09
402.00	1091.88
402.37	1094.22
402.74	1094.11
403.11	1095.18
403.48	1095.28
403.84	1096.59
404.21	1096.14
404.58	1092.02
404.95	1088.93
405.32	1090.22
405.68	1092.47
406.05	1091.49
406.42	1094.18
406.79	1095.49
407.16	1093.85
407.52	1092.73
407.89	1095.46
408.26	1098.06
408.63	1097.27
408.99	1098.04
409.36	1099.54
409.73	1099.00
410.10	1097.01
410.47	1097.52
410.83	1096.35
411.20	1095.02
411.57	1095.72
411.94	1097.48
412.30	1096.61
412.67	1098.55
413.04	1098.09
413.40	1096.78
413.77	1096.42
414.14	1098.44
414.51	1099.42
414.87	1101.25
415.24	1101.06
415.61	1101.36
415.97	1103.26
416.34	1098.93
416.71	1098.98
417.08	1097.80
417.44	1098.76
417.81	1099.07
418.18	1102.72
418.54	1106.89
418.91	1108.10
419.28	1108.06
419.64	1107.38
420.01	1111.10
420.38	1103.59
420.74	1102.49
421.11	1103.94
421.48	1104.43
421.84	1102.95
422.21	1107.80
422.58	1108.55
422.94	1105.81
423.31	1105.20
423.68	1104.31
424.04	1106.93
424.41	1109.74
424.77	1111.94
425.14	1116.44
425.51	1116.69
425.87	1112.67
426.24	1112.34
426.61	1112.55
426.97	1108.52
427.34	1106.75
427.70	1105.13
428.07	1105.51
428.44	1106.14
428.80	1107.07
429.17	1109.67
429.53	1112.53
429.90	1112.92
430.27	1111.80
430.63	1111.10
431.00	1108.41
431.36	1111.66
431.73	1114.82
432.09	1116.83
432.46	1117.00
432.83	1119.13
433.19	1116.20
433.56	1111.40
433.92	1110.68
434.29	1112.15
434.65	1113.35
435.02	1111.45
435.38	1110.23
435.75	1108.69
436.11	1104.59
436.48	1107.82
436.84	1107.26
437.21	1112.99
437.57	1115.17
437.94	1117.77
438.30	1112.41
438.67	1113.79
439.03	1108.48
439.40	1103.98
439.76	1104.76
440.13	1106.68
440.49	1108.13
440.86	1111.36
441.22	1115.57
441.59	1116.62
441.95	1118.21
442.32	1116.20
442.68	1112.71
443.05	1109.53
443.41	1105.95
443.78	1104.15
444.14	1104.41
444.51	1108.95
444.87	1114.47
445.24	1116.32
445.60	1114.89
445.96	1115.99
446.33	1111.92
446.69	1107.59
447.06	1107.94
447.42	1107.52
447.79	1105.93
448.15	1107.24
448.51	1109.13
448.88	1108.38
449.24	1110.07
449.61	1109.86
449.97	1109.48
450.33	1106.44
450.70	1108.22
451.06	1106.96
451.43	1106.79
451.79	1108.76
452.15	1111.92
452.52	1111.01
452.88	1110.96
453.24	1114.02
453.61	1111.68
453.97	1108.57
454.34	1106.28
454.70	1107.82
455.06	1104.76
455.43	1106.46
455.79	1106.49
456.15	1107.19
456.52	1108.55
456.88	1109.93
457.24	1107.64
457.61	1111.15
457.97	1110.47
458.33	1107.82
458.70	1107.96
459.06	1111.36
459.42	1110.42
459.79	1110.30
460.15	1113.11
460.51	1113.51
460.88	1113.16
461.24	1115.03
461.60	1120.11
461.96	1119.15
462.33	1118.82
462.69	1118.96
463.05	1119.43
463.42	1117.75
463.78	1118.10
464.14	1118.21
464.50	1114.98
464.87	1114.94
465.23	1114.14
465.59	1114.84
465.95	1117.63
466.32	1123.20
466.68	1125.33
467.04	1129.19
467.40	1129.71
467.77	1130.15
468.13	1130.46
468.49	1128.33
468.85	1129.99
469.22	1135.07
469.58	1135.11
469.94	1138.67
470.30	1142.91
470.66	1141.95
471.03	1138.30
471.39	1143.02
471.75	1142.37
472.11	1144.17
472.47	1146.56
472.84	1151.85
473.20	1152.13
473.56	1154.63
473.92	1157.04
474.28	1160.60
474.65	1164.23
475.01	1167.41
475.37	1174.13
475.73	1179.65
476.09	1179.26
476.45	1181.99
476.81	1185.88
477.18	1188.73
477.54	1194.38
477.90	1204.25
478.26	1210.22
478.62	1218.69
478.98	1226.04
479.34	1227.17
479.71	1235.03
480.07	1244.91
480.43	1252.87
480.79	1260.24
481.15	1271.29
481.51	1282.52
481.87	1294.22
482.23	1305.46
482.59	1318.87
482.96	1336.19
483.32	1351.92
483.68	1365.77
484.04	1383.02
484.40	1399.71
484.76	1417.78
485.12	1436.69
485.48	1456.30
485.84	1473.39
486.20	1491.32
486.56	1513.67
486.92	1537.87
487.28	1564.20
487.64	1590.21
488.00	1621.76
488.37	1647.71
488.73	1674.70
489.09	1707.14
489.45	1744.38
489.81	1777.68
490.17	1817.94
490.53	1856.54
490.89	1893.77
491.25	1938.57
491.61	1983.79
491.97	2029.03
492.33	2079.96
492.69	2132.13
493.05	2181.59
493.41	2242.05
493.77	2304.23
494.13	2369.14
494.49	2441.27
494.85	2516.22
495.21	2588.26
495.57	2668.68
495.93	2750.93
496.29	2831.30
496.64	2922.60
497.00	3014.82
497.36	3110.43
497.72	3208.66
498.08	3317.78
498.44	3426.10
498.80	3555.13
499.16	3691.17
499.52	3835.95
499.88	3986.07
500.24	4147.17
500.60	4300.85
500.96	4455.26
501.32	4623.07
501.68	4797.40
502.03	4975.98
502.39	5181.78
502.75	5398.91
503.11	5628.31
503.47	5849.58
503.83	6095.74
504.19	6341.12
504.55	6607.52
504.91	6879.00
505.26	7165.50
505.62	7473.24
505.98	7796.37
506.34	8126.67
506.70	8482.78
507.06	8867.68
507.42	9260.91
507.78	9667.49
508.13	10083.87
508.49	10527.05
508.85	10991.44
509.21	11479.95
509.57	12000.30
509.93	12554.28
510.28	13130.43
510.64	13756.43
511.00	14366.09
511.36	14941.37
511.72	15534.30
512.07	16183.03
512.43	16785.95
512.79	17442.12
513.15	18188.37
513.51	18941.67
513.86	19664.90
514.22	20499.21
514.58	21308.92
514.94	22112.84
515.30	22959.98
515.65	23780.85
516.01	24612.25
516.37	25440.97
516.73	26226.64
517.08	27064.85
517.44	27896.00
517.80	28693.00
518.16	29541.54
518.51	30373.46
518.87	31112.51
519.23	31955.12
519.59	32815.81
519.94	33637.10
520.30	34508.98
520.66	35264.88
521.01	36075.45
521.37	36748.21
521.73	37376.32
522.09	37961.64
522.44	38627.66
522.80	39033.98
523.16	39389.91
523.51	39647.93
523.87	39939.44
524.23	40195.80
524.58	40459.02
524.94	40824.14
525.30	41159.75
525.65	41356.68
526.01	41400.21
526.37	41422.50
526.72	41348.91
527.08	41209.65
527.44	41016.04
527.79	40866.67
528.15	40735.48
528.51	40520.38
528.86	40316.80
529.22	40074.04
529.58	39799.17
529.93	39410.88
530.29	38969.78
530.65	38606.18
531.00	38264.32
531.36	37854.61
531.71	37411.90
532.07	36935.83
532.43	36343.35
532.78	35680.13
533.14	35109.39
533.49	34517.59
533.85	33921.31
534.21	33311.02
534.56	32767.76
534.92	32146.16
535.27	31559.71
535.63	30949.35
535.98	30326.98
536.34	29692.32
536.69	29069.73
537.05	28444.76
537.41	27925.54
537.76	27441.99
538.12	26892.76
538.47	26409.08
538.83	25979.64
539.18	25518.95
539.54	25041.67
539.89	24603.01
540.25	24084.46
540.60	23580.17
540.96	23060.81
541.31	22588.18
541.67	22182.80
542.02	21786.27
542.38	21354.46
542.73	20923.38
543.09	20522.75
543.44	20150.07
543.80	19809.76
544.15	19418.58
544.51	19090.23
544.86	18788.32
545.22	18409.58
545.57	18032.24
545.93	17686.02
546.28	17363.90
546.64	17029.01
546.99	16687.97
547.35	16368.00
547.70	16068.60
548.05	15757.14
548.41	15451.82
548.76	15159.74
549.12	14878.39
549.47	14589.75
549.83	14316.10
550.18	13988.09
550.53	13664.49
550.89	13390.44
551.24	13138.62
551.60	12848.86
551.95	12608.26
552.30	12392.60
552.66	12135.54
553.01	11872.20
553.37	11599.27
553.72	11316.68
554.07	11043.96
554.43	10762.91
554.78	10486.70
555.13	10251.05
555.49	10033.99
555.84	9843.59
556.19	9659.37
556.55	9472.36
556.90	9277.16
557.26	9069.51
557.61	8841.61
557.96	8597.16
558.32	8382.04
558.67	8178.74
559.02	7966.65
559.37	7780.57
559.73	7634.20
560.08	7480.61
560.43	7323.16
560.79	7203.35
561.14	7048.10
561.49	6887.54
561.85	6731.94
562.20	6588.07
562.55	6442.11
562.90	6324.74
563.26	6207.69
563.61	6095.08
563.96	5984.31
564.32	5857.26
564.67	5731.01
565.02	5607.88
565.37	5490.34
565.73	5379.89
566.08	5281.07
566.43	5168.72
566.78	5061.20
567.14	4961.56
567.49	4851.91
567.84	4745.13
568.19	4643.81
568.54	4545.41
568.90	4453.62
569.25	4372.75
569.60	4302.68
569.95	4232.27
570.31	4159.01
570.66	4077.42
571.01	3990.05
571.36	3895.12
571.71	3817.98
572.06	3748.37
572.42	3691.68
572.77	3637.99
573.12	3590.08
573.47	3534.89
573.82	3475.51
574.18	3402.39
574.53	3341.28
574.88	3288.99
575.23	3234.32
575.58	3185.02
575.93	3142.17
576.28	3093.63
576.64	3034.53
576.99	2979.15
577.34	2920.78
577.69	2866.06
578.04	2803.66
578.39	2753.85
578.74	2708.14
579.09	2670.39
579.44	2631.63
579.80	2601.22
580.15	2563.24
580.50	2525.63
580.85	2490.21
581.20	2455.99
581.55	2427.65
581.90	2405.30
582.25	2379.25
582.60	2344.44
582.95	2309.24
583.30	2270.53
583.65	2232.33
584.00	2193.55
584.35	2160.90
584.71	2131.13
585.06	2105.50
585.41	2071.26
585.76	2047.31
586.11	2022.01
586.46	2000.43
586.81	1976.30
587.16	1956.13
587.51	1933.56
587.86	1916.38
588.21	1896.70
588.56	1874.21
588.91	1853.38
589.26	1832.90
589.61	1809.94
589.96	1787.56
590.31	1771.08
590.66	1756.38
591.01	1741.36
591.36	1726.73
591.71	1713.27
592.06	1696.68
592.41	1684.02
592.76	1668.40
593.10	1649.52
593.45	1631.52
593.80	1619.53
594.15	1602.94
594.50	1591.31
594.85	1582.95
595.20	1575.25
595.55	1559.41
595.90	1548.31
596.25	1531.48
596.60	1521.11
596.95	1506.58
597.30	1495.60
597.64	1534.99
597.99	1533.61
598.34	1520.69
598.69	1515.73
599.04	1510.44
599.39	1453.24
599.74	1439.38
600.09	1431.82
600.44	1419.25
600.78	1410.31
601.13	1401.30
601.48	1393.86
601.83	1388.99
602.18	1384.71
602.53	1378.22
602.88	1367.83
603.22	1364.06
603.57	1355.19
603.92	1348.27
604.27	1340.87
604.62	1338.48
604.97	1333.57
605.31	1328.96
605.66	1324.51
606.01	1318.77
606.36	1309.60
606.71	1298.90
607.05	1295.00
607.40	1284.32
607.75	1279.83
608.10	1278.56
608.44	1275.62
608.79	1271.14
609.14	1272.57
609.49	1267.96
609.84	1264.10
610.18	1260.94
610.53	1259.91
610.88	1257.10
611.23	1254.88
611.57	1251.67
611.92	1253.03
612.27	1246.41
612.62	1243.13
612.96	1241.02
613.31	1233.67
613.66	1226.67
614.00	1221.53
614.35	1219.02
614.70	1215.28
615.05	1213.15
615.39	1211.72
615.74	1208.18
616.09	1203.46
616.43	1198.68
616.78	1194.02
617.13	1193.02
617.47	1192.99
617.82	1191.17
618.17	1192.71
618.51	1193.65
618.86	1190.07
619.21	1186.98
619.55	1180.94
619.90	1176.05
620.25	1172.94
620.59	1168.61
620.94	1164.65
621.29	1161.47
621.63	1160.65
621.98	1159.43
622.32	1160.88
622.67	1160.74
623.02	1160.27
623.36	1159.17
623.71	1157.98
624.05	1154.16
624.40	1149.79
624.75	1151.29
625.09	1149.04
625.44	1148.50
625.78	1144.83
626.13	1143.66
626.48	1142.18
626.82	1139.21
627.17	1139.51
627.51	1138.55
627.86	1139.65
628.20	1138.27
628.55	1137.08
628.89	1134.86
629.24	1134.93
629.58	1135.37
629.93	1137.06
630.28	1138.25
630.62	1137.31
630.97	1132.70
631.31	1129.57
631.66	1125.19
632.00	1122.59
632.35	1120.41
632.69	1123.86
633.04	1127.55
633.38	1126.66
633.73	1126.57
634.07	1124.18
634.42	1122.47
634.76	1118.35
635.11	1115.66
635.45	1111.15
635.79	1110.68
636.14	1108.81
636.48	1108.01
636.83	1109.44
637.17	1110.98
637.52	1114.05
637.86	1116.53
638.21	1118.17
638.55	1119.13
638.89	1121.77
639.24	1119.53
639.58	1117.30
639.93	1113.79
640.27	1111.57
640.61	1110.21
640.96	1107.45
641.30	1107.66
641.65	1109.06
641.99	1108.95
642.33	1109.41
642.68	1111.71
643.02	1110.87
643.37	1110.91
643.71	1110.30
644.05	1107.92
644.40	1106.84
644.74	1108.43
645.08	1106.28
645.43	1106.42
645.77	1107.05
646.11	1106.49
646.46	1104.55
646.80	1104.48
647.14	1101.97
647.49	1099.09
647.83	1100.89
648.17	1099.47
648.52	1097.57
648.86	1099.07
649.20	1101.55
649.55	1100.54
649.89	1100.78
650.23	1102.25
650.57	1100.99
650.92	1098.95
651.26	1098.23
651.60	1094.72
651.95	1095.09
652.29	1095.44
652.63	1098.06
652.97	1095.63
653.32	1100.15
653.66	1099.05
654.00	1101.57
654.34	1098.30
654.69	1098.98
655.03	1095.65
655.37	1094.39
655.71	1092.21
656.05	1094.29
656.40	1094.93
656.74	1095.25
657.08	1096.59
657.42	1098.20
657.76	1097.10
658.11	1094.08
658.45	1097.71
658.79	1096.85
659.13	1095.11
659.47	1093.78
659.82	1097.95
660.16	1094.06
660.50	1096.03
660.84	1095.23
661.18	1099.44
661.52	1099.35
661.87	1100.66
662.21	1100.89
662.55	1102.56
662.89	1100.17
663.23	1099.16
663.57	1098.95
663.91	1097.20
664.25	1095.02
664.60	1093.22
664.94	1092.28
665.28	1092.05
665.62	1093.92
665.96	1095.84
666.30	1096.35
666.64	1097.27
666.98	1097.66
667.32	1097.22
667.66	1095.84
668.01	1094.62
668.35	1096.49
668.69	1093.17
669.03	1088.84
669.37	1087.95
669.71	1087.16
670.05	1083.93
670.39	1088.35
670.73	1089.29
671.07	1087.48
671.41	1088.65
671.75	1089.05
672.09	1084.49
672.43	1085.52
672.77	1087.93
673.11	1086.69
673.45	1084.93
673.79	1090.60
674.13	1088.96
674.47	1087.39
674.81	1089.38
675.15	1091.81
675.49	1088.70
675.83	1090.78
676.17	1092.68
676.51	1090.92
676.85	1089.07
677.19	1089.17
677.53	1092.49
677.87	1094.18
678.21	1097.71
678.55	1098.95
678.89	1096.14
679.23	1090.29
679.57	1087.83
679.90	1084.89
680.24	1086.90
680.58	1086.66
680.92	1085.56
681.26	1087.86
681.60	1090.34
681.94	1088.54
682.28	1090.46
682.62	1090.46
682.96	1089.89
683.29	1087.46
683.63	1089.61
683.97	1093.12
684.31	1096.52
684.65	1093.40
684.99	1095.16
685.33	1092.14
685.67	1092.49
686.00	1091.72
686.34	1094.74
686.68	1095.30
687.02	1095.86
687.36	1093.64
687.70	1092.94
688.03	1088.96
688.37	1089.24
688.71	1090.67
689.05	1089.92
689.39	1091.16
689.72	1093.69
690.06	1089.80
690.40	1088.93
690.74	1088.02
691.08	1087.74
691.41	1086.34
691.75	1088.82
692.09	1088.12
692.43	1087.72
692.76	1088.40
693.10	1089.17
693.44	1090.34
693.78	1089.31
694.11	1090.01
694.45	1089.61
694.79	1092.26
695.13	1092.09
695.46	1093.40
695.80	1095.82
696.14	1096.35
696.48	1095.98
696.81	1094.55
697.15	1094.22
697.49	1092.49
697.82	1091.06
698.16	1090.32
698.50	1091.02
698.83	1089.71
699.17	1091.77
699.51	1093.10
699.84	1093.01
700.18	1092.45
700.52	1092.05
700.85	1089.68
701.19	1087.02
701.53	1085.31
701.86	1084.67
702.20	1086.31
702.54	1085.89
702.87	1088.61
703.21	1088.84
703.55	1086.24
703.88	1087.34
704.22	1088.04
704.55	1087.32
704.89	1087.55
705.23	1091.13
705.56	1088.26
705.90	1089.71
706.23	1088.63
706.57	1088.23
706.91	1084.44
707.24	1087.53
707.58	1085.33
707.91	1085.24
708.25	1086.20
708.58	1086.94
708.92	1086.80
709.26	1087.32
709.59	1089.07
709.93	1088.28
710.26	1090.88
710.60	1092.40
710.93	1093.05
711.27	1090.76
711.60	1092.05
711.94	1092.12
712.27	1087.39
712.61	1089.33
712.94	1093.01
713.28	1090.81
713.61	1090.06
713.95	1088.75
714.28	1083.76
714.62	1084.07
714.95	1086.13
715.29	1083.36
715.62	1087.86
715.96	1090.10
716.29	1088.93
716.63	1089.40
716.96	1092.16
717.29	1090.88
717.63	1093.85
717.96	1096.40
718.30	1097.57
718.63	1100.19
718.97	1100.03
719.30	1098.69
719.63	1094.65
719.97	1091.88
720.30	1088.56
720.64	1087.97
720.97	1083.57
721.30	1086.34
721.64	1086.24
721.97	1085.73
722.31	1087.27
722.64	1089.82
722.97	1086.69
723.31	1088.91
723.64	1091.39
723.97	1088.72
724.31	1088.61
724.64	1089.17
724.98	1088.21
725.31	1084.91
725.64	1087.32
725.98	1088.12
726.31	1087.88
726.64	1086.83
726.97	1088.07
727.31	1085.75
727.64	1082.45
727.97	1082.15
728.31	1080.70
728.64	1083.01
728.97	1082.29
729.31	1084.00
729.64	1085.28
729.97	1086.71
730.30	1085.61
730.64	1086.92
730.97	1087.83
731.30	1085.17
731.63	1086.97
731.97	1083.95
732.30	1086.03
732.63	1084.53
732.96	1083.95
733.30	1083.04
733.63	1085.35
733.96	1082.66
734.29	1087.18
734.63	1090.74
734.96	1091.11
735.29	1090.01
735.62	1088.93
735.95	1085.35
736.29	1083.39
736.62	1082.17
736.95	1084.63
737.28	1086.43
737.61	1086.38
737.94	1086.64
738.28	1086.45
738.61	1085.12
738.94	1084.49
739.27	1084.39
739.60	1087.25
739.93	1085.99
740.27	1087.25
740.60	1089.85
740.93	1092.19
741.26	1090.76
741.59	1091.67
741.92	1089.52
742.25	1089.40
742.58	1086.10
742.91	1084.98
743.25	1086.38
743.58	1087.74
743.91	1086.06
744.24	1087.95
744.57	1089.52
744.90	1091.74
745.23	1087.44
745.56	1087.55
745.89	1087.95
746.22	1084.04
746.55	1082.38
746.88	1082.47
747.21	1081.77
747.54	1081.14
747.87	1085.70
748.20	1083.79
748.53	1085.77
748.87	1088.54
749.20	1089.38
749.53	1085.52
749.86	1085.91
750.19	1087.32
750.52	1088.19
750.85	1085.40
751.18	1085.75
751.51	1086.22
751.84	1088.44
752.16	1084.00
752.49	1084.86
752.82	1085.61
753.15	1086.27
753.48	1083.08
753.81	1085.47
754.14	1085.47
754.47	1084.09
754.80	1080.56
755.13	1080.72
755.46	1078.24
755.79	1080.60
756.12	1085.75
756.45	1090.64
756.78	1092.70
757.11	1094.86
757.43	1094.41
757.76	1090.32
758.09	1085.47
758.42	1088.04
758.75	1086.17
759.08	1084.63
759.41	1084.35
759.74	1084.42
760.07	1080.02
760.39	1079.41
760.72	1078.52
761.05	1079.76
761.38	1081.91
761.71	1083.57
762.04	1084.35
762.36	1086.87
762.69	1085.77
763.02	1085.33
763.35	1083.83
