SpectraSuite Data File
++++++++++++++++++++++++++++++++++++
Date: Mon Aug 26 10:27:05 PDT 2019
User: corrico
Dark Spectrum Present: No
Reference Spectrum Present: No
Number of Sampled Component Spectra: 1
Spectrometers: USB2+H06089
Integration Time (usec): 10000 (USB2+H06089)
Spectra Averaged: 20 (USB2+H06089)
Boxcar Smoothing: 2 (USB2+H06089)
Correct for Electrical Dark: No (USB2+H06089)
Strobe/Lamp Enabled: No (USB2+H06089)
Correct for Detector Non-linearity: No (USB2+H06089)
Correct for Stray Light: No (USB2+H06089)
Number of Pixels in Processed Spectrum: 2048
>>>>>Begin Processed Spectral Data<<<<<
339.70	1024.34
340.07	1024.34
340.45	994.24
340.82	975.02
341.19	953.46
341.57	926.88
341.94	918.33
342.31	911.36
342.69	905.16
343.06	902.07
343.43	904.92
343.81	903.38
344.18	904.29
344.55	910.09
344.93	916.16
345.30	921.05
345.67	927.60
346.04	934.15
346.42	940.61
346.79	947.89
347.16	958.61
347.54	968.72
347.91	978.09
348.28	985.88
348.65	991.83
349.03	998.24
349.40	1002.52
349.77	1010.32
350.14	1019.65
350.52	1029.39
350.89	1034.17
351.26	1041.16
351.63	1047.30
352.01	1049.59
352.38	1055.63
352.75	1064.24
353.12	1069.34
353.50	1072.36
353.87	1077.79
354.24	1078.05
354.61	1079.74
354.98	1082.78
355.36	1084.65
355.73	1083.93
356.10	1084.25
356.47	1084.93
356.84	1087.04
357.22	1085.52
357.59	1085.40
357.96	1086.71
358.33	1081.73
358.70	1076.90
359.08	1076.27
359.45	1076.27
359.82	1073.81
360.19	1076.76
360.56	1078.85
360.94	1080.30
361.31	1079.06
361.68	1081.33
362.05	1080.11
362.42	1078.31
362.79	1076.37
363.16	1079.15
363.54	1075.01
363.91	1076.90
364.28	1077.65
364.65	1077.96
365.02	1076.79
365.39	1077.21
365.76	1072.83
366.14	1072.01
366.51	1073.00
366.88	1072.11
367.25	1071.17
367.62	1073.04
367.99	1073.70
368.36	1072.46
368.73	1074.89
369.10	1077.14
369.48	1077.30
369.85	1077.98
370.22	1076.67
370.59	1072.69
370.96	1072.25
371.33	1071.31
371.70	1067.57
372.07	1065.55
372.44	1066.61
372.81	1064.52
373.18	1062.30
373.55	1065.32
373.93	1068.01
374.30	1067.28
374.67	1069.65
375.04	1072.43
375.41	1071.26
375.78	1073.37
376.15	1071.36
376.52	1070.82
376.89	1070.87
377.26	1070.23
377.63	1072.13
378.00	1074.70
378.37	1073.30
378.74	1073.60
379.11	1073.44
379.48	1068.92
379.85	1070.00
380.22	1071.10
380.59	1072.32
380.96	1073.16
381.33	1073.51
381.70	1071.85
382.07	1072.11
382.44	1072.18
382.81	1073.30
383.18	1075.87
383.55	1073.16
383.92	1071.10
384.29	1070.87
384.66	1073.21
385.03	1072.76
385.40	1076.48
385.77	1078.89
386.14	1078.00
386.51	1074.03
386.88	1074.00
387.25	1072.46
387.62	1072.81
387.99	1068.78
388.36	1067.26
388.73	1064.64
389.10	1064.38
389.46	1064.76
389.83	1067.47
390.20	1069.55
390.57	1071.90
390.94	1073.93
391.31	1074.96
391.68	1074.00
392.05	1072.01
392.42	1071.52
392.79	1070.07
393.16	1068.99
393.53	1069.84
393.89	1073.39
394.26	1073.65
394.63	1074.35
395.00	1072.41
395.37	1072.88
395.74	1069.39
396.11	1068.81
396.48	1069.04
396.84	1072.95
397.21	1073.42
397.58	1072.32
397.95	1074.35
398.32	1073.74
398.69	1070.14
399.06	1070.33
399.42	1074.77
399.79	1071.45
400.16	1071.38
400.53	1073.32
400.90	1076.15
401.27	1073.53
401.64	1076.44
402.00	1079.41
402.37	1080.32
402.74	1077.65
403.11	1081.02
403.48	1077.72
403.84	1078.47
404.21	1076.95
404.58	1078.14
404.95	1077.63
405.32	1077.79
405.68	1075.24
406.05	1076.37
406.42	1077.04
406.79	1075.59
407.16	1079.03
407.52	1079.71
407.89	1079.83
408.26	1077.86
408.63	1079.36
408.99	1079.57
409.36	1079.99
409.73	1080.16
410.10	1079.78
410.47	1077.96
410.83	1077.04
411.20	1077.82
411.57	1076.32
411.94	1078.31
412.30	1077.51
412.67	1076.58
413.04	1074.94
413.40	1075.17
413.77	1072.41
414.14	1076.53
414.51	1075.22
414.87	1075.94
415.24	1076.95
415.61	1076.65
415.97	1074.47
416.34	1075.92
416.71	1073.95
417.08	1071.57
417.44	1071.33
417.81	1071.17
418.18	1073.11
418.54	1072.69
418.91	1075.76
419.28	1077.16
419.64	1078.19
420.01	1077.68
420.38	1079.71
420.74	1079.97
421.11	1083.22
421.48	1083.55
421.84	1082.38
422.21	1080.60
422.58	1079.81
422.94	1079.48
423.31	1079.55
423.68	1080.56
424.04	1079.85
424.41	1079.78
424.77	1075.34
425.14	1072.57
425.51	1071.73
425.87	1074.19
426.24	1073.93
426.61	1078.47
426.97	1078.26
427.34	1080.84
427.70	1079.10
428.07	1078.59
428.44	1075.57
428.80	1074.87
429.17	1072.57
429.53	1074.03
429.90	1073.79
430.27	1074.73
430.63	1077.58
431.00	1078.80
431.36	1081.98
431.73	1080.39
432.09	1080.95
432.46	1081.14
432.83	1079.99
433.19	1078.82
433.56	1083.48
433.92	1079.55
434.29	1081.16
434.65	1084.04
435.02	1081.73
435.38	1078.80
435.75	1084.28
436.11	1082.73
436.48	1080.27
436.84	1082.47
437.21	1084.02
437.57	1080.93
437.94	1081.82
438.30	1085.52
438.67	1087.60
439.03	1088.75
439.40	1089.52
439.76	1090.76
440.13	1087.25
440.49	1081.56
440.86	1081.73
441.22	1081.05
441.59	1078.57
441.95	1078.40
442.32	1080.93
442.68	1079.06
443.05	1081.44
443.41	1084.84
443.78	1086.69
444.14	1088.93
444.51	1090.78
444.87	1093.33
445.24	1092.19
445.60	1088.89
445.96	1085.66
446.33	1083.55
446.69	1078.10
447.06	1078.19
447.42	1078.36
447.79	1081.09
448.15	1078.54
448.51	1077.75
448.88	1075.43
449.24	1078.92
449.61	1079.95
449.97	1082.31
450.33	1084.42
450.70	1083.25
451.06	1078.59
451.43	1076.79
451.79	1076.41
452.15	1077.00
452.52	1078.94
452.88	1082.15
453.24	1084.00
453.61	1082.36
453.97	1081.40
454.34	1079.60
454.70	1076.01
455.06	1071.80
455.43	1072.55
455.79	1075.80
456.15	1076.97
456.52	1078.59
456.88	1079.38
457.24	1080.86
457.61	1077.56
457.97	1077.82
458.33	1076.15
458.70	1075.22
459.06	1074.47
459.42	1074.80
459.79	1075.80
460.15	1081.23
460.51	1083.32
460.88	1086.15
461.24	1085.42
461.60	1083.67
461.96	1078.87
462.33	1076.48
462.69	1073.81
463.05	1076.37
463.42	1077.77
463.78	1077.28
464.14	1079.69
464.50	1083.22
464.87	1082.03
465.23	1082.10
465.59	1082.36
465.95	1078.96
466.32	1073.30
466.68	1071.94
467.04	1066.54
467.40	1068.83
467.77	1071.45
468.13	1073.60
468.49	1075.69
468.85	1083.62
469.22	1083.57
469.58	1087.60
469.94	1088.44
470.30	1086.08
470.66	1079.20
471.03	1077.75
471.39	1073.25
471.75	1072.41
472.11	1071.47
472.47	1073.00
472.84	1072.36
473.20	1073.00
473.56	1075.80
473.92	1077.77
474.28	1078.66
474.65	1081.05
475.01	1080.34
475.37	1077.96
475.73	1074.87
476.09	1075.50
476.45	1076.06
476.81	1074.19
477.18	1075.59
477.54	1079.99
477.90	1079.13
478.26	1080.27
478.62	1084.39
478.98	1082.01
479.34	1082.66
479.71	1084.74
480.07	1083.57
480.43	1080.72
480.79	1084.74
481.15	1083.67
481.51	1083.67
481.87	1083.97
482.23	1084.21
482.59	1084.42
482.96	1083.60
483.32	1080.25
483.68	1078.28
484.04	1080.09
484.40	1079.03
484.76	1081.77
485.12	1084.23
485.48	1087.74
485.84	1086.31
486.20	1087.30
486.56	1084.39
486.92	1083.48
487.28	1081.75
487.64	1084.56
488.00	1082.47
488.37	1080.86
488.73	1081.75
489.09	1082.54
489.45	1079.38
489.81	1074.89
490.17	1076.69
490.53	1076.67
490.89	1076.25
491.25	1079.88
491.61	1088.44
491.97	1088.91
492.33	1090.01
492.69	1086.66
493.05	1083.13
493.41	1079.27
493.77	1077.37
494.13	1076.93
494.49	1079.64
494.85	1079.67
495.21	1081.02
495.57	1083.55
495.93	1086.24
496.29	1087.30
496.64	1088.72
497.00	1089.00
497.36	1089.43
497.72	1089.96
498.08	1092.02
498.44	1090.85
498.80	1088.91
499.16	1088.89
499.52	1086.34
499.88	1085.33
500.24	1086.27
500.60	1084.56
500.96	1082.99
501.32	1081.68
501.68	1078.92
502.03	1079.81
502.39	1082.47
502.75	1084.23
503.11	1084.46
503.47	1086.73
503.83	1085.96
504.19	1084.81
504.55	1086.03
504.91	1086.41
505.26	1083.81
505.62	1083.55
505.98	1083.39
506.34	1081.05
506.70	1082.85
507.06	1082.31
507.42	1082.90
507.78	1081.82
508.13	1082.80
508.49	1083.34
508.85	1086.34
509.21	1084.84
509.57	1086.29
509.93	1084.81
510.28	1080.63
510.64	1079.27
511.00	1081.70
511.36	1083.25
511.72	1085.07
512.07	1085.56
512.43	1085.14
512.79	1080.77
513.15	1080.77
513.51	1079.34
513.86	1079.85
514.22	1079.90
514.58	1085.68
514.94	1083.04
515.30	1080.63
515.65	1081.70
516.01	1080.74
516.37	1075.57
516.73	1077.82
517.08	1081.37
517.44	1079.31
517.80	1080.23
518.16	1084.25
518.51	1082.10
518.87	1081.16
519.23	1084.60
519.59	1085.26
519.94	1080.74
520.30	1082.26
520.66	1082.97
521.01	1079.83
521.37	1078.47
521.73	1081.63
522.09	1081.63
522.44	1080.48
522.80	1078.61
523.16	1079.50
523.51	1079.17
523.87	1082.17
524.23	1079.85
524.58	1082.83
524.94	1083.71
525.30	1084.09
525.65	1080.70
526.01	1084.35
526.37	1084.67
526.72	1083.46
527.08	1082.64
527.44	1083.88
527.79	1082.01
528.15	1081.05
528.51	1081.37
528.86	1082.66
529.22	1081.58
529.58	1080.81
529.93	1081.09
530.29	1083.67
530.65	1086.80
531.00	1087.74
531.36	1088.82
531.71	1091.16
532.07	1090.32
532.43	1085.80
532.78	1087.20
533.14	1090.10
533.49	1088.93
533.85	1090.67
534.21	1091.49
534.56	1088.77
534.92	1085.96
535.27	1086.99
535.63	1084.11
535.98	1085.66
536.34	1088.16
536.69	1087.86
537.05	1083.22
537.41	1083.29
537.76	1081.26
538.12	1079.48
538.47	1081.73
538.83	1084.49
539.18	1083.06
539.54	1083.32
539.89	1083.71
540.25	1082.36
540.60	1085.03
540.96	1088.23
541.31	1087.25
541.67	1088.19
542.02	1086.90
542.38	1086.87
542.73	1085.19
543.09	1086.94
543.44	1088.14
543.80	1086.87
544.15	1084.39
544.51	1086.73
544.86	1087.67
545.22	1086.22
545.57	1091.60
545.93	1092.45
546.28	1091.09
546.64	1089.68
546.99	1088.51
547.35	1083.90
547.70	1084.49
548.05	1082.47
548.41	1084.44
548.76	1082.45
549.12	1085.91
549.47	1089.22
549.83	1090.13
550.18	1086.85
550.53	1090.08
550.89	1087.76
551.24	1082.57
551.60	1084.23
551.95	1085.80
552.30	1084.30
552.66	1086.73
553.01	1087.20
553.37	1085.40
553.72	1085.70
554.07	1085.80
554.43	1084.02
554.78	1083.25
555.13	1082.54
555.49	1083.71
555.84	1083.13
556.19	1082.94
556.55	1084.30
556.90	1084.70
557.26	1079.46
557.61	1079.55
557.96	1078.92
558.32	1078.36
558.67	1076.23
559.02	1078.75
559.37	1077.65
559.73	1080.84
560.08	1083.11
560.43	1084.60
560.79	1082.38
561.14	1084.93
561.49	1082.71
561.85	1079.83
562.20	1078.85
562.55	1081.54
562.90	1078.45
563.26	1076.69
563.61	1077.11
563.96	1077.98
564.32	1078.89
564.67	1081.44
565.02	1088.47
565.37	1089.10
565.73	1090.60
566.08	1087.55
566.43	1087.95
566.78	1083.55
567.14	1084.23
567.49	1083.71
567.84	1087.44
568.19	1085.94
568.54	1084.44
568.90	1084.60
569.25	1084.44
569.60	1085.75
569.95	1088.30
570.31	1086.69
570.66	1087.62
571.01	1084.70
571.36	1082.71
571.71	1081.33
572.06	1083.06
572.42	1080.91
572.77	1080.91
573.12	1080.44
573.47	1080.27
573.82	1077.25
574.18	1078.10
574.53	1081.75
574.88	1081.47
575.23	1080.81
575.58	1084.00
575.93	1081.73
576.28	1080.93
576.64	1081.98
576.99	1085.66
577.34	1085.03
577.69	1088.12
578.04	1086.76
578.39	1087.30
578.74	1083.71
579.09	1083.79
579.44	1080.93
579.80	1081.00
580.15	1079.97
580.50	1079.24
580.85	1080.32
581.20	1080.48
581.55	1080.34
581.90	1079.95
582.25	1082.71
582.60	1081.80
582.95	1083.13
583.30	1085.84
583.65	1084.35
584.00	1083.41
584.35	1087.88
584.71	1087.74
585.06	1086.34
585.41	1088.00
585.76	1087.72
586.11	1084.02
586.46	1085.56
586.81	1085.40
587.16	1088.61
587.51	1089.71
587.86	1090.88
588.21	1090.08
588.56	1088.23
588.91	1084.32
589.26	1085.56
589.61	1084.93
589.96	1083.39
590.31	1084.81
590.66	1085.28
591.01	1083.01
591.36	1081.96
591.71	1081.75
592.06	1081.42
592.41	1082.08
592.76	1084.25
593.10	1085.26
593.45	1088.07
593.80	1090.85
594.15	1091.25
594.50	1088.61
594.85	1085.66
595.20	1085.77
595.55	1085.40
595.90	1085.68
596.25	1085.17
596.60	1086.01
596.95	1084.60
597.30	1083.43
597.64	1132.35
597.99	1136.21
598.34	1139.47
598.69	1140.31
599.04	1142.02
599.39	1092.14
599.74	1087.67
600.09	1087.11
600.44	1086.99
600.78	1085.24
601.13	1084.21
601.48	1087.25
601.83	1090.32
602.18	1089.68
602.53	1090.06
602.88	1089.26
603.22	1087.79
603.57	1083.34
603.92	1081.14
604.27	1082.45
604.62	1085.89
604.97	1085.68
605.31	1087.39
605.66	1088.23
606.01	1088.00
606.36	1085.38
606.71	1087.81
607.05	1088.28
607.40	1088.86
607.75	1088.54
608.10	1091.84
608.44	1091.18
608.79	1091.11
609.14	1092.09
609.49	1095.02
609.84	1095.65
610.18	1096.14
610.53	1099.44
610.88	1103.00
611.23	1102.79
611.57	1102.58
611.92	1100.68
612.27	1098.44
612.62	1097.41
612.96	1093.90
613.31	1093.33
613.66	1094.32
614.00	1092.07
614.35	1092.23
614.70	1091.63
615.05	1089.43
615.39	1088.56
615.74	1088.04
616.09	1082.97
616.43	1082.52
616.78	1081.94
617.13	1081.47
617.47	1081.96
617.82	1082.90
618.17	1084.65
618.51	1085.03
618.86	1083.97
619.21	1084.79
619.55	1088.12
619.90	1088.91
620.25	1090.01
620.59	1091.30
620.94	1089.57
621.29	1087.46
621.63	1084.79
621.98	1088.19
622.32	1087.23
622.67	1086.87
623.02	1085.89
623.36	1087.81
623.71	1084.49
624.05	1084.16
624.40	1087.25
624.75	1087.55
625.09	1087.55
625.44	1087.62
625.78	1089.12
626.13	1087.58
626.48	1090.13
626.82	1091.53
627.17	1091.63
627.51	1090.81
627.86	1090.29
628.20	1088.56
628.55	1084.37
628.89	1083.81
629.24	1082.73
629.58	1084.58
629.93	1083.11
630.28	1088.16
630.62	1088.56
630.97	1092.26
631.31	1089.99
631.66	1091.25
632.00	1088.37
632.35	1089.40
632.69	1087.23
633.04	1086.52
633.38	1086.97
633.73	1085.19
634.07	1083.27
634.42	1084.21
634.76	1085.45
635.11	1084.84
635.45	1087.97
635.79	1088.89
636.14	1087.65
636.48	1084.63
636.83	1085.82
637.17	1087.83
637.52	1086.01
637.86	1087.16
638.21	1090.39
638.55	1090.60
638.89	1088.35
639.24	1086.27
639.58	1084.51
639.93	1084.37
640.27	1083.18
640.61	1082.78
640.96	1083.74
641.30	1082.64
641.65	1081.82
641.99	1082.99
642.33	1083.01
642.68	1083.64
643.02	1085.87
643.37	1087.48
643.71	1085.82
644.05	1084.00
644.40	1082.15
644.74	1081.12
645.08	1083.15
645.43	1088.04
645.77	1087.34
646.11	1089.57
646.46	1089.52
646.80	1085.91
647.14	1082.26
647.49	1083.48
647.83	1081.80
648.17	1080.41
648.52	1079.03
648.86	1078.99
649.20	1081.63
649.55	1084.16
649.89	1086.59
650.23	1086.62
650.57	1089.12
650.92	1089.07
651.26	1088.65
651.60	1088.75
651.95	1089.75
652.29	1083.97
652.63	1079.74
652.97	1080.39
653.32	1078.14
653.66	1078.87
654.00	1079.36
654.34	1082.12
654.69	1078.73
655.03	1080.70
655.37	1080.63
655.71	1083.95
656.05	1083.60
656.40	1086.06
656.74	1082.31
657.08	1083.86
657.42	1080.37
657.76	1081.02
658.11	1082.54
658.45	1084.42
658.79	1084.60
659.13	1084.49
659.47	1085.05
659.82	1082.29
660.16	1081.44
660.50	1077.51
660.84	1077.70
661.18	1076.08
661.52	1077.00
661.87	1079.36
662.21	1082.26
662.55	1086.38
662.89	1086.50
663.23	1087.97
663.57	1085.89
663.91	1084.39
664.25	1086.03
664.60	1085.33
664.94	1086.13
665.28	1088.84
665.62	1093.50
665.96	1090.74
666.30	1093.52
666.64	1090.67
666.98	1093.78
667.32	1088.07
667.66	1085.45
668.01	1080.70
668.35	1082.12
668.69	1076.74
669.03	1077.65
669.37	1077.70
669.71	1079.17
670.05	1079.85
670.39	1081.49
670.73	1083.97
671.07	1086.52
671.41	1089.14
671.75	1089.14
672.09	1089.47
672.43	1086.76
672.77	1081.42
673.11	1079.53
673.45	1079.50
673.79	1076.51
674.13	1077.96
674.47	1080.51
674.81	1078.21
675.15	1078.52
675.49	1079.15
675.83	1080.63
676.17	1080.81
676.51	1081.19
676.85	1080.25
677.19	1080.65
677.53	1077.49
677.87	1077.09
678.21	1078.59
678.55	1081.51
678.89	1082.87
679.23	1082.24
679.57	1083.41
679.90	1082.54
680.24	1080.88
680.58	1082.03
680.92	1082.71
681.26	1082.24
681.60	1084.07
681.94	1082.64
682.28	1080.27
682.62	1082.47
682.96	1081.63
683.29	1080.39
683.63	1079.06
683.97	1081.02
684.31	1078.03
684.65	1081.19
684.99	1083.18
685.33	1087.27
685.67	1087.79
686.00	1090.95
686.34	1091.18
686.68	1091.70
687.02	1089.96
687.36	1086.66
687.70	1084.25
688.03	1080.77
688.37	1078.57
688.71	1078.33
689.05	1079.97
689.39	1082.38
689.72	1085.87
690.06	1083.36
690.40	1081.37
690.74	1080.91
691.08	1079.69
691.41	1076.62
691.75	1080.60
692.09	1080.39
692.43	1081.61
692.76	1081.02
693.10	1081.07
693.44	1079.15
693.78	1077.35
694.11	1078.00
694.45	1078.07
694.79	1080.20
695.13	1081.28
695.46	1085.80
695.80	1084.70
696.14	1085.75
696.48	1085.21
696.81	1081.82
697.15	1081.47
697.49	1079.83
697.82	1079.34
698.16	1078.78
698.50	1083.57
698.83	1084.93
699.17	1086.17
699.51	1083.71
699.84	1081.35
700.18	1082.08
700.52	1078.19
700.85	1077.30
701.19	1080.44
701.53	1082.38
701.86	1078.43
702.20	1079.53
702.54	1078.61
702.87	1077.91
703.21	1078.47
703.55	1077.49
703.88	1077.77
704.22	1078.43
704.55	1077.96
704.89	1080.58
705.23	1083.74
705.56	1087.02
705.90	1089.26
706.23	1089.92
706.57	1085.00
706.91	1087.86
707.24	1083.41
707.58	1083.27
707.91	1085.56
708.25	1088.56
708.58	1085.52
708.92	1083.57
709.26	1084.18
709.59	1084.60
709.93	1084.11
710.26	1085.56
710.60	1091.88
710.93	1090.39
711.27	1082.85
711.60	1082.01
711.94	1080.02
712.27	1077.89
712.61	1076.88
712.94	1083.50
713.28	1082.54
713.61	1081.23
713.95	1081.54
714.28	1082.47
714.62	1077.91
714.95	1081.05
715.29	1083.71
715.62	1081.05
715.96	1080.67
716.29	1083.20
716.63	1079.88
716.96	1080.44
717.29	1080.81
717.63	1082.94
717.96	1081.37
718.30	1086.27
718.63	1083.62
718.97	1083.06
719.30	1084.98
719.63	1085.96
719.97	1083.93
720.30	1086.48
720.64	1088.86
720.97	1084.02
721.30	1085.77
721.64	1085.05
721.97	1081.54
722.31	1081.66
722.64	1083.04
722.97	1082.17
723.31	1080.67
723.64	1085.40
723.97	1083.18
724.31	1082.66
724.64	1083.46
724.98	1082.36
725.31	1077.30
725.64	1078.52
725.98	1079.76
726.31	1078.47
726.64	1081.87
726.97	1083.69
727.31	1085.00
727.64	1087.04
727.97	1085.80
728.31	1083.43
728.64	1084.14
728.97	1084.39
729.31	1080.51
729.64	1083.06
729.97	1086.24
730.30	1088.44
730.64	1089.99
730.97	1088.75
731.30	1088.23
731.63	1086.83
731.97	1084.98
732.30	1081.30
732.63	1079.99
732.96	1080.32
733.30	1082.17
733.63	1077.33
733.96	1079.92
734.29	1083.11
734.63	1081.33
734.96	1078.75
735.29	1081.84
735.62	1079.57
735.95	1081.49
736.29	1081.80
736.62	1082.80
736.95	1080.46
737.28	1082.24
737.61	1080.79
737.94	1084.67
738.28	1083.15
738.61	1086.50
738.94	1089.31
739.27	1089.00
739.60	1088.37
739.93	1087.13
740.27	1087.41
740.60	1083.95
740.93	1081.26
741.26	1081.12
741.59	1084.96
741.92	1083.90
742.25	1082.40
742.58	1085.40
742.91	1082.83
743.25	1083.39
743.58	1082.33
743.91	1083.97
744.24	1084.86
744.57	1082.01
744.90	1079.55
745.23	1082.05
745.56	1080.44
745.89	1078.61
746.22	1080.32
746.55	1077.44
746.88	1076.76
747.21	1075.85
747.54	1077.18
747.87	1079.10
748.20	1078.73
748.53	1079.67
748.87	1081.02
749.20	1079.90
749.53	1079.13
749.86	1080.74
750.19	1081.40
750.52	1080.37
750.85	1081.23
751.18	1081.00
751.51	1080.11
751.84	1075.01
752.16	1077.98
752.49	1074.54
752.82	1074.61
753.15	1077.56
753.48	1083.13
753.81	1084.77
754.14	1087.09
754.47	1087.27
754.80	1083.57
755.13	1080.65
755.46	1076.65
755.79	1077.75
756.12	1075.48
756.45	1080.09
756.78	1080.63
757.11	1082.57
757.43	1080.56
757.76	1084.23
758.09	1086.41
758.42	1086.52
758.75	1083.43
759.08	1085.07
759.41	1084.98
759.74	1080.95
760.07	1078.38
760.39	1079.48
760.72	1078.85
761.05	1077.63
761.38	1076.41
761.71	1080.27
762.04	1084.21
762.36	1088.51
762.69	1092.02
763.02	1092.94
763.35	1094.67
763.68	1093.55
764.01	1091.81
764.33	1087.46
764.66	1085.77
764.99	1082.64
765.32	1083.15
765.65	1081.00
765.97	1079.83
766.30	1082.54
